TP9,AF7,AF8,TP10
-23.92578125,-36.62109375,-51.26953125,-27.83203125
-7.32421875,-31.25,-52.24609375,68.359375
-33.69140625,-42.48046875,-48.828125,13.18359375
-66.40625,-49.8046875,-46.875,-109.86328125
-60.05859375,-49.31640625,-49.31640625,-142.08984375
-38.0859375,-40.0390625,-44.921875,-31.25
-27.34375,-36.1328125,-39.55078125,80.56640625
-41.015625,-41.50390625,-42.48046875,38.57421875
-64.94140625,-53.22265625,-51.26953125,-85.9375
-65.4296875,-64.94140625,-58.10546875,-139.6484375
-32.71484375,-46.875,-47.36328125,-48.33984375
-10.25390625,-25.87890625,-40.52734375,71.2890625
-37.109375,-33.203125,-43.9453125,39.55078125
-65.91796875,-42.96875,-40.0390625,-90.33203125
-62.98828125,-45.8984375,-40.0390625,-160.64453125
-46.875,-50.29296875,-46.875,-91.30859375
-37.109375,-56.640625,-51.26953125,35.64453125
-50.29296875,-49.31640625,-49.8046875,37.59765625
-74.21875,-48.828125,-43.9453125,-88.8671875
-85.9375,-57.6171875,-44.43359375,-168.45703125
-65.4296875,-55.17578125,-50.78125,-102.05078125
-35.64453125,-45.41015625,-48.828125,34.66796875
-40.52734375,-39.0625,-47.8515625,48.33984375
-62.5,-42.96875,-51.26953125,-73.73046875
-61.5234375,-50.78125,-50.29296875,-158.203125
-43.9453125,-52.734375,-49.8046875,-113.28125
-20.99609375,-57.6171875,-53.7109375,22.94921875
-26.85546875,-49.8046875,-57.12890625,57.6171875
-57.12890625,-40.52734375,-55.6640625,-45.8984375
-66.40625,-46.38671875,-54.19921875,-136.23046875
-53.22265625,-41.50390625,-54.6875,-113.76953125
-30.2734375,-42.96875,-54.19921875,11.23046875
-30.2734375,-41.9921875,-46.875,68.359375
-61.5234375,-40.0390625,-42.48046875,-20.99609375
-78.125,-46.875,-50.29296875,-137.6953125
-59.5703125,-44.921875,-48.33984375,-123.046875
-34.1796875,-40.52734375,-38.0859375,9.765625
-24.4140625,-38.0859375,-39.55078125,79.1015625
-47.8515625,-37.109375,-47.36328125,1.46484375
-68.359375,-43.45703125,-48.828125,-127.9296875
-51.7578125,-51.7578125,-41.015625,-134.27734375
-27.83203125,-44.921875,-34.1796875,-1.953125
-29.78515625,-39.0625,-40.0390625,68.359375
-51.26953125,-39.0625,-46.38671875,-8.30078125
-76.171875,-39.55078125,-47.36328125,-130.37109375
-70.80078125,-45.8984375,-48.828125,-150.390625
-40.52734375,-43.9453125,-45.8984375,-30.2734375
-24.4140625,-38.57421875,-44.43359375,70.3125
-35.64453125,-39.0625,-49.31640625,20.01953125
-56.640625,-53.7109375,-43.45703125,-111.81640625
-59.08203125,-54.19921875,-39.55078125,-153.80859375
-41.50390625,-39.55078125,-41.015625,-47.36328125
-24.4140625,-34.1796875,-37.109375,66.40625
-42.48046875,-31.73828125,-38.57421875,30.2734375
-69.3359375,-34.1796875,-45.8984375,-101.5625
-68.359375,-42.96875,-50.78125,-166.9921875
-50.78125,-47.8515625,-53.22265625,-84.47265625
-34.1796875,-46.875,-44.921875,41.015625
-54.19921875,-52.24609375,-47.8515625,16.6015625
-88.8671875,-55.6640625,-58.10546875,-110.83984375
-89.35546875,-48.33984375,-50.78125,-165.52734375
-68.84765625,-47.8515625,-44.921875,-91.30859375
-43.45703125,-46.875,-41.50390625,33.69140625
-44.921875,-38.57421875,-40.52734375,41.9921875
-68.84765625,-38.0859375,-47.8515625,-75.68359375
-78.125,-46.875,-52.734375,-154.296875
-54.6875,-56.15234375,-53.7109375,-99.12109375
-27.34375,-50.78125,-42.96875,37.59765625
-43.9453125,-40.0390625,-41.015625,60.546875
-71.77734375,-46.875,-50.29296875,-53.22265625
-65.4296875,-54.6875,-49.31640625,-135.7421875
-51.26953125,-52.24609375,-48.828125,-103.02734375
-37.59765625,-37.59765625,-55.17578125,15.13671875
-42.48046875,-25.390625,-49.31640625,50.29296875
-75.1953125,-33.69140625,-43.45703125,-57.12890625
-82.51953125,-43.45703125,-43.45703125,-155.2734375
-61.5234375,-43.45703125,-41.015625,-125.9765625
-36.62109375,-33.203125,-41.50390625,3.90625
-37.59765625,-31.25,-45.41015625,62.01171875
-53.7109375,-32.71484375,-47.36328125,-30.76171875
-75.68359375,-45.41015625,-46.38671875,-153.80859375
-72.265625,-54.19921875,-47.36328125,-148.4375
-37.59765625,-40.52734375,-48.33984375,-15.13671875
-29.296875,-29.78515625,-55.6640625,59.5703125
-56.640625,-30.2734375,-60.546875,-22.4609375
-84.9609375,-41.015625,-61.03515625,-145.5078125
-74.70703125,-50.78125,-56.640625,-156.73828125
-46.875,-49.8046875,-51.7578125,-37.109375
-41.9921875,-36.1328125,-45.8984375,59.08203125
-62.5,-27.83203125,-51.26953125,-1.953125
-87.40234375,-37.109375,-64.453125,-133.30078125
-74.70703125,-53.7109375,-58.10546875,-160.64453125
-42.48046875,-52.24609375,-46.875,-39.55078125
-33.203125,-39.55078125,-46.875,67.87109375
-42.48046875,-31.25,-41.50390625,22.94921875
-76.66015625,-46.875,-48.33984375,-107.91015625
-67.3828125,-58.59375,-55.6640625,-151.85546875
-33.69140625,-48.33984375,-52.24609375,-48.828125
-24.90234375,-36.62109375,-52.734375,61.03515625
-38.0859375,-32.2265625,-58.59375,25.87890625
-66.40625,-42.96875,-61.03515625,-95.703125
-66.40625,-50.29296875,-60.546875,-147.94921875
-31.73828125,-43.9453125,-59.08203125,-67.87109375
-14.16015625,-41.50390625,-48.828125,56.15234375
-41.50390625,-41.9921875,-47.36328125,47.8515625
-76.171875,-45.8984375,-48.33984375,-78.125
-75.1953125,-52.734375,-46.875,-152.34375
-49.31640625,-45.8984375,-50.78125,-81.0546875
-27.34375,-37.109375,-58.59375,44.43359375
-47.8515625,-35.64453125,-65.4296875,38.57421875
-81.0546875,-41.50390625,-60.05859375,-82.03125
-76.66015625,-45.41015625,-49.8046875,-156.25
-49.8046875,-44.921875,-47.36328125,-97.65625
-25.390625,-36.62109375,-52.734375,36.1328125
-27.83203125,-28.3203125,-51.7578125,66.40625
-54.19921875,-37.59765625,-44.921875,-43.45703125
-76.171875,-58.10546875,-45.41015625,-147.94921875
-55.17578125,-61.5234375,-45.8984375,-107.421875
-13.18359375,-44.921875,-42.96875,27.34375
-21.97265625,-27.34375,-44.43359375,50.78125
-63.96484375,-27.83203125,-50.29296875,-63.96484375
-77.1484375,-44.921875,-53.22265625,-163.57421875
-61.5234375,-44.921875,-51.7578125,-135.25390625
-37.109375,-35.64453125,-49.8046875,-7.32421875
-32.2265625,-32.2265625,-50.78125,56.640625
-62.01171875,-32.71484375,-62.5,-34.1796875
-83.0078125,-37.59765625,-67.87109375,-151.85546875
-69.3359375,-44.921875,-55.6640625,-141.11328125
-42.96875,-41.9921875,-41.9921875,-14.6484375
-34.66796875,-33.203125,-40.52734375,60.05859375
-62.5,-38.57421875,-51.26953125,-20.5078125
-88.8671875,-51.7578125,-67.3828125,-149.4140625
-74.21875,-55.17578125,-68.359375,-154.78515625
-36.1328125,-44.43359375,-61.5234375,-33.69140625
-16.6015625,-36.62109375,-55.17578125,57.12890625
-38.0859375,-37.59765625,-51.7578125,3.90625
-65.91796875,-38.57421875,-52.734375,-116.2109375
-60.05859375,-39.0625,-54.6875,-149.4140625
-40.0390625,-39.55078125,-54.19921875,-53.7109375
-31.73828125,-36.62109375,-53.22265625,43.45703125
-41.015625,-29.78515625,-56.640625,0.48828125
-66.40625,-41.9921875,-63.4765625,-125.48828125
-64.94140625,-51.7578125,-64.94140625,-166.50390625
-36.1328125,-46.875,-50.78125,-68.359375
-20.5078125,-41.015625,-48.828125,46.38671875
-26.85546875,-47.36328125,-54.19921875,28.3203125
-57.6171875,-56.640625,-54.19921875,-89.84375
-62.98828125,-57.12890625,-54.6875,-149.4140625
-37.109375,-54.6875,-48.828125,-70.3125
-15.625,-39.55078125,-38.57421875,56.640625
-25.87890625,-37.109375,-43.45703125,47.36328125
-56.15234375,-41.9921875,-51.7578125,-82.03125
-52.24609375,-41.015625,-55.17578125,-159.66796875
-29.78515625,-41.9921875,-55.6640625,-102.05078125
-20.01953125,-32.71484375,-50.29296875,33.203125
-32.71484375,-36.1328125,-52.24609375,56.15234375
-58.59375,-47.8515625,-48.828125,-55.17578125
-63.96484375,-43.9453125,-42.96875,-144.53125
-42.48046875,-41.015625,-46.38671875,-103.02734375
-23.92578125,-44.921875,-47.8515625,29.296875
-35.64453125,-41.50390625,-39.55078125,63.4765625
-61.03515625,-37.59765625,-39.55078125,-43.45703125
-82.03125,-51.26953125,-47.36328125,-159.66796875
-72.75390625,-51.26953125,-41.015625,-138.18359375
-39.0625,-31.73828125,-38.57421875,6.34765625
-35.64453125,-32.71484375,-37.109375,64.453125
-57.12890625,-42.48046875,-31.25,-30.76171875
-68.84765625,-49.8046875,-31.73828125,-134.765625
-58.10546875,-55.6640625,-37.59765625,-121.09375
-29.296875,-51.26953125,-39.0625,0.9765625
-26.85546875,-38.57421875,-38.0859375,66.40625
-48.33984375,-41.015625,-43.9453125,-17.578125
-66.40625,-56.15234375,-48.828125,-137.6953125
-62.01171875,-52.734375,-53.22265625,-148.4375
-38.0859375,-36.62109375,-53.22265625,-36.1328125
-36.1328125,-32.71484375,-46.38671875,48.33984375
-59.5703125,-41.9921875,-44.921875,-11.23046875
-73.73046875,-44.43359375,-47.36328125,-130.37109375
-55.17578125,-45.41015625,-49.8046875,-147.94921875
-32.2265625,-47.36328125,-47.8515625,-36.62109375
-28.80859375,-38.57421875,-43.45703125,64.94140625
-47.36328125,-33.203125,-47.8515625,10.25390625
-74.70703125,-41.9921875,-50.29296875,-121.58203125
-68.359375,-49.8046875,-46.38671875,-161.62109375
-45.41015625,-47.8515625,-34.66796875,-53.22265625
-37.59765625,-36.62109375,-23.92578125,58.10546875
-54.19921875,-36.62109375,-30.2734375,10.25390625
-76.66015625,-49.31640625,-30.2734375,-114.2578125
-69.82421875,-61.5234375,-30.2734375,-161.62109375
-43.9453125,-62.98828125,-46.875,-72.265625
-27.83203125,-46.38671875,-48.828125,61.03515625
-32.2265625,-39.55078125,-37.59765625,48.33984375
-62.98828125,-51.26953125,-37.59765625,-88.37890625
-64.453125,-57.6171875,-43.9453125,-157.71484375
-40.0390625,-57.12890625,-42.96875,-76.66015625
-20.01953125,-44.921875,-37.59765625,56.640625
-32.71484375,-32.71484375,-39.0625,52.24609375
-66.89453125,-37.109375,-45.8984375,-71.2890625
-69.82421875,-41.015625,-46.875,-146.484375
-51.26953125,-43.45703125,-35.15625,-88.8671875
-33.203125,-45.41015625,-40.52734375,34.1796875
-35.64453125,-39.55078125,-48.828125,56.640625
-54.19921875,-31.25,-48.828125,-53.7109375
-73.73046875,-42.48046875,-49.8046875,-154.78515625
-61.5234375,-53.7109375,-45.8984375,-114.2578125
-28.80859375,-38.57421875,-40.52734375,16.11328125
-31.25,-32.2265625,-40.0390625,54.6875
-60.546875,-39.0625,-41.015625,-43.45703125
-68.84765625,-52.24609375,-40.52734375,-143.06640625
-48.33984375,-49.8046875,-40.52734375,-116.2109375
-27.34375,-41.015625,-40.0390625,10.7421875
-29.296875,-40.52734375,-50.78125,58.10546875
-62.01171875,-43.45703125,-58.59375,-37.109375
-68.84765625,-49.31640625,-41.50390625,-139.6484375
-42.48046875,-45.8984375,-30.76171875,-119.140625
-20.99609375,-41.50390625,-30.76171875,9.765625
-15.13671875,-41.50390625,-36.62109375,73.73046875
-39.0625,-49.31640625,-41.50390625,-12.6953125
-60.05859375,-52.734375,-48.828125,-131.8359375
-45.8984375,-48.33984375,-56.640625,-135.25390625
-15.625,-45.41015625,-45.41015625,-15.625
-12.6953125,-37.109375,-42.96875,69.3359375
-42.48046875,-34.1796875,-51.26953125,9.27734375
-65.4296875,-50.78125,-50.29296875,-110.83984375
-48.828125,-58.59375,-46.38671875,-133.30078125
-29.296875,-49.31640625,-46.875,-19.04296875
-20.5078125,-36.1328125,-46.38671875,78.61328125
-43.9453125,-43.45703125,-42.48046875,20.5078125
-86.9140625,-60.05859375,-43.45703125,-114.2578125
-80.078125,-57.6171875,-41.015625,-149.4140625
-42.96875,-44.921875,-32.2265625,-41.50390625
-29.296875,-43.45703125,-31.73828125,62.01171875
-46.38671875,-50.29296875,-41.9921875,20.01953125
-74.21875,-50.78125,-46.38671875,-103.515625
-76.171875,-45.8984375,-47.8515625,-152.34375
-48.828125,-45.41015625,-44.43359375,-63.96484375
-33.203125,-43.45703125,-40.0390625,58.59375
-46.38671875,-35.15625,-42.48046875,46.38671875
-75.1953125,-44.43359375,-44.921875,-89.35546875
-74.70703125,-62.01171875,-44.921875,-169.43359375
-45.8984375,-57.6171875,-43.45703125,-83.0078125
-26.3671875,-47.8515625,-42.48046875,56.640625
-28.80859375,-42.96875,-43.45703125,52.24609375
-62.5,-48.33984375,-49.8046875,-70.3125
-74.21875,-50.29296875,-49.31640625,-145.99609375
-56.15234375,-45.8984375,-36.1328125,-92.7734375
-40.52734375,-53.7109375,-33.203125,35.15625
-41.50390625,-52.734375,-41.9921875,61.03515625
-66.40625,-44.43359375,-42.96875,-50.78125
-78.61328125,-53.7109375,-41.9921875,-154.296875
-61.03515625,-55.6640625,-46.38671875,-120.1171875
-38.0859375,-48.828125,-42.48046875,18.06640625
-41.015625,-47.36328125,-43.9453125,51.26953125
-69.3359375,-46.875,-53.7109375,-55.17578125
-89.35546875,-52.734375,-50.78125,-155.2734375
-66.40625,-46.875,-48.33984375,-129.39453125
-36.1328125,-41.50390625,-44.43359375,4.8828125
-43.9453125,-40.0390625,-39.55078125,62.01171875
-68.84765625,-46.38671875,-51.7578125,-28.3203125
-83.984375,-59.5703125,-63.96484375,-141.6015625
-70.3125,-53.22265625,-62.5,-139.6484375
-44.43359375,-39.55078125,-51.26953125,-16.11328125
-39.0625,-33.69140625,-45.8984375,66.40625
-62.01171875,-43.45703125,-45.8984375,-9.27734375
-84.47265625,-59.5703125,-45.8984375,-135.7421875
-62.5,-54.19921875,-47.36328125,-145.01953125
-35.15625,-34.1796875,-49.8046875,-24.90234375
-35.64453125,-39.55078125,-49.31640625,61.03515625
-53.7109375,-49.31640625,-44.921875,6.34765625
-77.63671875,-48.33984375,-44.921875,-114.2578125
-62.5,-56.15234375,-48.33984375,-143.06640625
-28.3203125,-56.15234375,-48.33984375,-36.1328125
-25.390625,-43.9453125,-46.875,61.5234375
-43.45703125,-42.96875,-41.015625,16.6015625
-66.89453125,-53.7109375,-38.57421875,-112.3046875
-58.59375,-65.4296875,-42.48046875,-161.1328125
-35.64453125,-67.3828125,-46.875,-67.3828125
-36.1328125,-54.6875,-46.38671875,49.31640625
-48.828125,-49.8046875,-43.9453125,31.25
-75.68359375,-55.6640625,-49.8046875,-95.703125
-79.58984375,-60.05859375,-55.6640625,-165.0390625
-51.26953125,-48.828125,-60.05859375,-83.984375
-39.0625,-37.59765625,-51.7578125,44.921875
-53.7109375,-42.96875,-51.7578125,34.1796875
-82.03125,-52.734375,-56.15234375,-95.703125
-91.796875,-72.75390625,-62.98828125,-173.828125
-69.82421875,-71.2890625,-63.4765625,-107.91015625
-42.48046875,-49.8046875,-47.8515625,28.80859375
-47.8515625,-41.50390625,-44.921875,41.015625
-78.61328125,-42.48046875,-46.38671875,-73.73046875
-83.49609375,-45.41015625,-42.48046875,-159.1796875
-61.5234375,-45.8984375,-43.45703125,-111.81640625
-43.45703125,-41.9921875,-47.8515625,17.578125
-48.33984375,-27.34375,-49.8046875,47.8515625
-70.3125,-31.25,-42.48046875,-48.33984375
-83.49609375,-56.15234375,-33.203125,-146.484375
-71.2890625,-61.03515625,-42.48046875,-124.0234375
-40.0390625,-51.7578125,-46.875,10.7421875
-31.73828125,-41.50390625,-36.62109375,66.40625
-51.26953125,-40.52734375,-35.64453125,-32.71484375
-62.5,-49.31640625,-43.45703125,-145.5078125
-49.8046875,-49.31640625,-51.26953125,-127.9296875
-26.3671875,-37.109375,-47.36328125,0.0
-25.390625,-24.90234375,-37.109375,62.01171875
-49.31640625,-35.64453125,-39.55078125,-25.87890625
-67.3828125,-44.921875,-51.26953125,-143.06640625
-55.6640625,-49.31640625,-59.5703125,-147.4609375
-25.390625,-52.24609375,-51.26953125,-22.4609375
-26.85546875,-46.875,-41.9921875,59.5703125
-58.59375,-45.41015625,-44.921875,-18.5546875
-79.1015625,-44.43359375,-48.33984375,-136.23046875
-65.91796875,-43.45703125,-47.8515625,-139.6484375
-40.0390625,-35.15625,-43.9453125,-21.97265625
-29.296875,-30.76171875,-40.52734375,72.265625
-45.8984375,-42.96875,-40.52734375,18.06640625
-75.68359375,-57.6171875,-43.9453125,-112.79296875
-66.89453125,-53.22265625,-47.8515625,-145.99609375
-39.0625,-37.59765625,-41.015625,-38.0859375
-28.80859375,-29.78515625,-39.55078125,63.96484375
-48.33984375,-40.52734375,-45.8984375,15.625
-77.1484375,-49.8046875,-44.43359375,-107.91015625
-62.5,-47.36328125,-46.38671875,-155.76171875
-33.203125,-43.45703125,-49.31640625,-67.87109375
-35.15625,-39.55078125,-44.43359375,46.875
-46.38671875,-47.8515625,-37.109375,29.78515625
-67.3828125,-58.10546875,-40.52734375,-86.9140625
-72.75390625,-62.01171875,-44.921875,-148.92578125
-56.15234375,-59.5703125,-43.9453125,-71.2890625
-49.8046875,-48.828125,-39.55078125,50.29296875
-54.19921875,-41.9921875,-38.57421875,49.31640625
-81.54296875,-56.640625,-56.640625,-83.984375
-87.40234375,-64.94140625,-64.453125,-172.8515625
-57.6171875,-49.31640625,-55.6640625,-108.3984375
-33.203125,-36.62109375,-46.875,28.3203125
-39.0625,-27.34375,-44.43359375,51.26953125
-58.10546875,-36.62109375,-50.29296875,-61.5234375
-67.87109375,-60.546875,-53.7109375,-158.69140625
-51.26953125,-59.08203125,-46.38671875,-106.4453125
-27.34375,-48.33984375,-40.0390625,35.64453125
-27.83203125,-47.36328125,-39.0625,65.4296875
-58.10546875,-43.45703125,-35.64453125,-40.52734375
-82.03125,-36.62109375,-39.0625,-140.625
-73.2421875,-44.43359375,-43.45703125,-119.140625
-35.64453125,-47.36328125,-42.48046875,6.8359375
-35.15625,-36.1328125,-37.109375,58.59375
-78.125,-43.45703125,-28.3203125,-27.34375
-78.61328125,-50.78125,-26.3671875,-118.65234375
-56.15234375,-46.38671875,-32.71484375,-119.140625
-45.8984375,-38.57421875,-37.59765625,-13.18359375
-45.8984375,-29.78515625,-40.0390625,51.26953125
-71.77734375,-32.71484375,-44.43359375,-38.0859375
-99.12109375,-38.57421875,-51.7578125,-159.1796875
-81.54296875,-36.1328125,-58.10546875,-170.41015625
-66.89453125,-26.3671875,-52.734375,-69.3359375
-70.80078125,-12.6953125,-60.05859375,3.41796875
-84.47265625,-24.90234375,-72.265625,-72.75390625
-124.0234375,-41.015625,-62.01171875,-206.54296875
-127.9296875,-41.9921875,-62.5,-236.81640625
-98.6328125,-36.62109375,-84.47265625,-139.16015625
-105.95703125,-20.99609375,-93.26171875,-44.43359375
-117.1875,-39.0625,-55.17578125,-79.58984375
-130.859375,-34.66796875,-47.36328125,-199.70703125
-120.1171875,5.859375,-65.91796875,-238.76953125
-91.796875,4.8828125,-51.26953125,-136.71875
-86.9140625,24.4140625,-50.78125,-33.203125
-84.47265625,42.48046875,-56.640625,-55.17578125
-75.1953125,41.015625,-68.359375,-154.78515625
-56.640625,31.73828125,-80.078125,-183.59375
-1.46484375,26.85546875,-62.5,-75.68359375
41.50390625,31.25,-54.19921875,37.59765625
21.97265625,27.34375,-65.91796875,32.71484375
20.01953125,24.90234375,-72.265625,-48.33984375
26.85546875,23.4375,-85.9375,-111.328125
49.8046875,5.859375,-97.65625,-42.96875
95.703125,21.484375,-69.3359375,99.609375
82.51953125,50.78125,-57.6171875,122.0703125
36.62109375,18.06640625,-65.4296875,8.7890625
47.36328125,9.27734375,-80.078125,-66.89453125
73.2421875,28.80859375,-80.078125,-14.6484375
66.89453125,30.76171875,-62.01171875,93.26171875
59.08203125,10.7421875,-54.19921875,121.58203125
38.57421875,2.9296875,-51.26953125,34.66796875
23.92578125,18.5546875,-60.546875,-62.5
41.015625,9.765625,-64.94140625,-44.43359375
56.640625,3.90625,-58.59375,78.61328125
38.0859375,2.9296875,-45.8984375,119.140625
6.34765625,-15.13671875,-40.0390625,31.73828125
-6.8359375,-25.87890625,-59.08203125,-72.75390625
-1.953125,-19.04296875,-73.73046875,-77.63671875
20.5078125,-11.71875,-55.6640625,47.36328125
18.06640625,-31.73828125,-46.875,110.3515625
-14.6484375,-49.31640625,-49.31640625,23.92578125
-51.26953125,-24.4140625,-59.08203125,-90.8203125
-40.0390625,-16.6015625,-78.61328125,-97.65625
-0.9765625,-23.92578125,-71.2890625,12.6953125
2.44140625,-25.87890625,-47.8515625,90.8203125
-24.4140625,-24.90234375,-29.78515625,41.9921875
-34.1796875,-22.4609375,-42.96875,-56.15234375
-20.01953125,-35.15625,-67.3828125,-85.44921875
-4.39453125,-42.96875,-52.24609375,-1.46484375
-1.46484375,-25.390625,-33.203125,94.23828125
-23.4375,-23.4375,-35.15625,51.7578125
-36.1328125,-39.0625,-46.38671875,-58.59375
-35.15625,-50.78125,-46.875,-93.75
-31.25,-47.36328125,-51.26953125,-15.13671875
-33.69140625,-23.4375,-49.8046875,69.3359375
-52.24609375,-20.5078125,-42.48046875,40.52734375
-61.5234375,-62.5,-47.8515625,-60.546875
-51.26953125,-65.91796875,-54.6875,-116.2109375
-16.11328125,-17.578125,-45.8984375,-44.43359375
-2.44140625,-18.5546875,-23.92578125,70.3125
-30.76171875,-38.57421875,-26.85546875,57.6171875
-54.19921875,-57.12890625,-34.66796875,-50.29296875
-54.6875,-44.921875,-51.7578125,-107.91015625
-30.2734375,-17.08984375,-64.453125,-47.36328125
-25.87890625,-35.15625,-57.6171875,39.55078125
-41.015625,-47.36328125,-59.5703125,25.87890625
-60.546875,-33.69140625,-64.94140625,-70.3125
-56.640625,-42.96875,-60.05859375,-129.39453125
-39.55078125,-60.05859375,-46.38671875,-78.61328125
-37.109375,-60.05859375,-43.9453125,24.90234375
-46.38671875,-48.33984375,-54.19921875,41.50390625
-62.5,-38.0859375,-58.10546875,-46.875
-62.98828125,-43.45703125,-50.29296875,-116.2109375
-40.52734375,-63.4765625,-49.31640625,-82.03125
-20.99609375,-56.15234375,-46.875,26.3671875
-39.55078125,-44.921875,-50.29296875,53.7109375
-71.77734375,-62.5,-59.08203125,-36.62109375
-75.68359375,-56.640625,-61.03515625,-112.3046875
-58.59375,-49.8046875,-51.26953125,-87.890625
-34.66796875,-43.45703125,-48.33984375,6.34765625
-38.0859375,-47.36328125,-56.640625,48.828125
-76.66015625,-57.12890625,-63.96484375,-32.71484375
-96.6796875,-52.734375,-62.01171875,-128.41796875
-69.3359375,-52.734375,-58.59375,-123.046875
-35.64453125,-49.8046875,-58.10546875,-21.97265625
-41.9921875,-41.9921875,-53.22265625,43.9453125
-70.3125,-37.109375,-51.26953125,-13.671875
-98.14453125,-58.10546875,-65.4296875,-123.046875
-70.80078125,-77.1484375,-66.89453125,-137.6953125
-43.9453125,-54.19921875,-56.640625,-36.1328125
-66.89453125,-35.15625,-49.8046875,39.0625
-88.8671875,-37.59765625,-39.55078125,-4.8828125
-95.21484375,-41.50390625,-41.015625,-102.05078125
-70.80078125,-54.6875,-49.31640625,-126.953125
-30.76171875,-43.45703125,-57.12890625,-46.875
-21.97265625,-40.0390625,-61.5234375,23.92578125
-64.94140625,-58.10546875,-53.7109375,-6.34765625
-94.7265625,-58.10546875,-49.31640625,-103.02734375
-78.125,-44.921875,-47.8515625,-146.484375
-44.921875,-32.71484375,-47.36328125,-69.82421875
-27.83203125,-33.69140625,-50.29296875,25.87890625
-51.7578125,-39.0625,-50.78125,4.39453125
-80.078125,-42.96875,-53.7109375,-93.26171875
-57.12890625,-47.36328125,-62.01171875,-139.6484375
-23.92578125,-45.8984375,-62.01171875,-75.68359375
-29.296875,-40.52734375,-58.10546875,15.625
-55.6640625,-43.9453125,-64.453125,0.9765625
-81.0546875,-48.828125,-54.19921875,-83.984375
-73.73046875,-48.828125,-40.0390625,-125.48828125
-36.62109375,-48.828125,-41.50390625,-75.68359375
-14.16015625,-43.45703125,-43.45703125,19.53125
-40.0390625,-48.33984375,-50.29296875,19.04296875
-82.03125,-52.734375,-49.31640625,-77.63671875
-89.35546875,-53.7109375,-43.9453125,-141.11328125
-64.453125,-52.24609375,-51.7578125,-103.515625
-37.59765625,-47.8515625,-54.19921875,-12.20703125
-46.38671875,-52.734375,-53.22265625,10.7421875
-88.8671875,-55.6640625,-47.8515625,-73.2421875
-88.37890625,-52.24609375,-39.0625,-140.625
-60.05859375,-49.31640625,-41.015625,-104.4921875
-42.48046875,-41.50390625,-40.0390625,-8.7890625
-48.33984375,-40.0390625,-35.64453125,24.4140625
-74.70703125,-43.9453125,-32.71484375,-43.45703125
-78.125,-44.43359375,-36.62109375,-126.953125
-52.24609375,-48.828125,-39.0625,-128.90625
-35.64453125,-62.5,-42.96875,-32.2265625
-46.875,-65.91796875,-44.921875,25.390625
-76.171875,-46.875,-33.69140625,-37.109375
-88.8671875,-50.78125,-36.1328125,-133.7890625
-68.359375,-64.94140625,-47.8515625,-135.25390625
-34.1796875,-51.7578125,-43.9453125,-36.62109375
-32.2265625,-44.921875,-33.69140625,20.01953125
-58.10546875,-51.26953125,-28.3203125,-25.390625
-84.47265625,-55.6640625,-33.203125,-119.62890625
-58.10546875,-55.6640625,-41.50390625,-140.13671875
-23.4375,-56.15234375,-34.66796875,-40.52734375
-31.73828125,-55.6640625,-23.4375,37.109375
-56.15234375,-54.19921875,-27.34375,-1.46484375
-82.03125,-56.640625,-29.296875,-88.8671875
-70.3125,-65.4296875,-28.80859375,-122.0703125
-40.0390625,-65.91796875,-37.109375,-52.734375
-27.83203125,-49.8046875,-35.64453125,33.203125
-57.12890625,-44.43359375,-42.48046875,0.9765625
-91.796875,-54.6875,-50.29296875,-113.28125
-73.2421875,-58.59375,-36.62109375,-147.4609375
-33.69140625,-56.15234375,-35.64453125,-60.546875
-30.2734375,-50.29296875,-40.52734375,36.1328125
-52.24609375,-43.45703125,-41.9921875,20.99609375
-73.73046875,-43.45703125,-44.43359375,-83.49609375
-68.359375,-54.19921875,-47.36328125,-138.671875
-44.921875,-56.640625,-43.9453125,-73.73046875
-44.43359375,-54.19921875,-39.0625,26.3671875
-69.82421875,-58.10546875,-41.9921875,20.01953125
-86.42578125,-59.5703125,-44.921875,-69.82421875
-79.58984375,-61.5234375,-46.875,-129.39453125
-60.05859375,-55.6640625,-50.29296875,-92.28515625
-36.62109375,-52.24609375,-47.36328125,12.20703125
-40.52734375,-49.8046875,-48.828125,34.1796875
-78.125,-41.015625,-54.6875,-58.10546875
-89.35546875,-52.734375,-52.24609375,-127.44140625
-65.4296875,-63.96484375,-52.734375,-91.30859375
-42.96875,-54.6875,-51.7578125,8.7890625
-42.48046875,-50.78125,-52.24609375,37.109375
-70.80078125,-54.6875,-58.10546875,-48.33984375
-78.125,-59.5703125,-62.01171875,-133.7890625
-47.36328125,-58.10546875,-49.8046875,-109.375
-19.04296875,-47.36328125,-40.0390625,-2.44140625
-42.96875,-42.96875,-46.875,37.109375
-82.51953125,-49.31640625,-52.24609375,-40.0390625
-87.890625,-55.6640625,-53.7109375,-126.953125
-58.10546875,-41.9921875,-57.12890625,-119.140625
-33.203125,-37.109375,-67.3828125,-29.296875
-43.9453125,-46.38671875,-57.12890625,24.90234375
-68.84765625,-49.31640625,-41.50390625,-31.25
-78.61328125,-52.734375,-47.36328125,-117.1875
-58.59375,-54.6875,-48.33984375,-124.0234375
-37.59765625,-53.7109375,-47.8515625,-35.15625
-27.83203125,-54.19921875,-43.45703125,33.203125
-50.78125,-53.7109375,-34.66796875,-18.5546875
-62.5,-50.29296875,-39.0625,-107.91015625
-39.0625,-55.17578125,-52.734375,-118.65234375
-24.4140625,-56.15234375,-47.36328125,-36.1328125
-23.4375,-41.50390625,-30.76171875,42.48046875
-47.36328125,-45.8984375,-32.2265625,-3.41796875
-75.1953125,-62.01171875,-36.62109375,-102.5390625
-53.7109375,-57.12890625,-33.203125,-122.0703125
-19.53125,-51.7578125,-28.3203125,-41.015625
-20.5078125,-47.8515625,-27.83203125,41.015625
-51.7578125,-51.26953125,-36.62109375,10.25390625
-85.44921875,-56.15234375,-42.48046875,-92.7734375
-68.359375,-51.7578125,-39.0625,-132.8125
-32.71484375,-45.8984375,-35.15625,-57.12890625
-27.83203125,-44.921875,-35.15625,31.73828125
-44.921875,-47.8515625,-36.62109375,18.06640625
-69.82421875,-50.29296875,-42.48046875,-78.125
-63.4765625,-53.22265625,-46.875,-129.8828125
-33.69140625,-53.22265625,-52.24609375,-74.21875
-26.3671875,-37.59765625,-40.52734375,30.76171875
-46.875,-28.3203125,-30.2734375,34.66796875
-77.63671875,-41.015625,-40.0390625,-67.3828125
-75.1953125,-51.26953125,-37.59765625,-130.37109375
-34.1796875,-47.8515625,-31.73828125,-84.9609375
-21.97265625,-47.36328125,-43.45703125,5.37109375
-43.9453125,-54.19921875,-51.7578125,20.99609375
-62.5,-51.7578125,-49.8046875,-57.12890625
-64.94140625,-50.29296875,-42.96875,-124.51171875
-34.1796875,-50.78125,-35.64453125,-86.9140625
-10.25390625,-44.43359375,-35.64453125,17.578125
-36.62109375,-50.78125,-41.015625,46.875
-68.84765625,-49.31640625,-52.734375,-38.57421875
-71.2890625,-45.41015625,-60.546875,-126.46484375
-41.015625,-46.875,-59.08203125,-107.91015625
-16.6015625,-43.45703125,-58.10546875,-7.8125
-32.2265625,-49.8046875,-53.22265625,36.1328125
-57.12890625,-57.6171875,-52.24609375,-39.0625
-69.82421875,-57.12890625,-58.59375,-135.7421875
-58.10546875,-50.78125,-57.6171875,-128.41796875
-25.390625,-49.8046875,-54.6875,-26.3671875
-32.2265625,-53.7109375,-60.546875,26.85546875
-62.5,-56.15234375,-70.3125,-31.25
-75.1953125,-60.546875,-69.82421875,-114.2578125
-60.546875,-61.03515625,-66.40625,-122.0703125
-27.34375,-51.26953125,-61.03515625,-31.73828125
-19.53125,-39.55078125,-55.17578125,37.109375
-53.22265625,-37.59765625,-51.26953125,-16.6015625
-87.890625,-53.22265625,-53.7109375,-108.88671875
-72.265625,-63.96484375,-62.01171875,-123.53515625
-29.296875,-47.8515625,-60.546875,-49.31640625
-23.4375,-42.48046875,-48.33984375,30.2734375
-57.6171875,-61.5234375,-47.36328125,-5.859375
-85.9375,-68.359375,-54.19921875,-105.95703125
-76.171875,-60.546875,-55.6640625,-137.6953125
-43.9453125,-50.78125,-50.78125,-65.4296875
-36.1328125,-48.828125,-49.31640625,24.4140625
-58.10546875,-59.08203125,-56.15234375,10.25390625
-85.44921875,-60.05859375,-54.6875,-88.8671875
-70.3125,-53.22265625,-52.24609375,-148.4375
-37.109375,-52.734375,-55.17578125,-78.61328125
-28.3203125,-50.29296875,-50.29296875,21.97265625
-43.45703125,-46.875,-50.78125,9.27734375
-74.70703125,-54.19921875,-55.6640625,-84.9609375
-66.89453125,-60.546875,-57.6171875,-135.7421875
-39.0625,-58.59375,-64.453125,-84.47265625
-26.85546875,-43.45703125,-55.17578125,18.06640625
-39.55078125,-41.015625,-44.43359375,27.83203125
-81.0546875,-58.10546875,-56.15234375,-70.3125
-79.1015625,-56.15234375,-58.59375,-134.27734375
-47.36328125,-52.734375,-52.24609375,-87.40234375
-36.1328125,-52.734375,-51.7578125,12.6953125
-46.38671875,-42.96875,-49.8046875,35.15625
-77.1484375,-43.9453125,-52.734375,-47.8515625
-92.28515625,-51.7578125,-56.640625,-120.60546875
-63.4765625,-57.6171875,-54.19921875,-91.30859375
-33.69140625,-59.5703125,-56.15234375,4.8828125
-44.43359375,-46.38671875,-57.6171875,33.69140625
-75.68359375,-48.828125,-57.6171875,-44.43359375
-78.125,-57.12890625,-56.15234375,-123.046875
-53.22265625,-46.38671875,-50.29296875,-101.5625
-32.71484375,-42.96875,-51.26953125,-2.44140625
-33.203125,-43.9453125,-49.31640625,46.38671875
-55.6640625,-49.31640625,-46.875,-27.34375
-66.89453125,-59.08203125,-49.31640625,-127.9296875
-58.59375,-62.98828125,-51.7578125,-124.51171875
-33.203125,-54.6875,-54.19921875,-24.4140625
-30.76171875,-45.8984375,-49.31640625,34.66796875
-60.05859375,-44.43359375,-45.41015625,-20.99609375
-80.078125,-52.24609375,-49.8046875,-116.2109375
-68.359375,-53.22265625,-55.17578125,-131.34765625
-48.33984375,-51.7578125,-54.6875,-40.52734375
-43.45703125,-48.828125,-52.734375,35.15625
-64.94140625,-54.19921875,-56.640625,-8.30078125
-83.49609375,-64.453125,-60.05859375,-109.375
-62.98828125,-60.05859375,-49.31640625,-130.37109375
-33.203125,-53.22265625,-40.52734375,-45.8984375
-38.57421875,-53.7109375,-41.50390625,26.85546875
-63.96484375,-60.05859375,-47.8515625,-8.30078125
-87.890625,-63.96484375,-49.8046875,-104.98046875
-76.171875,-56.640625,-47.8515625,-136.71875
-40.52734375,-43.9453125,-43.45703125,-54.19921875
-40.52734375,-48.828125,-51.26953125,31.25
-62.98828125,-59.08203125,-59.5703125,-4.39453125
-88.37890625,-62.5,-55.6640625,-105.46875
-70.3125,-60.546875,-52.24609375,-143.06640625
-35.64453125,-44.43359375,-44.43359375,-72.265625
-33.203125,-34.1796875,-42.48046875,18.5546875
-49.31640625,-40.0390625,-41.015625,9.27734375
-74.21875,-52.734375,-36.62109375,-82.51953125
-66.89453125,-54.19921875,-41.9921875,-143.5546875
-31.73828125,-54.6875,-48.828125,-95.703125
-9.27734375,-53.22265625,-47.36328125,-0.48828125
-21.484375,-32.71484375,-46.875,17.578125
-56.15234375,-38.57421875,-52.734375,-68.84765625
-65.91796875,-54.6875,-56.15234375,-143.5546875
-41.50390625,-51.26953125,-54.6875,-102.5390625
-16.6015625,-46.38671875,-43.9453125,5.859375
-25.390625,-36.1328125,-35.64453125,35.64453125
-56.640625,-36.1328125,-33.203125,-48.33984375
-73.73046875,-51.26953125,-37.59765625,-129.39453125
-57.6171875,-54.6875,-48.828125,-103.515625
-28.3203125,-47.36328125,-44.921875,8.30078125
-41.9921875,-49.31640625,-43.9453125,48.33984375
-68.84765625,-53.22265625,-50.29296875,-29.296875
-62.98828125,-50.78125,-52.24609375,-108.3984375
-41.015625,-61.03515625,-52.24609375,-92.28515625
-17.578125,-62.98828125,-57.12890625,2.9296875
-20.01953125,-50.29296875,-57.6171875,53.22265625
-53.22265625,-58.10546875,-48.828125,-14.6484375
-75.68359375,-66.40625,-41.9921875,-106.93359375
-56.15234375,-54.6875,-40.0390625,-110.3515625
-23.4375,-45.8984375,-42.96875,-14.16015625
-27.83203125,-42.96875,-48.33984375,53.7109375
-60.05859375,-45.8984375,-57.6171875,-6.34765625
-77.63671875,-53.7109375,-56.15234375,-108.3984375
-56.15234375,-56.640625,-45.8984375,-114.2578125
-23.92578125,-46.38671875,-47.8515625,-26.85546875
-26.3671875,-43.9453125,-51.7578125,37.59765625
-55.6640625,-49.31640625,-53.7109375,-6.34765625
-78.61328125,-51.7578125,-61.03515625,-103.02734375
-64.453125,-66.89453125,-67.87109375,-136.23046875
-35.64453125,-63.96484375,-68.359375,-65.4296875
-34.1796875,-45.41015625,-63.4765625,18.5546875
-53.7109375,-44.43359375,-55.17578125,-3.41796875
-70.80078125,-51.26953125,-53.22265625,-93.75
-53.7109375,-49.8046875,-51.7578125,-124.51171875
-24.90234375,-43.9453125,-44.43359375,-50.78125
-20.99609375,-39.0625,-38.0859375,40.0390625
-49.31640625,-39.0625,-41.015625,18.06640625
-82.51953125,-46.38671875,-51.26953125,-88.37890625
-69.3359375,-54.19921875,-52.734375,-138.671875
-42.48046875,-60.546875,-47.36328125,-79.58984375
-32.2265625,-59.08203125,-47.8515625,15.625
-39.55078125,-49.31640625,-42.48046875,20.5078125
-62.98828125,-45.8984375,-36.62109375,-71.77734375
-62.98828125,-50.29296875,-41.50390625,-134.765625
-38.57421875,-59.5703125,-46.38671875,-83.984375
-20.5078125,-49.8046875,-40.52734375,13.671875
-48.828125,-40.0390625,-42.96875,20.5078125
-83.984375,-46.875,-42.96875,-66.89453125
-80.078125,-46.875,-41.015625,-138.18359375
-52.734375,-46.38671875,-45.8984375,-103.515625
-38.0859375,-49.8046875,-50.29296875,-7.8125
-49.8046875,-47.8515625,-47.36328125,12.20703125
-71.2890625,-51.26953125,-46.875,-55.17578125
-78.61328125,-58.10546875,-49.31640625,-120.60546875
-58.59375,-57.12890625,-44.43359375,-100.09765625
-32.2265625,-48.828125,-41.015625,-5.859375
-41.015625,-42.48046875,-36.1328125,34.1796875
-65.91796875,-46.875,-42.48046875,-38.0859375
-70.80078125,-54.19921875,-43.9453125,-123.53515625
-55.6640625,-54.19921875,-41.015625,-114.2578125
-29.78515625,-42.96875,-32.71484375,-10.25390625
-25.390625,-31.73828125,-21.97265625,55.17578125
-53.22265625,-34.1796875,-27.83203125,-10.7421875
-70.3125,-38.0859375,-37.59765625,-103.515625
-44.921875,-36.62109375,-38.0859375,-104.00390625
-12.20703125,-39.0625,-34.66796875,-13.671875
-11.23046875,-33.203125,-36.1328125,53.7109375
-34.1796875,-29.78515625,-34.66796875,8.30078125
-58.10546875,-40.0390625,-32.2265625,-90.8203125
-48.33984375,-41.9921875,-34.66796875,-108.88671875
-20.5078125,-37.109375,-41.50390625,-22.94921875
-19.04296875,-37.59765625,-38.0859375,44.921875
-44.43359375,-38.57421875,-31.25,0.9765625
-68.359375,-44.43359375,-36.1328125,-94.23828125
-63.96484375,-49.8046875,-39.0625,-126.953125
-41.9921875,-44.921875,-36.1328125,-58.10546875
-39.0625,-46.875,-38.57421875,13.18359375
-54.6875,-53.22265625,-44.921875,-15.13671875
-86.42578125,-60.546875,-38.57421875,-106.4453125
-85.44921875,-63.4765625,-36.62109375,-142.578125
-54.19921875,-55.17578125,-40.52734375,-72.265625
-54.6875,-47.36328125,-37.109375,7.8125
-69.82421875,-51.7578125,-41.50390625,-12.20703125
-89.35546875,-62.5,-42.48046875,-97.65625
-91.30859375,-58.59375,-40.0390625,-133.30078125
-54.19921875,-52.24609375,-49.8046875,-63.96484375
-35.64453125,-54.6875,-46.875,27.83203125
-59.5703125,-53.22265625,-39.55078125,22.94921875
-91.30859375,-62.98828125,-35.64453125,-62.5
-90.8203125,-71.77734375,-38.0859375,-121.58203125
-57.6171875,-58.10546875,-44.921875,-79.1015625
-32.71484375,-43.45703125,-47.36328125,15.625
-46.875,-38.0859375,-58.10546875,26.85546875
-77.1484375,-46.38671875,-58.10546875,-64.94140625
-79.58984375,-55.17578125,-55.17578125,-131.34765625
-48.33984375,-52.24609375,-54.19921875,-89.35546875
-15.625,-44.921875,-51.26953125,13.671875
-35.15625,-44.43359375,-52.734375,36.62109375
-77.63671875,-50.29296875,-56.15234375,-56.640625
-84.9609375,-49.31640625,-58.10546875,-136.71875
-57.12890625,-40.0390625,-52.24609375,-104.98046875
-26.3671875,-35.15625,-42.48046875,-1.46484375
-35.64453125,-33.203125,-37.109375,41.9921875
-75.1953125,-40.52734375,-41.9921875,-38.57421875
-90.8203125,-52.24609375,-51.26953125,-128.41796875
-69.3359375,-54.6875,-52.24609375,-111.81640625
-33.69140625,-51.7578125,-42.96875,-13.18359375
-44.921875,-54.19921875,-38.57421875,27.83203125
-78.61328125,-60.546875,-45.41015625,-30.76171875
-84.9609375,-65.4296875,-44.43359375,-109.375
-72.75390625,-71.2890625,-42.48046875,-113.76953125
-43.9453125,-64.453125,-45.41015625,-17.08984375
-38.57421875,-53.22265625,-43.9453125,43.9453125
-79.58984375,-49.31640625,-41.9921875,-20.5078125
-111.81640625,-52.734375,-34.66796875,-112.3046875
-78.61328125,-53.7109375,-32.71484375,-117.67578125
-50.29296875,-52.24609375,-34.1796875,-27.34375
-59.5703125,-53.7109375,-28.3203125,45.41015625
-75.68359375,-58.10546875,-26.85546875,-1.46484375
-94.7265625,-67.3828125,-31.73828125,-101.07421875
-75.1953125,-68.359375,-36.1328125,-125.0
-42.96875,-55.17578125,-38.0859375,-42.48046875
-42.48046875,-49.8046875,-41.015625,25.87890625
-69.3359375,-59.08203125,-42.96875,-12.6953125
-99.12109375,-66.40625,-45.8984375,-105.95703125
-82.03125,-55.17578125,-54.6875,-139.6484375
-51.26953125,-44.921875,-56.15234375,-68.84765625
-53.7109375,-42.48046875,-41.015625,11.71875
-82.51953125,-48.33984375,-40.52734375,-12.6953125
-110.83984375,-59.08203125,-49.31640625,-108.88671875
-101.07421875,-56.640625,-48.33984375,-150.87890625
-70.3125,-51.7578125,-43.45703125,-87.40234375
-55.6640625,-45.8984375,-40.0390625,2.9296875
-74.21875,-39.55078125,-40.0390625,-4.8828125
-109.375,-53.7109375,-46.875,-99.609375
-116.2109375,-73.73046875,-56.15234375,-154.78515625
-83.984375,-69.82421875,-57.6171875,-100.5859375
-49.8046875,-55.17578125,-48.828125,-2.44140625
-56.640625,-50.78125,-44.43359375,2.44140625
-86.9140625,-53.7109375,-47.36328125,-79.1015625
-86.42578125,-53.22265625,-45.41015625,-125.0
-56.640625,-50.78125,-41.015625,-74.21875
-31.73828125,-47.8515625,-41.50390625,13.18359375
-49.31640625,-44.43359375,-44.43359375,19.04296875
-82.03125,-49.8046875,-48.33984375,-54.6875
-85.9375,-56.640625,-46.875,-108.3984375
-64.453125,-51.26953125,-46.38671875,-78.125
-42.96875,-45.8984375,-50.78125,-0.9765625
-58.59375,-50.78125,-55.17578125,8.7890625
-81.54296875,-54.19921875,-55.6640625,-59.5703125
-83.0078125,-57.12890625,-51.7578125,-119.62890625
-77.63671875,-57.6171875,-52.734375,-105.46875
-57.6171875,-55.17578125,-54.19921875,-33.69140625
-52.734375,-55.6640625,-53.7109375,-13.18359375
-77.63671875,-55.17578125,-53.7109375,-67.87109375
-99.12109375,-62.98828125,-54.6875,-122.0703125
-84.47265625,-63.4765625,-58.10546875,-108.88671875
-50.29296875,-58.59375,-59.5703125,-44.921875
-53.7109375,-60.546875,-57.12890625,-21.484375
-81.0546875,-57.12890625,-56.640625,-72.75390625
-93.26171875,-61.03515625,-57.6171875,-125.9765625
-75.68359375,-60.05859375,-54.19921875,-117.1875
-51.26953125,-55.17578125,-54.6875,-60.546875
-54.19921875,-57.6171875,-59.5703125,-32.2265625
-73.73046875,-53.22265625,-59.08203125,-65.91796875
-95.703125,-56.15234375,-58.59375,-115.72265625
-87.890625,-57.6171875,-59.08203125,-120.60546875
-51.7578125,-53.22265625,-58.10546875,-72.75390625
-37.59765625,-49.8046875,-56.15234375,-52.734375
-55.6640625,-51.26953125,-53.7109375,-111.328125
-87.890625,-60.05859375,-60.05859375,-212.40234375
-85.44921875,-70.3125,-66.89453125,-300.29296875
-56.640625,-78.125,-65.4296875,-353.515625
-49.8046875,-79.58984375,-63.96484375,-414.0625
-66.89453125,-81.54296875,-62.01171875,-519.53125
-97.65625,-87.890625,-61.5234375,-642.578125
-99.12109375,-100.09765625,-62.98828125,-713.37890625
-68.84765625,-105.95703125,-59.5703125,-710.44921875
-47.8515625,-110.83984375,-57.6171875,-686.5234375
-62.01171875,-117.1875,-53.22265625,-688.4765625
-94.7265625,-118.1640625,-55.6640625,-705.56640625
-96.19140625,-126.953125,-64.94140625,-695.80078125
-71.2890625,-132.8125,-63.96484375,-631.8359375
-46.38671875,-121.58203125,-58.59375,-551.26953125
-56.15234375,-115.72265625,-55.6640625,-513.18359375
-85.44921875,-119.62890625,-55.6640625,-519.04296875
-86.42578125,-118.65234375,-54.6875,-509.765625
-57.12890625,-112.3046875,-50.29296875,-429.19921875
-25.390625,-102.5390625,-48.828125,-320.80078125
-33.203125,-92.7734375,-41.9921875,-261.71875
-62.98828125,-90.8203125,-33.69140625,-246.58203125
-61.03515625,-87.890625,-34.1796875,-220.703125
-33.203125,-74.70703125,-37.59765625,-151.85546875
-6.8359375,-58.10546875,-35.64453125,-58.10546875
-18.5546875,-58.59375,-37.59765625,-21.484375
-56.15234375,-68.359375,-38.57421875,-40.0390625
-70.80078125,-64.94140625,-34.1796875,-25.390625
-51.7578125,-54.19921875,-35.64453125,54.6875
-21.484375,-38.57421875,-31.25,145.99609375
-24.90234375,-29.78515625,-26.85546875,173.828125
-49.8046875,-30.2734375,-33.203125,132.8125
-63.96484375,-32.2265625,-39.55078125,89.35546875
-44.43359375,-40.0390625,-38.0859375,89.35546875
-19.53125,-42.48046875,-36.62109375,122.55859375
-27.83203125,-37.59765625,-40.52734375,124.51171875
-53.7109375,-46.875,-41.9921875,75.68359375
-75.1953125,-51.26953125,-40.0390625,48.33984375
-59.5703125,-38.0859375,-40.0390625,81.54296875
-35.15625,-42.96875,-41.50390625,135.25390625
-34.1796875,-41.9921875,-38.57421875,145.99609375
-50.78125,-35.15625,-37.59765625,109.375
-66.89453125,-40.52734375,-43.45703125,72.75390625
-51.7578125,-40.0390625,-46.38671875,74.70703125
-19.04296875,-29.296875,-49.31640625,119.62890625
-14.6484375,-28.3203125,-52.24609375,143.06640625
-44.43359375,-32.71484375,-48.828125,110.3515625
-70.80078125,-26.3671875,-48.33984375,60.546875
-62.01171875,-33.69140625,-56.640625,39.0625
-36.1328125,-40.0390625,-60.05859375,58.59375
-28.80859375,-35.15625,-56.640625,76.171875
-47.8515625,-35.64453125,-54.19921875,41.015625
-75.68359375,-36.62109375,-49.31640625,-22.4609375
-69.3359375,-35.64453125,-50.29296875,-58.10546875
-15.13671875,-31.73828125,-61.5234375,-20.99609375
-14.16015625,-38.57421875,-63.4765625,9.27734375
-87.890625,-55.17578125,-75.68359375,-60.05859375
-137.20703125,-67.3828125,-90.33203125,-133.7890625
-143.06640625,-79.1015625,-93.26171875,-158.203125
-131.34765625,-77.63671875,-94.23828125,-143.5546875
-138.18359375,-87.890625,-99.12109375,-126.953125
-180.17578125,-107.421875,-107.91015625,-167.96875
-236.81640625,-118.1640625,-102.5390625,-218.26171875
-264.16015625,-129.39453125,-101.07421875,-234.86328125
-251.953125,-134.27734375,-107.91015625,-212.40234375
-237.79296875,-138.671875,-100.09765625,-150.87890625
-276.85546875,-156.25,-103.515625,-161.62109375
-323.2421875,-170.8984375,-114.74609375,-210.44921875
-328.125,-174.31640625,-110.3515625,-216.796875
-309.08203125,-179.6875,-108.3984375,-189.94140625
-289.0625,-175.78125,-109.86328125,-130.859375
-305.6640625,-176.7578125,-115.72265625,-129.8828125
-330.078125,-179.6875,-119.62890625,-174.31640625
-343.75,-185.546875,-119.140625,-188.96484375
-334.9609375,-195.80078125,-118.65234375,-164.0625
-298.33984375,-192.3828125,-115.234375,-105.95703125
-292.96875,-187.98828125,-119.140625,-86.42578125
-327.63671875,-195.3125,-121.09375,-126.46484375
-355.46875,-204.58984375,-120.60546875,-181.640625
-338.37890625,-205.078125,-125.0,-188.4765625
-298.33984375,-201.66015625,-130.37109375,-130.859375
-302.734375,-203.61328125,-134.27734375,-123.046875
-326.66015625,-203.61328125,-135.7421875,-185.05859375
-332.51953125,-198.2421875,-139.16015625,-242.67578125
-316.89453125,-194.3359375,-144.04296875,-260.7421875
-287.59765625,-191.40625,-142.578125,-222.65625
-286.1328125,-199.21875,-145.5078125,-209.9609375
-292.48046875,-204.58984375,-153.3203125,-254.8828125
-312.98828125,-208.984375,-151.3671875,-312.5
-307.12890625,-214.84375,-152.34375,-330.078125
-266.6015625,-208.49609375,-159.66796875,-289.0625
-261.71875,-202.1484375,-159.66796875,-283.69140625
-291.015625,-209.9609375,-158.69140625,-354.4921875
-311.5234375,-219.23828125,-162.59765625,-430.17578125
-276.85546875,-214.84375,-166.50390625,-438.96484375
-237.79296875,-205.078125,-162.109375,-405.76171875
-231.4453125,-212.40234375,-154.296875,-397.94921875
-251.46484375,-228.02734375,-153.80859375,-420.41015625
-258.7890625,-217.28515625,-152.34375,-450.1953125
-241.69921875,-211.42578125,-144.53125,-430.6640625
-220.703125,-220.703125,-141.6015625,-335.9375
-197.265625,-215.8203125,-141.11328125,-243.1640625
-199.70703125,-211.42578125,-135.25390625,-234.86328125
-232.421875,-212.890625,-134.27734375,-275.87890625
-232.421875,-208.984375,-136.23046875,-279.78515625
-205.56640625,-208.0078125,-140.13671875,-234.375
-186.03515625,-207.03125,-145.99609375,-197.265625
-170.8984375,-195.80078125,-136.23046875,-210.44921875
-192.87109375,-198.73046875,-135.7421875,-278.80859375
-201.171875,-211.42578125,-138.671875,-298.33984375
-171.38671875,-206.54296875,-134.765625,-240.234375
-147.4609375,-200.1953125,-132.32421875,-182.12890625
-159.1796875,-199.70703125,-126.953125,-172.8515625
-194.82421875,-197.265625,-126.46484375,-204.1015625
-204.1015625,-199.21875,-134.765625,-201.66015625
-181.640625,-198.73046875,-142.08984375,-129.8828125
-157.2265625,-196.2890625,-143.5546875,-45.41015625
-148.4375,-194.3359375,-142.08984375,-21.97265625
-186.5234375,-190.91796875,-135.7421875,-74.21875
-210.44921875,-181.640625,-135.25390625,-119.140625
-187.98828125,-179.19921875,-133.7890625,-55.6640625
-146.484375,-179.19921875,-126.953125,52.734375
-125.48828125,-170.8984375,-121.58203125,81.54296875
-145.5078125,-162.59765625,-108.3984375,50.29296875
-143.5546875,-157.2265625,-103.515625,41.9921875
-107.91015625,-151.85546875,-100.09765625,78.125
-88.37890625,-148.4375,-99.12109375,138.18359375
-103.02734375,-141.11328125,-95.703125,177.24609375
-135.7421875,-141.11328125,-96.6796875,145.01953125
-164.55078125,-152.34375,-96.19140625,111.328125
-145.99609375,-142.578125,-96.6796875,137.20703125
-113.76953125,-128.90625,-109.86328125,192.87109375
-89.84375,-127.44140625,-110.83984375,209.9609375
-97.65625,-122.55859375,-108.88671875,157.71484375
-125.0,-121.58203125,-98.14453125,110.83984375
-112.79296875,-114.74609375,-93.75,118.65234375
-61.5234375,-106.4453125,-93.26171875,181.640625
-31.73828125,-100.09765625,-79.58984375,231.4453125
-48.33984375,-97.16796875,-72.75390625,196.2890625
-71.77734375,-106.93359375,-65.4296875,137.6953125
-52.734375,-111.328125,-63.4765625,133.7890625
-7.8125,-98.14453125,-67.87109375,194.82421875
7.8125,-84.47265625,-60.05859375,258.30078125
-44.921875,-88.8671875,-58.59375,221.19140625
-93.75,-101.07421875,-62.5,133.30078125
-83.0078125,-113.28125,-52.734375,118.1640625
-60.546875,-112.79296875,-51.7578125,178.22265625
-51.7578125,-101.5625,-63.96484375,221.6796875
-56.640625,-93.26171875,-64.94140625,184.08203125
-65.91796875,-95.703125,-58.10546875,104.4921875
-78.61328125,-99.609375,-52.24609375,77.63671875
-69.3359375,-87.890625,-50.29296875,132.8125
-27.83203125,-75.68359375,-55.17578125,189.453125
-33.69140625,-77.1484375,-56.640625,166.50390625
-59.5703125,-79.1015625,-57.6171875,82.03125
-52.734375,-76.171875,-54.19921875,43.9453125
-17.08984375,-65.4296875,-54.6875,86.42578125
14.16015625,-61.5234375,-58.10546875,147.4609375
5.859375,-59.5703125,-64.94140625,129.39453125
-10.7421875,-62.01171875,-70.80078125,44.921875
-9.27734375,-66.89453125,-65.91796875,0.9765625
2.44140625,-55.6640625,-61.5234375,28.3203125
33.203125,-42.48046875,-64.453125,83.984375
21.484375,-44.921875,-65.4296875,77.1484375
-4.8828125,-50.29296875,-61.03515625,-1.953125
2.9296875,-50.78125,-61.5234375,-49.31640625
32.71484375,-49.8046875,-60.546875,-25.390625
56.640625,-40.0390625,-58.10546875,42.96875
49.8046875,-43.9453125,-60.05859375,62.5
36.1328125,-54.19921875,-60.546875,-2.9296875
35.64453125,-51.7578125,-62.01171875,-52.734375
52.24609375,-51.26953125,-56.15234375,-30.76171875
94.23828125,-50.29296875,-42.48046875,41.015625
105.46875,-55.17578125,-36.62109375,68.359375
78.125,-65.4296875,-31.25,3.90625
58.10546875,-63.4765625,-32.2265625,-68.359375
74.21875,-53.22265625,-36.62109375,-59.08203125
85.9375,-46.38671875,-31.73828125,-0.48828125
68.359375,-42.48046875,-31.25,11.23046875
52.734375,-32.2265625,-35.15625,-51.26953125
29.78515625,-30.76171875,-31.73828125,-118.1640625
7.8125,-45.41015625,-26.85546875,-127.9296875
17.578125,-50.78125,-35.15625,-66.89453125
32.71484375,-39.0625,-42.48046875,-8.7890625
20.5078125,-41.50390625,-37.109375,-70.3125
-28.80859375,-54.19921875,-31.73828125,-168.9453125
-36.62109375,-51.7578125,-41.50390625,-171.38671875
-30.2734375,-42.48046875,-36.62109375,-113.76953125
9.27734375,-36.62109375,-38.57421875,-67.3828125
-19.53125,-42.96875,-40.0390625,-99.609375
-88.8671875,-54.6875,-32.71484375,-169.921875
-27.83203125,-48.33984375,-40.52734375,-174.31640625
18.06640625,-41.9921875,-45.41015625,-116.69921875
4.8828125,-41.9921875,-37.109375,-56.15234375
-3.41796875,-31.73828125,-30.76171875,-74.21875
-27.34375,-32.71484375,-27.83203125,-131.8359375
-29.78515625,-27.83203125,-23.92578125,-140.13671875
6.8359375,-12.6953125,-23.4375,-79.1015625
41.9921875,-0.48828125,-11.71875,12.6953125
34.1796875,8.30078125,-0.9765625,9.27734375
28.80859375,23.92578125,-0.9765625,-53.22265625
33.203125,39.55078125,7.32421875,-75.1953125
44.43359375,39.55078125,18.06640625,-22.4609375
78.61328125,51.7578125,25.390625,69.3359375
74.21875,66.89453125,26.85546875,59.5703125
55.17578125,64.94140625,20.5078125,-29.78515625
55.6640625,76.171875,30.76171875,-51.7578125
65.91796875,75.68359375,42.96875,-14.16015625
100.5859375,75.1953125,44.921875,51.26953125
95.703125,85.44921875,31.73828125,46.875
60.546875,84.9609375,23.4375,-40.0390625
66.40625,80.56640625,23.92578125,-98.6328125
88.8671875,83.984375,18.5546875,-77.1484375
128.41796875,94.7265625,17.08984375,17.08984375
119.140625,97.65625,28.3203125,64.453125
80.56640625,84.9609375,38.0859375,15.13671875
75.68359375,78.61328125,33.69140625,-47.8515625
88.8671875,87.40234375,29.78515625,-41.015625
105.95703125,97.65625,32.71484375,31.25
116.69921875,105.95703125,27.83203125,76.171875
93.75,107.91015625,22.4609375,-29.78515625
58.10546875,102.05078125,27.83203125,-161.1328125
76.171875,103.515625,32.2265625,-160.64453125
106.93359375,112.79296875,32.2265625,-73.73046875
102.05078125,116.2109375,30.76171875,9.27734375
74.21875,121.58203125,27.34375,-8.30078125
33.203125,118.65234375,24.4140625,-49.8046875
42.96875,121.09375,30.2734375,-4.39453125
74.70703125,131.34765625,25.390625,84.9609375
65.91796875,131.34765625,5.37109375,121.09375
35.64453125,124.51171875,-4.39453125,65.91796875
7.32421875,112.3046875,-8.30078125,28.3203125
12.6953125,109.375,-10.25390625,109.375
43.9453125,118.1640625,-9.765625,239.2578125
65.4296875,118.65234375,-13.18359375,302.734375
58.59375,107.91015625,-15.13671875,234.375
32.2265625,105.46875,-20.5078125,120.1171875
30.76171875,108.88671875,-18.06640625,118.1640625
80.078125,114.2578125,-7.32421875,239.74609375
96.6796875,122.0703125,-11.23046875,360.83984375
78.125,129.39453125,-15.13671875,389.16015625
54.19921875,129.8828125,-10.7421875,346.19140625
43.45703125,123.046875,-11.23046875,328.125
66.40625,107.91015625,-8.7890625,380.37109375
99.609375,97.16796875,-8.30078125,451.66015625
82.51953125,104.4921875,-17.578125,402.83203125
46.875,106.93359375,-22.4609375,273.4375
38.0859375,92.28515625,-17.08984375,193.84765625
57.12890625,84.47265625,-8.7890625,206.54296875
81.54296875,78.125,-12.20703125,250.0
63.4765625,77.1484375,-19.53125,215.33203125
27.83203125,73.2421875,-15.13671875,105.46875
9.765625,51.26953125,-18.5546875,7.8125
26.85546875,40.52734375,-21.484375,9.765625
58.10546875,39.0625,-14.16015625,78.125
44.43359375,30.76171875,-17.578125,59.5703125
10.7421875,23.4375,-29.78515625,-54.6875
-11.23046875,11.71875,-27.34375,-138.671875
8.30078125,4.39453125,-24.4140625,-132.32421875
43.45703125,11.71875,-26.85546875,-53.7109375
46.875,20.5078125,-20.01953125,-21.97265625
10.25390625,11.23046875,-15.625,-105.46875
-3.41796875,-11.71875,-27.83203125,-198.2421875
19.53125,-5.859375,-30.2734375,-180.6640625
47.36328125,9.765625,-14.6484375,-81.0546875
48.33984375,10.7421875,-4.39453125,-38.57421875
19.53125,7.32421875,-0.9765625,-104.00390625
-9.765625,-6.8359375,2.44140625,-194.3359375
4.39453125,-8.7890625,1.46484375,-197.265625
33.69140625,-1.953125,-2.44140625,-112.3046875
47.8515625,-4.8828125,-0.48828125,-47.36328125
28.80859375,-7.32421875,4.39453125,-95.703125
-3.41796875,-14.16015625,0.0,-197.75390625
7.32421875,-20.01953125,-5.37109375,-209.9609375
29.296875,-20.01953125,-11.23046875,-123.53515625
34.66796875,-15.13671875,-10.25390625,-46.38671875
16.6015625,-18.5546875,-7.8125,-85.9375
-18.5546875,-33.203125,-5.859375,-188.96484375
-26.3671875,-42.96875,-3.41796875,-216.796875
-1.953125,-46.38671875,-0.48828125,-130.37109375
22.4609375,-36.62109375,7.8125,-24.4140625
11.23046875,-38.57421875,6.34765625,-48.828125
-10.7421875,-41.9921875,1.953125,-156.73828125
-13.18359375,-29.296875,-5.859375,-199.21875
1.46484375,-26.3671875,-14.6484375,-138.671875
29.296875,-17.578125,-10.7421875,-34.1796875
18.5546875,-18.06640625,-1.953125,-36.62109375
-13.671875,-24.90234375,-4.39453125,-138.18359375
-25.390625,-33.203125,-7.8125,-181.640625
-11.71875,-41.015625,-2.9296875,-118.65234375
26.85546875,-27.83203125,1.46484375,5.37109375
16.6015625,-25.87890625,0.48828125,12.6953125
-32.2265625,-42.96875,-6.8359375,-103.515625
-40.52734375,-55.6640625,-9.27734375,-171.38671875
-4.8828125,-53.7109375,-7.32421875,-122.0703125
16.11328125,-35.64453125,-6.34765625,-2.9296875
-1.46484375,-30.2734375,-4.39453125,25.87890625
-27.83203125,-42.48046875,-7.8125,-73.73046875
-24.90234375,-49.31640625,-13.18359375,-152.34375
-3.41796875,-40.0390625,-14.6484375,-107.421875
32.2265625,-30.2734375,-8.30078125,16.6015625
23.92578125,-34.1796875,-9.765625,50.29296875
-13.18359375,-42.48046875,-15.13671875,-37.109375
-22.4609375,-53.7109375,-17.578125,-129.39453125
-3.41796875,-51.7578125,-18.5546875,-115.234375
28.80859375,-29.296875,-15.625,-4.8828125
36.1328125,-23.92578125,-5.37109375,57.6171875
-8.30078125,-34.66796875,-5.859375,-16.11328125
-53.7109375,-43.9453125,-16.11328125,-119.62890625
-33.69140625,-49.8046875,-17.578125,-106.93359375
14.16015625,-38.0859375,-7.8125,15.625
39.55078125,-17.578125,-7.32421875,95.703125
11.71875,-20.5078125,-20.01953125,23.92578125
-27.34375,-38.0859375,-24.4140625,-88.37890625
-15.625,-41.015625,-28.3203125,-102.5390625
13.671875,-30.76171875,-30.76171875,-5.37109375
20.01953125,-22.4609375,-37.59765625,60.546875
7.8125,-18.06640625,-37.109375,10.25390625
-14.6484375,-27.83203125,-31.73828125,-85.9375
-12.20703125,-37.59765625,-29.296875,-110.83984375
16.11328125,-39.0625,-21.97265625,-22.4609375
38.57421875,-34.1796875,-15.13671875,77.63671875
23.92578125,-37.109375,-13.18359375,51.7578125
-6.34765625,-55.17578125,-14.6484375,-55.17578125
-11.23046875,-56.640625,-18.06640625,-92.28515625
3.41796875,-49.31640625,-20.99609375,-21.97265625
46.875,-45.8984375,-7.32421875,91.30859375
47.36328125,-44.921875,-9.765625,81.54296875
-5.37109375,-51.26953125,-24.4140625,-46.38671875
-6.34765625,-48.828125,-25.390625,-108.3984375
33.203125,-39.55078125,-33.203125,-45.8984375
57.12890625,-31.25,-26.3671875,64.94140625
43.45703125,-28.3203125,-19.04296875,66.40625
6.34765625,-37.59765625,-23.92578125,-43.45703125
-13.671875,-52.734375,-32.2265625,-115.72265625
25.87890625,-49.8046875,-24.4140625,-51.26953125
75.68359375,-32.2265625,-26.3671875,63.4765625
44.43359375,-25.87890625,-30.76171875,61.5234375
4.39453125,-28.80859375,-36.62109375,-48.33984375
-0.48828125,-40.52734375,-47.8515625,-125.9765625
18.5546875,-49.31640625,-29.78515625,-68.84765625
43.9453125,-41.015625,-22.94921875,54.6875
37.59765625,-33.69140625,-33.69140625,83.984375
12.20703125,-42.96875,-40.0390625,1.953125
-5.37109375,-57.12890625,-42.48046875,-82.51953125
18.5546875,-55.17578125,-32.2265625,-52.734375
66.40625,-43.9453125,-21.484375,69.82421875
74.21875,-38.0859375,-14.16015625,126.46484375
56.15234375,-35.64453125,-19.04296875,53.22265625
39.0625,-43.9453125,-31.25,-55.6640625
37.109375,-50.29296875,-36.1328125,-67.87109375
54.19921875,-41.9921875,-30.2734375,36.62109375
78.61328125,-29.296875,-19.53125,103.515625
53.7109375,-27.34375,-31.73828125,27.83203125
20.5078125,-38.0859375,-40.52734375,-77.63671875
19.53125,-38.0859375,-37.59765625,-88.8671875
41.50390625,-31.25,-32.2265625,14.6484375
59.08203125,-27.83203125,-23.92578125,100.5859375
41.015625,-30.76171875,-20.99609375,49.8046875
1.46484375,-42.96875,-22.4609375,-60.546875
-2.44140625,-49.31640625,-26.3671875,-77.63671875
31.73828125,-50.78125,-24.4140625,25.87890625
41.9921875,-54.19921875,-21.97265625,105.46875
27.83203125,-50.29296875,-17.578125,58.10546875
-1.953125,-46.38671875,-24.90234375,-41.9921875
-2.44140625,-42.96875,-33.69140625,-76.66015625
24.4140625,-31.25,-27.34375,3.41796875
43.45703125,-15.13671875,-21.97265625,96.6796875
15.13671875,-6.8359375,-21.97265625,56.640625
-17.08984375,-15.13671875,-39.0625,-61.03515625
-10.25390625,-19.53125,-51.7578125,-104.98046875
19.53125,-9.765625,-46.38671875,-24.90234375
35.15625,-2.9296875,-46.38671875,75.1953125
8.30078125,-8.7890625,-53.22265625,39.0625
-19.04296875,-13.671875,-57.12890625,-64.94140625
-19.04296875,-15.625,-43.45703125,-101.5625
-20.5078125,-26.3671875,-32.71484375,-46.38671875
-4.8828125,-25.87890625,-34.1796875,58.59375
-8.30078125,-26.3671875,-30.2734375,60.05859375
-38.0859375,-42.96875,-28.3203125,-39.55078125
-49.8046875,-48.33984375,-35.64453125,-106.93359375
-48.828125,-38.57421875,-38.0859375,-78.61328125
-22.94921875,-31.73828125,-34.1796875,28.80859375
-17.578125,-17.08984375,-36.1328125,53.7109375
-54.6875,-12.20703125,-46.875,-56.640625
-73.2421875,-37.59765625,-54.6875,-143.06640625
-46.38671875,-29.296875,-51.7578125,-97.65625
-25.87890625,-11.71875,-50.78125,16.11328125
-21.97265625,-5.859375,-59.5703125,40.52734375
-32.2265625,-0.9765625,-58.10546875,-46.38671875
-62.5,-23.4375,-51.26953125,-133.30078125
-47.8515625,-32.2265625,-50.29296875,-103.02734375
-19.53125,-15.625,-54.19921875,12.6953125
-19.04296875,-6.34765625,-47.36328125,56.15234375
-33.203125,-9.27734375,-39.55078125,-17.08984375
-51.7578125,-14.6484375,-47.36328125,-108.3984375
-41.9921875,-22.4609375,-47.8515625,-98.14453125
-9.27734375,-20.99609375,-44.43359375,15.13671875
0.48828125,-6.34765625,-43.45703125,71.2890625
-30.76171875,-9.765625,-46.875,-14.6484375
-49.31640625,-21.484375,-57.12890625,-125.0
-27.83203125,-20.5078125,-64.453125,-127.44140625
0.0,-10.7421875,-52.24609375,-9.765625
5.37109375,-2.44140625,-42.48046875,76.171875
-10.7421875,2.44140625,-48.33984375,13.671875
-37.109375,-11.23046875,-47.8515625,-98.6328125
-40.0390625,-24.4140625,-51.26953125,-118.65234375
-15.13671875,-11.23046875,-53.22265625,-20.5078125
5.37109375,-1.953125,-51.7578125,68.84765625
0.48828125,-9.765625,-56.640625,24.4140625
-28.3203125,-15.625,-62.98828125,-85.9375
-41.9921875,-21.484375,-61.03515625,-116.2109375
-0.48828125,-24.4140625,-51.26953125,-16.6015625
31.25,-18.06640625,-51.26953125,84.9609375
3.41796875,-12.20703125,-50.29296875,39.0625
-35.64453125,-20.01953125,-49.31640625,-81.0546875
-40.52734375,-21.484375,-54.6875,-122.0703125
-23.92578125,-15.13671875,-51.26953125,-50.29296875
3.90625,-7.8125,-44.921875,58.59375
7.8125,1.46484375,-51.26953125,52.24609375
-24.90234375,-8.7890625,-51.26953125,-53.22265625
-44.921875,-31.73828125,-43.9453125,-107.91015625
-24.4140625,-35.15625,-48.828125,-43.45703125
20.5078125,-23.92578125,-56.640625,67.3828125
25.390625,-16.11328125,-52.24609375,63.96484375
-9.765625,-21.484375,-50.29296875,-35.15625
-21.484375,-33.69140625,-53.7109375,-103.02734375
-13.18359375,-32.71484375,-48.828125,-58.10546875
18.5546875,-15.13671875,-42.48046875,67.87109375
23.92578125,-7.8125,-44.921875,83.984375
-18.06640625,-18.5546875,-60.546875,-41.9921875
-31.25,-29.296875,-60.546875,-113.76953125
-27.34375,-33.203125,-53.7109375,-70.3125
3.90625,-31.73828125,-51.7578125,50.29296875
20.01953125,-22.94921875,-43.9453125,90.8203125
-23.92578125,-23.92578125,-49.8046875,-21.97265625
-49.31640625,-31.25,-55.17578125,-119.62890625
-22.4609375,-29.78515625,-59.5703125,-90.8203125
21.484375,-22.94921875,-56.640625,33.203125
18.5546875,-20.5078125,-40.0390625,91.796875
-12.6953125,-27.34375,-34.1796875,11.23046875
-53.22265625,-41.50390625,-42.96875,-105.95703125
-47.36328125,-42.96875,-49.8046875,-104.98046875
12.6953125,-26.3671875,-44.43359375,27.83203125
20.01953125,-20.01953125,-31.25,101.5625
-11.71875,-26.3671875,-35.64453125,18.5546875
-38.0859375,-48.33984375,-38.57421875,-90.33203125
-36.62109375,-59.08203125,-36.1328125,-90.33203125
-9.27734375,-46.875,-37.59765625,17.578125
4.8828125,-37.59765625,-36.62109375,88.8671875
-12.6953125,-32.71484375,-36.62109375,20.01953125
-52.734375,-40.52734375,-34.1796875,-96.19140625
-43.45703125,-46.875,-26.3671875,-106.4453125
-5.859375,-39.55078125,-27.34375,-2.44140625
-0.48828125,-26.85546875,-26.85546875,82.03125
-25.87890625,-20.01953125,-21.484375,34.1796875
-59.5703125,-34.66796875,-24.4140625,-85.44921875
-68.359375,-50.29296875,-35.15625,-126.953125
-37.109375,-46.875,-36.1328125,-37.109375
-15.13671875,-37.109375,-20.5078125,70.80078125
-41.9921875,-39.0625,-19.53125,34.1796875
-65.91796875,-49.8046875,-21.97265625,-81.0546875
-70.3125,-50.78125,-27.34375,-129.8828125
-44.43359375,-42.96875,-33.203125,-58.59375
3.41796875,-33.203125,-29.296875,62.01171875
-3.90625,-27.83203125,-33.203125,40.52734375
-48.828125,-35.64453125,-43.45703125,-84.9609375
-64.453125,-44.43359375,-49.8046875,-140.625
-34.1796875,-35.64453125,-49.8046875,-70.80078125
9.27734375,-24.4140625,-39.0625,55.6640625
-10.7421875,-19.04296875,-39.0625,54.19921875
-53.22265625,-21.484375,-45.8984375,-70.3125
-57.6171875,-37.59765625,-40.52734375,-133.30078125
-29.296875,-41.9921875,-40.0390625,-69.82421875
-0.48828125,-28.80859375,-42.96875,50.29296875
-15.13671875,-25.390625,-43.9453125,53.7109375
-34.1796875,-32.2265625,-43.9453125,-55.17578125
-41.9921875,-45.41015625,-41.50390625,-119.62890625
-37.109375,-51.26953125,-38.57421875,-74.70703125
0.48828125,-33.203125,-37.109375,44.921875
-4.39453125,-24.90234375,-42.48046875,66.40625
-46.38671875,-40.52734375,-46.875,-38.57421875
-48.828125,-47.36328125,-47.8515625,-130.859375
-16.11328125,-43.45703125,-56.640625,-104.00390625
10.25390625,-28.80859375,-57.12890625,20.01953125
13.671875,-18.06640625,-42.96875,81.0546875
-20.99609375,-22.94921875,-40.52734375,-5.859375
-49.8046875,-34.1796875,-47.36328125,-115.234375
-16.6015625,-32.71484375,-52.734375,-94.7265625
0.9765625,-24.4140625,-43.9453125,27.83203125
-1.953125,-20.99609375,-36.1328125,86.9140625
-18.5546875,-12.20703125,-45.8984375,6.8359375
-41.9921875,-27.34375,-55.17578125,-102.5390625
-27.83203125,-46.875,-46.38671875,-102.05078125
9.765625,-34.66796875,-40.52734375,9.27734375
20.5078125,-22.4609375,-44.43359375,78.61328125
-3.90625,-20.99609375,-42.48046875,16.6015625
-46.38671875,-33.69140625,-49.31640625,-102.5390625
-41.50390625,-40.0390625,-48.33984375,-125.48828125
-1.46484375,-30.2734375,-42.48046875,-22.4609375
29.78515625,-19.53125,-37.59765625,89.35546875
-5.859375,-29.296875,-39.0625,40.0390625
-66.89453125,-47.36328125,-50.29296875,-102.5390625
-56.15234375,-44.921875,-51.26953125,-135.25390625
-41.015625,-36.1328125,-48.33984375,-48.33984375
-22.94921875,-28.3203125,-43.45703125,53.7109375
-21.484375,-33.203125,-41.50390625,27.34375
-67.87109375,-53.22265625,-55.6640625,-98.14453125
-65.4296875,-64.453125,-63.96484375,-149.4140625
-20.01953125,-53.22265625,-55.6640625,-67.3828125
4.39453125,-28.80859375,-49.31640625,39.55078125
-10.7421875,-17.08984375,-50.78125,22.4609375
-56.640625,-23.4375,-61.03515625,-93.75
-73.73046875,-37.59765625,-61.5234375,-149.90234375
-45.8984375,-41.9921875,-53.22265625,-77.1484375
-3.41796875,-20.01953125,-50.78125,47.36328125
-16.11328125,-10.25390625,-52.734375,48.828125
-63.96484375,-23.4375,-60.05859375,-74.21875
-68.359375,-32.2265625,-62.98828125,-155.76171875
-44.921875,-39.0625,-62.01171875,-108.3984375
-12.6953125,-31.73828125,-52.24609375,30.76171875
-17.08984375,-19.04296875,-36.62109375,66.40625
-60.546875,-30.76171875,-41.015625,-47.36328125
-80.56640625,-48.828125,-47.8515625,-145.5078125
-74.70703125,-49.8046875,-43.45703125,-120.60546875
-38.0859375,-37.59765625,-39.55078125,5.859375
-25.87890625,-21.97265625,-35.64453125,54.6875
-67.3828125,-25.87890625,-40.0390625,-40.0390625
-107.421875,-40.52734375,-43.45703125,-142.578125
-87.40234375,-41.015625,-40.0390625,-117.1875
-41.9921875,-35.15625,-36.1328125,8.7890625
-47.36328125,-26.85546875,-39.55078125,49.31640625
-71.77734375,-17.08984375,-51.7578125,-44.43359375
-83.0078125,-27.34375,-52.734375,-141.6015625
-72.265625,-42.48046875,-48.828125,-132.32421875
-35.64453125,-35.64453125,-49.8046875,-20.5078125
-25.87890625,-22.94921875,-44.43359375,47.36328125
-52.734375,-28.80859375,-41.015625,-20.99609375
-78.125,-43.45703125,-42.48046875,-135.25390625
-50.78125,-39.55078125,-43.9453125,-137.20703125
-22.94921875,-30.76171875,-42.48046875,-15.625
-36.62109375,-29.78515625,-36.62109375,61.03515625
-65.4296875,-31.25,-45.41015625,-9.765625
-98.6328125,-48.828125,-59.5703125,-147.4609375
-84.47265625,-57.12890625,-61.03515625,-169.43359375
-39.55078125,-51.26953125,-49.8046875,-47.36328125
-19.53125,-41.9921875,-43.45703125,59.08203125
-51.7578125,-36.1328125,-47.36328125,4.39453125
-90.33203125,-41.015625,-51.26953125,-126.46484375
-75.68359375,-48.33984375,-60.05859375,-157.2265625
-37.59765625,-47.8515625,-46.875,-47.8515625
-9.765625,-37.59765625,-32.71484375,75.1953125
-19.53125,-30.2734375,-40.0390625,39.0625
-53.22265625,-38.57421875,-50.29296875,-97.16796875
-47.8515625,-46.38671875,-46.38671875,-140.13671875
-24.4140625,-46.38671875,-40.52734375,-51.26953125
1.46484375,-41.9921875,-40.52734375,70.3125
2.9296875,-36.62109375,-49.8046875,51.26953125
-37.109375,-45.41015625,-56.15234375,-74.21875
-61.5234375,-50.29296875,-53.7109375,-144.53125
-34.1796875,-46.38671875,-55.17578125,-91.796875
8.7890625,-33.203125,-53.22265625,45.8984375
7.32421875,-22.94921875,-49.8046875,76.171875
-42.48046875,-31.73828125,-49.8046875,-43.45703125
-56.640625,-40.0390625,-65.4296875,-133.30078125
-23.4375,-50.29296875,-64.453125,-77.63671875
5.37109375,-49.8046875,-47.8515625,55.6640625
11.71875,-37.59765625,-41.015625,85.44921875
-20.01953125,-53.22265625,-45.41015625,-32.2265625
-47.36328125,-72.75390625,-42.48046875,-126.953125
-30.76171875,-76.66015625,-28.3203125,-80.078125
17.578125,-62.01171875,-18.06640625,66.40625
30.76171875,-43.45703125,-13.18359375,114.74609375
-8.30078125,-49.31640625,-14.16015625,2.9296875
-30.2734375,-61.5234375,-23.4375,-106.4453125
-11.23046875,-54.6875,-23.4375,-81.54296875
39.55078125,-41.015625,-16.6015625,53.22265625
46.38671875,-40.52734375,-23.92578125,106.4453125
12.6953125,-37.109375,-30.76171875,18.06640625
-15.13671875,-47.8515625,-33.69140625,-94.7265625
-9.27734375,-64.453125,-32.71484375,-88.8671875
26.85546875,-59.5703125,-29.78515625,35.15625
45.8984375,-41.015625,-27.83203125,108.3984375
10.7421875,-45.41015625,-28.80859375,39.55078125
-34.66796875,-69.3359375,-36.62109375,-79.58984375
-26.3671875,-79.58984375,-45.8984375,-97.65625
13.18359375,-73.2421875,-36.62109375,24.4140625
36.1328125,-56.15234375,-28.3203125,128.41796875
5.37109375,-50.78125,-33.203125,63.4765625
-34.66796875,-61.03515625,-37.109375,-75.68359375
-29.296875,-61.5234375,-40.0390625,-107.421875
8.30078125,-49.8046875,-36.1328125,3.90625
33.203125,-41.9921875,-28.3203125,113.76953125
6.8359375,-44.43359375,-27.83203125,71.2890625
-26.3671875,-49.31640625,-38.57421875,-60.546875
-28.80859375,-57.6171875,-49.8046875,-102.05078125
-3.41796875,-55.6640625,-50.78125,-11.71875
34.1796875,-42.48046875,-43.45703125,106.93359375
22.94921875,-39.55078125,-38.57421875,82.03125
-23.92578125,-45.41015625,-42.48046875,-51.7578125
-41.50390625,-59.08203125,-51.26953125,-119.140625
-12.20703125,-52.734375,-50.29296875,-41.50390625
25.390625,-34.66796875,-43.9453125,92.7734375
2.44140625,-34.1796875,-43.45703125,79.58984375
-50.29296875,-45.41015625,-46.875,-50.78125
-64.453125,-60.05859375,-41.9921875,-119.62890625
-36.62109375,-61.5234375,-37.109375,-56.15234375
8.30078125,-47.8515625,-31.73828125,81.54296875
5.859375,-32.71484375,-32.2265625,86.9140625
-41.015625,-34.66796875,-45.8984375,-56.640625
-69.3359375,-48.828125,-55.6640625,-156.73828125
-44.43359375,-55.17578125,-47.36328125,-94.7265625
-0.9765625,-48.33984375,-29.296875,61.5234375
-0.9765625,-30.2734375,-23.92578125,87.890625
-44.921875,-29.296875,-34.1796875,-45.8984375
-67.87109375,-38.0859375,-40.0390625,-151.85546875
-44.921875,-44.43359375,-38.57421875,-103.515625
-4.8828125,-40.0390625,-29.296875,44.921875
-6.8359375,-26.3671875,-32.71484375,79.58984375
-41.50390625,-33.203125,-38.0859375,-31.25
-65.91796875,-46.38671875,-38.0859375,-129.39453125
-45.41015625,-44.921875,-47.36328125,-109.86328125
-14.6484375,-39.55078125,-39.0625,21.97265625
-13.671875,-23.92578125,-27.83203125,89.84375
-48.828125,-24.4140625,-33.69140625,-12.6953125
-87.40234375,-49.31640625,-39.0625,-144.53125
-77.63671875,-61.5234375,-36.62109375,-136.23046875
-45.8984375,-54.19921875,-29.78515625,-4.8828125
-34.66796875,-37.109375,-29.296875,71.2890625
-62.98828125,-31.25,-34.66796875,-13.18359375
-105.46875,-41.015625,-43.9453125,-145.01953125
-89.84375,-45.8984375,-44.43359375,-153.3203125
-40.0390625,-39.0625,-37.109375,-26.85546875
-15.625,-30.2734375,-33.203125,75.1953125
-54.19921875,-35.64453125,-34.66796875,4.39453125
-98.6328125,-44.921875,-41.50390625,-131.34765625
-86.9140625,-49.31640625,-46.38671875,-158.203125
-43.45703125,-50.78125,-44.43359375,-49.8046875
-14.6484375,-41.015625,-35.64453125,77.63671875
-30.76171875,-42.48046875,-34.1796875,39.0625
-62.5,-49.31640625,-39.0625,-105.46875
-76.66015625,-52.24609375,-44.921875,-160.64453125
-34.66796875,-46.38671875,-39.0625,-53.22265625
5.37109375,-33.203125,-24.4140625,85.9375
-25.87890625,-32.2265625,-24.90234375,50.29296875
-71.77734375,-53.7109375,-30.2734375,-85.44921875
-71.2890625,-63.96484375,-37.59765625,-138.18359375
-41.9921875,-43.45703125,-36.62109375,-57.6171875
-16.11328125,-31.25,-27.34375,66.40625
-25.87890625,-35.64453125,-34.1796875,51.7578125
-64.453125,-48.828125,-52.24609375,-87.40234375
-78.61328125,-58.10546875,-44.921875,-154.296875
-48.828125,-57.6171875,-32.71484375,-82.51953125
-13.671875,-47.36328125,-35.64453125,52.734375
-17.08984375,-43.45703125,-34.66796875,71.2890625
-56.15234375,-49.8046875,-44.921875,-65.91796875
-86.9140625,-58.59375,-56.640625,-168.9453125
-58.59375,-56.640625,-54.19921875,-113.28125
-8.30078125,-35.15625,-49.31640625,33.69140625
-14.6484375,-24.90234375,-49.31640625,64.94140625
-56.15234375,-41.015625,-54.19921875,-62.5
-75.1953125,-59.08203125,-55.17578125,-168.45703125
-54.6875,-49.31640625,-54.6875,-125.48828125
-9.765625,-30.76171875,-46.38671875,25.390625
3.90625,-18.06640625,-41.015625,78.125
-31.25,-27.83203125,-50.29296875,-32.71484375
-71.77734375,-49.8046875,-53.7109375,-149.4140625
-66.40625,-57.6171875,-49.8046875,-129.39453125
-23.92578125,-45.8984375,-46.875,10.7421875
-14.16015625,-41.9921875,-37.59765625,86.42578125
-43.45703125,-45.41015625,-35.15625,-6.8359375
-74.70703125,-45.41015625,-48.828125,-140.13671875
-64.94140625,-50.78125,-51.7578125,-134.27734375
-25.390625,-45.41015625,-44.43359375,-2.9296875
-12.20703125,-31.73828125,-44.43359375,70.3125
-37.109375,-31.73828125,-44.43359375,-1.953125
-68.84765625,-45.8984375,-44.921875,-126.46484375
-66.89453125,-49.31640625,-42.96875,-149.90234375
-37.109375,-33.203125,-37.109375,-39.0625
-8.30078125,-21.484375,-38.57421875,52.24609375
-21.97265625,-26.85546875,-37.59765625,0.0
-73.73046875,-46.38671875,-36.1328125,-125.9765625
-80.078125,-56.640625,-45.41015625,-161.1328125
-47.8515625,-48.33984375,-45.8984375,-54.19921875
-26.85546875,-41.015625,-38.0859375,55.6640625
-37.59765625,-43.45703125,-42.48046875,10.25390625
-72.265625,-44.43359375,-36.62109375,-116.69921875
-81.54296875,-48.33984375,-24.4140625,-152.83203125
-43.45703125,-42.48046875,-27.83203125,-50.78125
-10.7421875,-20.01953125,-33.69140625,72.75390625
-30.76171875,-18.5546875,-40.0390625,45.41015625
-61.5234375,-34.66796875,-42.96875,-81.0546875
-72.265625,-43.45703125,-49.31640625,-151.3671875
-49.8046875,-41.50390625,-53.22265625,-78.61328125
3.41796875,-24.90234375,-43.45703125,69.82421875
-4.8828125,-15.13671875,-46.38671875,63.4765625
-63.96484375,-28.3203125,-60.546875,-86.9140625
-73.73046875,-43.45703125,-58.10546875,-164.0625
-42.48046875,-41.50390625,-51.7578125,-86.42578125
-7.8125,-30.2734375,-47.8515625,58.59375
-27.83203125,-28.80859375,-48.828125,56.640625
-64.453125,-38.57421875,-50.78125,-76.171875
-67.87109375,-43.45703125,-48.828125,-163.57421875
-52.734375,-39.0625,-45.8984375,-115.234375
-4.39453125,-26.85546875,-40.52734375,35.15625
8.7890625,-21.484375,-36.1328125,79.58984375
-39.0625,-35.15625,-41.9921875,-39.0625
-68.359375,-48.33984375,-53.7109375,-149.90234375
-49.8046875,-44.43359375,-51.26953125,-116.2109375
-11.71875,-33.203125,-37.109375,27.34375
-9.27734375,-31.73828125,-34.1796875,81.54296875
-44.43359375,-36.1328125,-37.109375,-22.4609375
-82.51953125,-44.43359375,-48.828125,-144.53125
-71.2890625,-43.9453125,-56.640625,-126.46484375
-21.484375,-38.57421875,-40.52734375,23.92578125
-14.6484375,-36.1328125,-37.59765625,94.23828125
-52.24609375,-38.57421875,-42.96875,-6.8359375
-81.0546875,-45.8984375,-39.55078125,-128.90625
-70.3125,-51.7578125,-41.015625,-131.34765625
-22.94921875,-41.015625,-39.0625,-2.44140625
4.39453125,-28.80859375,-34.1796875,91.30859375
-25.87890625,-36.1328125,-40.52734375,9.27734375
-82.51953125,-51.7578125,-48.828125,-135.25390625
-88.37890625,-60.546875,-52.734375,-161.62109375
-36.62109375,-46.38671875,-46.875,-32.71484375
-4.8828125,-27.34375,-42.48046875,80.078125
-29.78515625,-24.4140625,-56.15234375,10.7421875
-70.80078125,-33.69140625,-62.98828125,-127.9296875
-72.265625,-50.29296875,-54.19921875,-147.94921875
-34.66796875,-52.734375,-49.8046875,-34.1796875
-6.34765625,-32.71484375,-49.8046875,77.63671875
-33.203125,-26.3671875,-53.7109375,26.3671875
-76.171875,-36.62109375,-61.5234375,-113.76953125
-67.3828125,-50.78125,-61.5234375,-164.55078125
-30.2734375,-48.828125,-53.22265625,-63.96484375
-3.41796875,-39.0625,-39.0625,75.1953125
-18.06640625,-38.57421875,-37.109375,54.19921875
-72.265625,-48.828125,-45.8984375,-86.9140625
-87.40234375,-54.6875,-51.26953125,-162.109375
-51.26953125,-49.31640625,-48.828125,-84.47265625
-0.9765625,-29.296875,-43.45703125,60.05859375
-13.18359375,-22.94921875,-49.8046875,55.6640625
-66.40625,-42.48046875,-55.17578125,-81.0546875
-73.2421875,-54.6875,-44.921875,-154.78515625
-42.96875,-49.8046875,-42.48046875,-89.84375
-3.90625,-42.96875,-44.43359375,49.31640625
0.0,-37.59765625,-44.43359375,70.80078125
-41.50390625,-44.43359375,-48.828125,-55.17578125
-63.96484375,-51.7578125,-50.29296875,-150.87890625
-38.57421875,-45.8984375,-55.17578125,-109.86328125
10.25390625,-28.3203125,-51.7578125,43.45703125
14.16015625,-23.4375,-42.96875,87.890625
-47.36328125,-37.109375,-52.24609375,-44.43359375
-85.9375,-44.921875,-62.01171875,-156.25
-58.10546875,-51.7578125,-62.01171875,-126.953125
-7.8125,-40.0390625,-54.6875,19.04296875
4.8828125,-24.4140625,-47.8515625,85.44921875
-39.55078125,-40.52734375,-48.828125,-19.53125
-73.2421875,-50.29296875,-56.15234375,-142.578125
-53.7109375,-48.828125,-58.59375,-130.37109375
-19.04296875,-44.43359375,-50.78125,1.953125
-5.37109375,-31.73828125,-45.41015625,76.171875
-23.4375,-32.71484375,-52.734375,-6.34765625
-62.01171875,-44.43359375,-61.5234375,-130.37109375
-61.5234375,-49.31640625,-60.546875,-135.7421875
-20.5078125,-44.921875,-50.29296875,-6.8359375
-11.71875,-33.203125,-44.43359375,77.63671875
-37.109375,-26.3671875,-44.921875,-0.9765625
-63.4765625,-36.62109375,-55.17578125,-134.27734375
-52.734375,-53.7109375,-56.640625,-146.484375
-16.11328125,-48.828125,-39.55078125,-15.625
4.8828125,-31.73828125,-35.15625,91.796875
-16.6015625,-30.76171875,-38.57421875,34.1796875
-54.19921875,-39.0625,-42.48046875,-106.93359375
-64.94140625,-48.33984375,-44.43359375,-147.4609375
-36.1328125,-47.36328125,-47.8515625,-51.26953125
1.46484375,-33.203125,-47.8515625,69.3359375
-10.7421875,-31.25,-37.59765625,38.0859375
-63.96484375,-49.8046875,-35.15625,-98.14453125
-73.2421875,-53.7109375,-42.48046875,-156.25
-42.96875,-44.43359375,-46.38671875,-77.1484375
-14.6484375,-42.96875,-44.43359375,45.8984375
-28.80859375,-37.109375,-47.36328125,23.92578125
-74.21875,-41.015625,-54.6875,-117.1875
-85.9375,-53.7109375,-59.08203125,-186.5234375
-50.78125,-49.8046875,-50.29296875,-96.6796875
-7.8125,-29.296875,-42.96875,45.8984375
-24.4140625,-22.94921875,-49.31640625,43.9453125
-68.84765625,-36.62109375,-47.36328125,-77.1484375
-92.28515625,-54.6875,-47.8515625,-164.55078125
-67.3828125,-53.22265625,-45.41015625,-111.81640625
-13.18359375,-31.25,-38.57421875,31.25
-16.11328125,-30.76171875,-38.0859375,54.19921875
-65.91796875,-48.828125,-39.0625,-66.40625
-94.23828125,-59.08203125,-44.43359375,-164.55078125
-69.3359375,-59.5703125,-47.36328125,-121.58203125
-20.01953125,-45.8984375,-37.59765625,20.99609375
-13.18359375,-37.59765625,-29.78515625,65.91796875
-45.41015625,-41.50390625,-37.59765625,-41.50390625
-79.58984375,-49.31640625,-45.8984375,-157.71484375
-67.3828125,-54.19921875,-46.875,-136.23046875
-15.625,-39.55078125,-48.828125,5.859375
2.44140625,-23.92578125,-42.96875,73.2421875
-31.73828125,-28.3203125,-38.0859375,-15.13671875
-71.77734375,-41.9921875,-39.55078125,-132.8125
-66.40625,-60.546875,-38.57421875,-127.9296875
-21.97265625,-52.24609375,-39.55078125,1.953125
-13.18359375,-34.1796875,-40.52734375,70.3125
-48.33984375,-41.015625,-39.55078125,-20.99609375
-81.54296875,-50.78125,-40.0390625,-149.90234375
-72.265625,-57.6171875,-50.78125,-162.109375
-37.109375,-49.8046875,-54.6875,-40.0390625
-13.671875,-36.1328125,-41.9921875,59.5703125
-35.64453125,-41.015625,-38.0859375,-3.41796875
-94.7265625,-50.78125,-43.9453125,-140.13671875
-86.9140625,-52.24609375,-45.41015625,-160.15625
-36.1328125,-50.78125,-41.015625,-41.50390625
-12.6953125,-37.109375,-32.2265625,68.359375
-33.69140625,-31.25,-40.0390625,13.671875
-72.75390625,-50.78125,-50.78125,-127.9296875
-66.89453125,-58.59375,-49.8046875,-159.1796875
-30.76171875,-46.38671875,-45.41015625,-51.7578125
1.953125,-30.2734375,-45.8984375,66.40625
-17.08984375,-29.296875,-44.921875,37.109375
-71.2890625,-42.96875,-46.38671875,-97.65625
-76.66015625,-50.78125,-50.78125,-155.2734375
-37.109375,-51.7578125,-43.9453125,-62.5
-8.30078125,-40.52734375,-31.25,75.1953125
-20.01953125,-33.203125,-31.73828125,57.6171875
-76.171875,-45.41015625,-40.52734375,-92.28515625
-92.7734375,-60.546875,-41.50390625,-164.55078125
-47.36328125,-58.10546875,-39.0625,-80.56640625
-1.46484375,-40.0390625,-35.64453125,62.98828125
-11.23046875,-28.80859375,-34.1796875,71.2890625
-53.22265625,-38.0859375,-41.9921875,-62.98828125
-68.359375,-49.31640625,-42.96875,-152.34375
-42.96875,-48.828125,-40.0390625,-94.7265625
-0.48828125,-31.73828125,-42.96875,43.9453125
-11.71875,-22.94921875,-44.43359375,62.5
-63.4765625,-34.1796875,-46.875,-60.546875
-88.37890625,-49.31640625,-46.875,-153.3203125
-63.4765625,-54.6875,-42.48046875,-104.4921875
-14.6484375,-41.015625,-35.15625,41.9921875
-11.71875,-31.73828125,-33.69140625,82.51953125
-52.734375,-40.0390625,-38.0859375,-38.57421875
-77.1484375,-53.7109375,-41.9921875,-153.3203125
-62.98828125,-58.59375,-41.9921875,-124.51171875
-21.484375,-50.29296875,-38.0859375,17.08984375
-11.23046875,-33.203125,-34.1796875,79.1015625
-52.24609375,-37.59765625,-41.50390625,-26.3671875
-89.35546875,-54.6875,-52.24609375,-154.78515625
-68.84765625,-53.22265625,-45.41015625,-135.7421875
-26.85546875,-43.45703125,-45.8984375,-6.34765625
-21.484375,-39.55078125,-50.78125,60.05859375
-56.15234375,-47.8515625,-46.38671875,-23.92578125
-93.26171875,-62.98828125,-47.36328125,-150.390625
-78.61328125,-63.4765625,-50.78125,-154.78515625
-37.59765625,-49.31640625,-50.29296875,-37.59765625
-18.5546875,-33.203125,-44.921875,62.01171875
-39.55078125,-30.76171875,-46.38671875,1.953125
-79.1015625,-41.9921875,-52.734375,-141.11328125
-83.984375,-53.22265625,-52.24609375,-166.9921875
-42.48046875,-48.33984375,-49.8046875,-46.38671875
-9.27734375,-29.78515625,-46.38671875,70.3125
-25.87890625,-20.01953125,-45.8984375,25.87890625
-65.4296875,-41.50390625,-50.29296875,-112.79296875
-71.77734375,-57.6171875,-51.7578125,-152.83203125
-23.92578125,-46.38671875,-46.38671875,-46.875
11.71875,-32.71484375,-45.41015625,75.1953125
-20.5078125,-35.15625,-48.828125,41.015625
-56.640625,-43.45703125,-52.24609375,-93.26171875
-69.3359375,-46.38671875,-54.19921875,-150.87890625
-47.36328125,-44.921875,-50.29296875,-73.2421875
-0.9765625,-34.1796875,-40.0390625,67.87109375
-19.53125,-38.57421875,-35.64453125,62.01171875
-72.75390625,-48.33984375,-44.43359375,-83.0078125
-89.84375,-55.17578125,-56.15234375,-168.9453125
-62.01171875,-59.08203125,-51.7578125,-94.7265625
-3.41796875,-37.109375,-35.15625,59.5703125
-11.71875,-26.85546875,-37.109375,57.6171875
-62.98828125,-40.52734375,-49.8046875,-81.54296875
-79.1015625,-51.7578125,-53.22265625,-165.0390625
-51.7578125,-48.33984375,-52.24609375,-109.86328125
-10.25390625,-35.15625,-49.8046875,36.62109375
-14.6484375,-32.2265625,-49.8046875,63.96484375
-53.22265625,-36.1328125,-52.734375,-60.546875
-77.63671875,-42.96875,-49.31640625,-159.66796875
-54.6875,-42.96875,-39.0625,-113.76953125
-6.8359375,-34.66796875,-30.76171875,34.1796875
0.9765625,-25.390625,-29.78515625,85.44921875
-43.45703125,-32.2265625,-38.57421875,-26.85546875
-85.44921875,-50.29296875,-50.29296875,-149.4140625
-77.1484375,-57.6171875,-52.24609375,-137.20703125
-30.76171875,-43.9453125,-45.8984375,1.953125
-16.6015625,-35.64453125,-44.921875,72.75390625
-44.43359375,-44.921875,-45.8984375,-21.97265625
-77.1484375,-52.24609375,-48.33984375,-148.4375
-66.89453125,-51.26953125,-51.7578125,-147.4609375
-19.53125,-41.015625,-47.36328125,-11.71875
1.46484375,-26.3671875,-41.50390625,81.54296875
-41.50390625,-34.1796875,-54.6875,-13.671875
-78.61328125,-52.734375,-69.82421875,-155.2734375
-61.03515625,-53.22265625,-56.15234375,-150.390625
-31.73828125,-46.38671875,-48.828125,-25.390625
-7.8125,-31.73828125,-51.7578125,68.84765625
-29.78515625,-28.3203125,-47.36328125,9.765625
-84.9609375,-50.78125,-47.36328125,-123.046875
-82.03125,-62.5,-47.36328125,-147.94921875
-32.71484375,-46.875,-49.31640625,-34.1796875
-11.23046875,-31.73828125,-51.7578125,70.3125
-35.15625,-32.71484375,-43.9453125,24.90234375
-75.68359375,-35.15625,-42.96875,-103.515625
-78.61328125,-44.921875,-53.22265625,-151.3671875
-45.8984375,-54.19921875,-53.7109375,-53.7109375
-13.18359375,-45.8984375,-47.36328125,76.171875
-32.71484375,-39.55078125,-45.41015625,45.41015625
-77.63671875,-41.50390625,-47.36328125,-94.23828125
-85.44921875,-48.828125,-50.29296875,-154.296875
-55.6640625,-48.828125,-54.6875,-77.63671875
-17.08984375,-31.73828125,-48.33984375,53.7109375
-30.2734375,-25.390625,-42.48046875,47.8515625
-75.1953125,-41.50390625,-42.96875,-79.1015625
-90.33203125,-59.5703125,-46.38671875,-153.3203125
-60.05859375,-57.12890625,-47.8515625,-87.890625
-8.30078125,-38.57421875,-46.875,50.29296875
-15.13671875,-37.59765625,-44.921875,57.12890625
-65.4296875,-60.05859375,-45.41015625,-72.75390625
-92.28515625,-74.70703125,-54.6875,-166.015625
-75.68359375,-70.3125,-55.17578125,-117.67578125
-25.87890625,-51.7578125,-42.48046875,30.2734375
-22.94921875,-34.1796875,-37.59765625,62.01171875
-56.15234375,-37.59765625,-38.57421875,-58.10546875
-69.82421875,-43.45703125,-41.9921875,-158.69140625
-53.7109375,-42.48046875,-41.50390625,-120.1171875
-15.625,-41.015625,-36.1328125,18.5546875
-17.578125,-35.15625,-38.57421875,66.40625
-55.6640625,-41.50390625,-49.31640625,-47.8515625
-86.9140625,-57.6171875,-55.6640625,-168.9453125
-86.42578125,-55.17578125,-54.6875,-145.01953125
-35.64453125,-41.015625,-46.38671875,-3.41796875
-18.5546875,-34.66796875,-39.55078125,72.75390625
-52.24609375,-37.59765625,-41.9921875,-20.5078125
-82.51953125,-50.78125,-44.921875,-146.97265625
-76.171875,-55.6640625,-47.8515625,-143.06640625
-41.9921875,-45.8984375,-44.921875,-13.671875
-27.83203125,-40.52734375,-38.0859375,72.265625
-52.24609375,-41.9921875,-37.109375,-2.44140625
-84.47265625,-53.7109375,-47.36328125,-130.859375
-75.68359375,-62.98828125,-52.734375,-145.5078125
-35.15625,-60.05859375,-41.50390625,-22.4609375
-15.625,-45.8984375,-37.109375,78.125
-36.1328125,-40.0390625,-40.52734375,13.671875
-78.125,-49.8046875,-37.109375,-118.65234375
-83.0078125,-57.6171875,-40.0390625,-149.4140625
-44.921875,-60.546875,-48.828125,-47.36328125
-16.6015625,-43.45703125,-46.38671875,62.5
-41.9921875,-37.109375,-44.921875,16.6015625
-85.9375,-51.26953125,-46.875,-121.58203125
-85.44921875,-59.08203125,-43.9453125,-162.59765625
-46.38671875,-50.29296875,-46.38671875,-67.3828125
-11.23046875,-35.15625,-46.875,60.546875
-34.66796875,-41.015625,-45.8984375,32.2265625
-78.61328125,-51.7578125,-47.36328125,-106.93359375
-89.84375,-59.08203125,-46.38671875,-167.96875
-64.94140625,-60.05859375,-43.9453125,-89.84375
-26.85546875,-50.78125,-41.9921875,49.31640625
-37.59765625,-40.0390625,-35.64453125,54.19921875
-83.49609375,-46.875,-39.0625,-79.1015625
-95.703125,-57.12890625,-46.38671875,-158.203125
-64.453125,-55.6640625,-44.43359375,-91.30859375
-20.01953125,-46.875,-38.0859375,51.7578125
-23.4375,-29.296875,-36.1328125,61.5234375
-73.73046875,-40.52734375,-47.8515625,-73.2421875
-97.65625,-63.4765625,-59.5703125,-170.8984375
-62.98828125,-56.640625,-50.29296875,-116.2109375
-5.859375,-41.015625,-43.9453125,27.83203125
-2.9296875,-35.64453125,-48.33984375,58.10546875
-49.8046875,-42.96875,-52.734375,-56.640625
-90.8203125,-60.05859375,-60.05859375,-164.0625
-72.265625,-68.359375,-58.10546875,-134.27734375
-16.11328125,-42.48046875,-44.43359375,11.71875
-14.16015625,-27.34375,-36.1328125,68.84765625
-56.640625,-39.55078125,-41.015625,-37.109375
-92.7734375,-45.41015625,-51.7578125,-162.59765625
-72.265625,-50.29296875,-55.17578125,-147.4609375
-22.4609375,-44.921875,-42.48046875,3.41796875
-12.20703125,-35.64453125,-34.66796875,81.54296875
-50.29296875,-43.45703125,-39.55078125,-17.08984375
-95.703125,-51.7578125,-52.24609375,-153.3203125
-81.0546875,-45.41015625,-56.15234375,-153.3203125
-32.71484375,-37.109375,-43.45703125,-17.08984375
-9.765625,-33.203125,-35.64453125,72.75390625
-32.71484375,-38.0859375,-38.57421875,1.953125
-75.1953125,-47.8515625,-46.38671875,-130.859375
-65.91796875,-51.7578125,-51.26953125,-150.87890625
-28.3203125,-47.8515625,-45.41015625,-25.390625
-10.7421875,-42.96875,-39.0625,82.51953125
-33.203125,-43.45703125,-35.15625,24.4140625
-83.0078125,-54.19921875,-46.875,-119.62890625
-82.51953125,-66.89453125,-54.19921875,-160.64453125
-38.57421875,-56.640625,-42.96875,-51.7578125
-13.18359375,-36.62109375,-38.0859375,68.359375
-35.64453125,-32.71484375,-37.59765625,31.73828125
-75.1953125,-46.38671875,-35.64453125,-104.4921875
-75.68359375,-52.24609375,-43.9453125,-160.15625
-40.0390625,-44.43359375,-46.875,-75.1953125
-2.9296875,-29.78515625,-44.43359375,56.15234375
-11.23046875,-20.01953125,-48.33984375,36.62109375
-57.12890625,-36.62109375,-47.8515625,-97.65625
-71.77734375,-56.640625,-47.36328125,-163.0859375
-42.96875,-52.734375,-44.921875,-89.84375
-13.671875,-39.0625,-44.921875,40.52734375
-29.296875,-29.78515625,-49.8046875,33.69140625
-68.359375,-31.25,-57.6171875,-97.16796875
-86.42578125,-47.36328125,-55.6640625,-171.38671875
-62.01171875,-52.24609375,-44.43359375,-101.5625
-18.06640625,-32.71484375,-40.0390625,42.48046875
-15.625,-27.34375,-38.57421875,63.4765625
-53.7109375,-41.9921875,-39.55078125,-58.10546875
-80.56640625,-52.24609375,-40.52734375,-148.4375
-56.15234375,-54.6875,-42.48046875,-107.421875
-12.6953125,-44.921875,-37.59765625,33.69140625
-7.32421875,-35.64453125,-32.71484375,77.63671875
-40.0390625,-40.52734375,-31.73828125,-36.62109375
-72.265625,-48.33984375,-30.2734375,-149.4140625
-57.6171875,-50.78125,-31.73828125,-119.62890625
-7.8125,-36.1328125,-30.76171875,23.4375
0.9765625,-27.83203125,-33.69140625,77.63671875
-41.9921875,-35.15625,-41.015625,-25.87890625
-86.42578125,-52.24609375,-49.8046875,-154.78515625
-64.94140625,-55.17578125,-49.8046875,-145.99609375
-16.11328125,-33.69140625,-46.38671875,-10.7421875
-7.8125,-26.3671875,-46.38671875,59.5703125
-43.9453125,-37.59765625,-51.26953125,-32.2265625
-83.0078125,-49.8046875,-55.6640625,-158.69140625
-66.89453125,-54.19921875,-45.8984375,-154.296875
-22.94921875,-43.45703125,-35.15625,-19.53125
-8.30078125,-31.25,-33.69140625,72.265625
-46.875,-34.1796875,-41.9921875,-4.39453125
-94.23828125,-46.38671875,-50.78125,-141.11328125
-80.078125,-53.7109375,-48.33984375,-155.2734375
-42.48046875,-52.734375,-35.64453125,-30.2734375
-33.69140625,-42.48046875,-30.2734375,75.68359375
-46.38671875,-34.66796875,-32.2265625,28.3203125
-80.078125,-38.57421875,-42.48046875,-112.79296875
-93.26171875,-51.7578125,-46.38671875,-162.59765625
-44.921875,-51.26953125,-39.0625,-49.31640625
-2.9296875,-33.69140625,-40.0390625,76.171875
-30.76171875,-30.2734375,-41.9921875,27.83203125
-82.03125,-51.7578125,-48.33984375,-113.76953125
-83.0078125,-66.89453125,-52.734375,-160.15625
-39.55078125,-56.15234375,-42.48046875,-62.5
-10.25390625,-38.0859375,-45.41015625,63.4765625
-31.25,-32.71484375,-59.5703125,41.9921875
-79.1015625,-42.96875,-61.5234375,-98.6328125
-80.078125,-42.96875,-56.15234375,-168.9453125
-37.59765625,-34.1796875,-46.875,-79.1015625
-5.859375,-35.15625,-35.15625,62.98828125
-17.578125,-35.15625,-37.59765625,64.453125
-62.98828125,-43.45703125,-45.8984375,-74.70703125
-89.84375,-60.05859375,-48.33984375,-167.96875
-64.94140625,-64.94140625,-44.921875,-106.93359375
-18.06640625,-52.24609375,-32.2265625,43.9453125
-10.7421875,-45.41015625,-33.69140625,70.80078125
-41.015625,-46.875,-42.96875,-50.78125
-68.359375,-49.31640625,-45.8984375,-148.4375
-55.6640625,-53.7109375,-44.43359375,-109.375
-6.8359375,-40.0390625,-39.0625,38.57421875
-6.34765625,-33.69140625,-39.0625,78.125
-50.29296875,-47.8515625,-44.43359375,-37.59765625
-85.44921875,-58.10546875,-48.828125,-148.4375
-68.84765625,-59.5703125,-54.19921875,-134.27734375
-10.25390625,-38.57421875,-48.828125,7.8125
4.39453125,-26.3671875,-40.52734375,79.1015625
-42.96875,-40.0390625,-50.29296875,-23.92578125
-83.49609375,-52.734375,-63.96484375,-157.71484375
-54.19921875,-57.6171875,-58.59375,-145.5078125
-3.41796875,-43.45703125,-41.015625,3.41796875
-1.953125,-34.66796875,-41.50390625,84.9609375
-28.80859375,-35.64453125,-49.31640625,-0.48828125
-52.24609375,-49.8046875,-53.7109375,-137.6953125
-63.4765625,-61.03515625,-52.734375,-149.90234375
-32.2265625,-49.8046875,-45.41015625,-20.5078125
-1.953125,-37.59765625,-45.41015625,76.171875
-31.73828125,-37.109375,-48.828125,10.25390625
-73.73046875,-52.24609375,-48.33984375,-123.046875
-77.1484375,-62.01171875,-48.828125,-154.78515625
-33.203125,-54.19921875,-43.9453125,-41.9921875
0.9765625,-34.1796875,-38.0859375,71.2890625
-27.34375,-31.73828125,-50.29296875,18.06640625
-59.5703125,-52.24609375,-56.640625,-122.55859375
-73.73046875,-58.10546875,-53.7109375,-164.0625
-56.15234375,-50.29296875,-44.921875,-56.640625
-7.8125,-39.0625,-31.73828125,71.77734375
-19.53125,-32.2265625,-40.0390625,40.0390625
-73.2421875,-44.43359375,-51.7578125,-101.5625
-90.33203125,-61.5234375,-49.31640625,-165.0390625
-62.01171875,-56.15234375,-48.33984375,-84.47265625
-19.04296875,-39.0625,-46.875,45.8984375
-18.06640625,-36.1328125,-42.96875,42.48046875
-61.03515625,-49.31640625,-41.9921875,-84.9609375
-86.42578125,-67.3828125,-41.015625,-164.55078125
-62.01171875,-61.03515625,-39.55078125,-93.75
-19.53125,-32.71484375,-36.62109375,51.26953125
-23.4375,-20.5078125,-37.109375,53.7109375
-64.453125,-40.0390625,-45.8984375,-74.70703125
-95.21484375,-58.59375,-57.12890625,-163.0859375
-78.125,-62.01171875,-54.6875,-115.72265625
-24.4140625,-53.7109375,-41.9921875,33.69140625
-26.85546875,-38.57421875,-42.96875,62.5
-83.984375,-42.96875,-50.29296875,-69.82421875
-108.3984375,-68.84765625,-52.24609375,-168.9453125
-76.171875,-67.3828125,-49.8046875,-120.1171875
-26.3671875,-44.921875,-44.921875,21.97265625
-30.76171875,-40.0390625,-37.109375,63.4765625
-66.40625,-39.55078125,-40.0390625,-38.0859375
-89.84375,-51.7578125,-48.828125,-148.4375
-74.21875,-64.94140625,-53.22265625,-140.625
-22.94921875,-47.36328125,-57.6171875,1.46484375
-7.32421875,-36.62109375,-55.6640625,76.66015625
-46.875,-48.828125,-53.22265625,-21.484375
-87.890625,-61.5234375,-55.17578125,-147.94921875
-85.44921875,-65.4296875,-58.10546875,-147.4609375
-33.203125,-54.6875,-50.78125,-10.7421875
-11.23046875,-41.9921875,-45.8984375,81.0546875
-51.7578125,-54.6875,-44.43359375,3.41796875
-83.0078125,-65.4296875,-43.45703125,-123.53515625
-78.61328125,-59.5703125,-49.8046875,-145.5078125
-38.57421875,-50.78125,-46.38671875,-30.2734375
-9.765625,-38.57421875,-40.0390625,66.89453125
-42.48046875,-33.69140625,-45.8984375,-0.48828125
-83.984375,-45.41015625,-48.828125,-134.765625
-72.75390625,-51.26953125,-49.31640625,-161.1328125
-32.71484375,-37.109375,-48.33984375,-47.8515625
-12.6953125,-23.92578125,-41.50390625,65.4296875
-41.50390625,-27.34375,-40.52734375,17.578125
-93.75,-50.29296875,-48.828125,-121.58203125
-97.65625,-70.3125,-51.26953125,-167.96875
-53.7109375,-62.98828125,-46.875,-64.94140625
-12.20703125,-39.0625,-43.45703125,71.2890625
-21.484375,-35.15625,-42.48046875,43.45703125
-70.3125,-57.6171875,-50.78125,-107.421875
-77.63671875,-70.80078125,-50.78125,-162.59765625
-38.0859375,-62.5,-46.875,-70.80078125
-5.37109375,-41.9921875,-48.33984375,53.22265625
-20.99609375,-35.15625,-44.43359375,39.0625
-46.875,-38.0859375,-40.0390625,-85.44921875
-66.89453125,-46.875,-42.48046875,-157.2265625
-68.359375,-48.828125,-47.8515625,-92.28515625
-24.4140625,-39.55078125,-46.875,48.33984375
-39.55078125,-35.15625,-52.24609375,43.9453125
-94.7265625,-37.59765625,-56.640625,-93.75
-110.3515625,-51.26953125,-57.12890625,-180.6640625
-83.984375,-58.59375,-54.6875,-124.0234375
-39.0625,-44.921875,-50.29296875,22.94921875
-34.66796875,-36.1328125,-54.19921875,43.9453125
-74.21875,-46.875,-58.10546875,-79.58984375
-91.796875,-53.22265625,-58.59375,-174.8046875
-62.01171875,-48.33984375,-47.8515625,-126.46484375
-16.6015625,-34.66796875,-41.9921875,22.4609375
-11.71875,-19.53125,-46.38671875,72.75390625
-48.33984375,-27.34375,-48.828125,-34.1796875
-80.56640625,-50.29296875,-51.26953125,-148.92578125
-68.84765625,-47.8515625,-48.33984375,-128.41796875
-32.71484375,-35.15625,-46.38671875,5.859375
-22.94921875,-38.0859375,-45.41015625,70.80078125
-49.31640625,-39.55078125,-45.41015625,-14.16015625
-80.56640625,-48.828125,-49.8046875,-136.23046875
-68.359375,-59.08203125,-47.8515625,-135.7421875
-23.4375,-48.33984375,-39.55078125,-3.41796875
4.39453125,-33.203125,-31.25,88.37890625
-22.4609375,-31.73828125,-31.73828125,18.06640625
-71.2890625,-46.875,-40.52734375,-120.60546875
-68.84765625,-49.31640625,-40.52734375,-144.53125
-28.3203125,-33.69140625,-38.57421875,-31.25
-9.765625,-18.5546875,-38.57421875,68.84765625
-37.109375,-23.92578125,-40.0390625,7.32421875
-77.63671875,-49.8046875,-45.41015625,-136.23046875
-85.44921875,-54.19921875,-48.828125,-171.875
-54.19921875,-45.41015625,-42.48046875,-64.453125
-23.92578125,-32.2265625,-31.73828125,51.26953125
-40.52734375,-31.73828125,-33.203125,6.8359375
-78.61328125,-46.38671875,-37.59765625,-124.51171875
-83.0078125,-54.19921875,-41.50390625,-170.8984375
-51.7578125,-48.828125,-38.0859375,-76.171875
-10.25390625,-33.203125,-33.69140625,57.12890625
-18.06640625,-29.296875,-26.3671875,37.59765625
-71.77734375,-43.45703125,-28.3203125,-93.75
-90.33203125,-53.22265625,-40.0390625,-159.66796875
-68.359375,-50.29296875,-43.45703125,-96.19140625
-33.69140625,-43.9453125,-34.1796875,41.9921875
-41.50390625,-40.0390625,-33.69140625,40.52734375
-83.49609375,-50.29296875,-45.8984375,-102.05078125
-95.703125,-62.98828125,-43.45703125,-180.17578125
-70.80078125,-61.5234375,-37.109375,-112.79296875
-35.15625,-50.78125,-32.2265625,27.83203125
-41.50390625,-39.55078125,-32.2265625,43.9453125
-76.66015625,-40.0390625,-35.64453125,-73.2421875
-102.05078125,-52.24609375,-35.15625,-161.62109375
-83.0078125,-46.38671875,-38.57421875,-113.28125
-29.78515625,-31.25,-34.66796875,29.78515625
-31.25,-28.80859375,-22.94921875,65.91796875
-77.63671875,-36.62109375,-22.94921875,-51.7578125
-94.23828125,-50.78125,-32.2265625,-156.25
-67.87109375,-50.29296875,-33.203125,-119.62890625
-26.3671875,-36.1328125,-30.2734375,20.99609375
-12.6953125,-22.4609375,-32.71484375,75.68359375
-49.8046875,-30.76171875,-41.9921875,-35.15625
-85.44921875,-45.8984375,-46.875,-161.1328125
-65.4296875,-46.38671875,-41.9921875,-139.16015625
-20.99609375,-35.64453125,-33.69140625,-0.48828125
-3.41796875,-19.53125,-37.59765625,75.68359375
-32.71484375,-22.94921875,-46.38671875,-13.18359375
-94.23828125,-49.31640625,-53.7109375,-161.1328125
-89.35546875,-56.15234375,-57.6171875,-168.45703125
-17.08984375,-32.71484375,-57.6171875,-26.3671875
11.23046875,-16.11328125,-47.36328125,78.61328125
-36.1328125,-29.78515625,-44.43359375,2.44140625
-84.9609375,-51.26953125,-59.08203125,-145.5078125
-76.171875,-55.17578125,-65.4296875,-166.015625
-36.1328125,-45.8984375,-54.19921875,-41.50390625
-12.6953125,-35.64453125,-41.015625,68.84765625
-42.48046875,-36.62109375,-47.8515625,6.8359375
-87.890625,-46.38671875,-52.734375,-132.8125
-82.51953125,-49.8046875,-48.828125,-159.66796875
-44.921875,-49.8046875,-51.7578125,-49.8046875
-15.625,-45.41015625,-50.78125,72.265625
-32.71484375,-38.0859375,-48.828125,34.66796875
-74.70703125,-44.43359375,-59.08203125,-104.00390625
-78.61328125,-59.08203125,-65.91796875,-155.76171875
-45.8984375,-59.08203125,-58.59375,-68.359375
-5.859375,-42.96875,-51.7578125,62.98828125
-23.4375,-37.109375,-53.7109375,42.96875
-67.3828125,-46.38671875,-51.26953125,-96.6796875
-70.3125,-50.29296875,-46.875,-160.64453125
-36.1328125,-43.9453125,-49.8046875,-85.44921875
10.7421875,-34.66796875,-38.0859375,61.5234375
-5.37109375,-41.015625,-31.25,62.98828125
-63.96484375,-52.734375,-41.015625,-73.2421875
-77.63671875,-57.12890625,-43.45703125,-145.01953125
-59.08203125,-62.98828125,-39.55078125,-89.84375
-23.4375,-52.24609375,-40.52734375,50.29296875
-18.06640625,-42.96875,-37.109375,80.078125
-65.91796875,-62.5,-40.52734375,-48.828125
-101.07421875,-77.63671875,-48.33984375,-152.83203125
-75.68359375,-70.3125,-48.828125,-106.4453125
-27.83203125,-55.17578125,-36.1328125,33.203125
-29.296875,-45.41015625,-25.87890625,67.3828125
-79.58984375,-53.7109375,-33.203125,-52.734375
-110.83984375,-70.3125,-37.59765625,-165.52734375
-97.16796875,-72.75390625,-35.64453125,-140.625
-49.31640625,-62.5,-31.25,1.46484375
-34.66796875,-52.24609375,-24.90234375,66.89453125
-74.21875,-53.7109375,-25.87890625,-41.9921875
-117.1875,-75.1953125,-34.1796875,-170.41015625
-104.00390625,-83.0078125,-35.64453125,-155.76171875
-49.8046875,-72.265625,-33.203125,-15.625
-43.9453125,-66.89453125,-28.80859375,61.5234375
-72.75390625,-59.08203125,-27.83203125,-28.80859375
-94.7265625,-56.15234375,-35.64453125,-155.2734375
-91.796875,-69.82421875,-43.45703125,-158.69140625
-55.6640625,-71.77734375,-34.66796875,-36.1328125
-31.25,-50.29296875,-26.3671875,56.640625
-48.828125,-49.31640625,-29.78515625,-9.27734375
-86.42578125,-60.546875,-38.0859375,-134.27734375
-87.890625,-63.4765625,-40.0390625,-158.203125
-55.17578125,-61.03515625,-39.0625,-51.7578125
-23.92578125,-47.8515625,-39.0625,58.59375
-42.96875,-44.43359375,-41.9921875,10.25390625
-87.890625,-59.08203125,-49.31640625,-126.953125
-85.44921875,-67.87109375,-48.828125,-164.55078125
-50.29296875,-60.05859375,-43.9453125,-62.98828125
-26.85546875,-47.36328125,-49.8046875,52.734375
-42.48046875,-46.875,-57.6171875,14.16015625
-80.56640625,-55.17578125,-48.828125,-116.2109375
-90.33203125,-65.4296875,-42.48046875,-169.921875
-59.08203125,-60.546875,-49.31640625,-86.9140625
-18.5546875,-39.55078125,-49.8046875,46.875
-23.92578125,-34.66796875,-49.31640625,38.57421875
-59.08203125,-44.921875,-56.15234375,-89.84375
-62.98828125,-46.875,-58.59375,-163.0859375
-34.66796875,-38.57421875,-58.10546875,-93.26171875
3.90625,-23.4375,-48.828125,48.33984375
-3.90625,-15.13671875,-44.43359375,55.17578125
-48.33984375,-21.484375,-58.10546875,-83.0078125
-67.3828125,-38.57421875,-69.82421875,-181.640625
-39.0625,-40.0390625,-58.59375,-116.2109375
2.9296875,-27.83203125,-47.36328125,33.69140625
-3.90625,-22.4609375,-44.921875,58.10546875
-35.64453125,-28.80859375,-50.78125,-61.5234375
-56.15234375,-39.0625,-57.6171875,-159.66796875
-39.55078125,-42.96875,-50.78125,-113.76953125
5.859375,-32.2265625,-41.015625,29.78515625
9.765625,-25.87890625,-44.43359375,73.2421875
-39.55078125,-41.015625,-58.59375,-44.43359375
-79.1015625,-55.6640625,-59.5703125,-156.25
-65.4296875,-62.5,-56.15234375,-126.46484375
-16.11328125,-48.828125,-48.33984375,12.6953125
-5.37109375,-31.25,-42.48046875,77.63671875
-47.36328125,-45.8984375,-48.33984375,-21.97265625
-74.21875,-53.7109375,-53.22265625,-142.08984375
-56.15234375,-50.78125,-49.31640625,-127.9296875
-12.20703125,-45.41015625,-41.9921875,8.30078125
2.9296875,-29.296875,-37.59765625,86.42578125
-32.2265625,-30.2734375,-39.0625,0.0
-72.75390625,-48.33984375,-43.9453125,-129.39453125
-77.63671875,-59.08203125,-48.33984375,-143.5546875
-45.8984375,-44.921875,-50.29296875,-26.3671875
-18.06640625,-29.78515625,-44.921875,76.171875
-41.9921875,-29.296875,-42.48046875,5.37109375
-99.12109375,-44.921875,-54.6875,-144.53125
-102.5390625,-59.08203125,-56.640625,-169.921875
-52.24609375,-45.8984375,-48.828125,-56.15234375
-34.66796875,-29.78515625,-47.8515625,42.48046875
-64.94140625,-29.78515625,-48.828125,-8.30078125
-111.81640625,-39.0625,-57.12890625,-155.76171875
-120.1171875,-53.22265625,-60.05859375,-205.078125
-75.68359375,-51.7578125,-41.9921875,-83.49609375
-40.52734375,-36.1328125,-34.66796875,43.45703125
-69.82421875,-23.92578125,-50.78125,-6.34765625
-109.375,-38.57421875,-52.734375,-143.06640625
-95.703125,-50.78125,-47.8515625,-196.2890625
-75.68359375,-45.41015625,-59.08203125,-119.62890625
-45.41015625,-30.76171875,-57.6171875,9.765625
-47.36328125,-24.4140625,-50.78125,2.44140625
-83.49609375,-28.80859375,-56.15234375,-119.62890625
-96.19140625,-37.109375,-58.10546875,-187.98828125
-67.3828125,-36.62109375,-51.7578125,-118.65234375
-20.5078125,-17.578125,-39.0625,29.296875
-26.3671875,-12.20703125,-39.0625,39.55078125
-69.82421875,-23.4375,-49.8046875,-97.65625
-83.0078125,-34.66796875,-51.7578125,-172.36328125
-63.4765625,-37.59765625,-46.875,-105.95703125
-31.25,-32.71484375,-49.31640625,20.01953125
-28.3203125,-30.2734375,-44.43359375,56.15234375
-66.40625,-37.109375,-39.55078125,-49.8046875
-89.84375,-48.828125,-46.875,-158.69140625
-73.73046875,-48.828125,-48.828125,-128.90625
-29.78515625,-31.73828125,-41.015625,17.578125
-10.7421875,-24.90234375,-40.0390625,79.58984375
-44.921875,-36.62109375,-47.36328125,-24.4140625
-81.54296875,-50.78125,-54.19921875,-148.92578125
-63.96484375,-54.19921875,-56.15234375,-126.46484375
-5.37109375,-38.57421875,-52.24609375,25.390625
3.90625,-28.3203125,-50.78125,90.33203125
-35.15625,-45.8984375,-52.734375,-14.6484375
-63.96484375,-59.5703125,-55.6640625,-140.625
-47.36328125,-56.15234375,-57.12890625,-129.39453125
-3.90625,-41.9921875,-50.29296875,3.90625
10.25390625,-31.73828125,-45.41015625,84.9609375
-24.90234375,-40.0390625,-52.734375,-1.46484375
-67.87109375,-53.7109375,-59.08203125,-131.34765625
-62.5,-57.6171875,-58.59375,-138.671875
-22.94921875,-48.33984375,-56.640625,-15.13671875
-8.7890625,-38.0859375,-52.24609375,85.44921875
-33.203125,-36.62109375,-56.15234375,17.578125
-68.84765625,-51.7578125,-63.96484375,-114.74609375
-72.265625,-63.4765625,-62.01171875,-137.20703125
-33.203125,-53.22265625,-56.15234375,-26.3671875
-0.48828125,-40.52734375,-50.78125,84.47265625
-20.01953125,-42.48046875,-46.875,39.0625
-66.40625,-55.6640625,-52.24609375,-97.16796875
-73.2421875,-62.98828125,-53.7109375,-141.6015625
-41.50390625,-54.19921875,-48.33984375,-45.8984375
-11.23046875,-41.015625,-42.48046875,76.66015625
-20.99609375,-37.109375,-45.8984375,41.9921875
-61.5234375,-49.31640625,-54.6875,-98.14453125
-70.80078125,-58.10546875,-53.22265625,-153.3203125
-35.15625,-56.15234375,-53.22265625,-76.66015625
8.30078125,-43.45703125,-50.78125,53.7109375
-5.859375,-35.15625,-48.828125,49.8046875
-57.6171875,-49.31640625,-53.22265625,-85.44921875
-71.2890625,-58.59375,-54.6875,-159.66796875
-40.0390625,-48.828125,-49.31640625,-87.890625
-5.859375,-37.109375,-43.9453125,41.50390625
-21.97265625,-38.0859375,-50.78125,42.96875
-65.91796875,-48.828125,-42.48046875,-69.3359375
-111.328125,-66.40625,-36.62109375,-163.0859375
-102.05078125,-65.91796875,-41.9921875,-120.60546875
-50.29296875,-41.50390625,-37.109375,22.4609375
-42.48046875,-37.109375,-35.15625,50.29296875
-87.890625,-47.36328125,-39.55078125,-72.265625
-127.44140625,-59.08203125,-41.015625,-185.05859375
-106.93359375,-72.265625,-41.50390625,-147.94921875
-68.359375,-60.546875,-34.66796875,-4.39453125
-58.10546875,-46.875,-25.87890625,47.36328125
-84.47265625,-56.640625,-29.78515625,-56.640625
-108.88671875,-67.87109375,-34.66796875,-168.45703125
-89.84375,-61.03515625,-35.64453125,-150.390625
-44.921875,-52.24609375,-31.73828125,-15.625
-30.2734375,-43.9453125,-21.97265625,57.6171875
-69.3359375,-43.45703125,-25.87890625,-36.1328125
-102.05078125,-64.453125,-36.1328125,-163.57421875
-80.078125,-75.68359375,-38.0859375,-159.66796875
-33.69140625,-62.98828125,-30.2734375,-21.97265625
-26.85546875,-47.36328125,-26.3671875,62.98828125
-55.17578125,-55.17578125,-33.203125,-19.04296875
-86.9140625,-64.94140625,-38.57421875,-145.01953125
-77.1484375,-61.5234375,-41.50390625,-151.85546875
-41.50390625,-55.17578125,-42.96875,-42.96875
-19.04296875,-42.48046875,-41.50390625,53.22265625
-39.0625,-43.9453125,-35.15625,5.859375
-89.35546875,-62.98828125,-39.0625,-125.0
-87.890625,-70.80078125,-47.36328125,-155.2734375
-40.0390625,-56.640625,-40.0390625,-39.55078125
-8.30078125,-43.45703125,-37.59765625,72.75390625
-37.59765625,-56.640625,-41.50390625,23.92578125
-78.61328125,-74.70703125,-40.0390625,-105.95703125
-77.1484375,-78.61328125,-44.921875,-153.80859375
-47.8515625,-68.84765625,-46.875,-75.68359375
-11.71875,-49.31640625,-40.0390625,54.6875
-16.11328125,-34.66796875,-37.59765625,45.41015625
-57.6171875,-43.9453125,-49.8046875,-97.65625
-72.265625,-57.6171875,-60.05859375,-164.55078125
-36.1328125,-50.78125,-51.26953125,-76.171875
4.39453125,-29.78515625,-36.62109375,68.84765625
-14.6484375,-33.69140625,-41.015625,56.15234375
-64.453125,-55.17578125,-56.640625,-84.47265625
-77.1484375,-62.01171875,-59.08203125,-158.69140625
-52.734375,-62.98828125,-53.7109375,-97.16796875
-11.23046875,-48.828125,-44.43359375,46.875
-9.765625,-43.9453125,-39.55078125,64.94140625
-56.15234375,-60.05859375,-46.875,-66.40625
-73.2421875,-60.546875,-45.8984375,-156.25
-50.78125,-54.19921875,-42.96875,-107.91015625
-14.6484375,-48.33984375,-43.45703125,33.203125
-11.71875,-44.43359375,-42.48046875,73.73046875
-47.36328125,-45.41015625,-45.41015625,-34.66796875
-79.1015625,-56.640625,-50.78125,-144.04296875
-67.3828125,-64.94140625,-50.29296875,-110.83984375
-22.94921875,-53.22265625,-45.41015625,26.85546875
-18.5546875,-43.45703125,-43.45703125,75.1953125
-49.8046875,-47.36328125,-48.33984375,-25.87890625
-78.61328125,-48.33984375,-51.7578125,-148.4375
-74.70703125,-54.19921875,-48.33984375,-142.08984375
-30.2734375,-55.17578125,-40.0390625,-1.46484375
-1.953125,-34.66796875,-28.80859375,86.42578125
-41.015625,-31.73828125,-36.1328125,-16.6015625
-95.21484375,-47.8515625,-43.9453125,-155.2734375
-82.03125,-46.875,-42.48046875,-149.90234375
-30.2734375,-42.96875,-37.59765625,-15.625
-11.71875,-36.62109375,-35.15625,75.68359375
-50.29296875,-31.25,-46.38671875,-8.7890625
-94.7265625,-46.38671875,-55.6640625,-153.3203125
-83.49609375,-53.22265625,-65.91796875,-175.29296875
-41.015625,-43.45703125,-54.19921875,-43.9453125
-28.3203125,-31.73828125,-36.62109375,66.40625
-54.6875,-30.76171875,-42.96875,4.39453125
-81.54296875,-35.64453125,-47.36328125,-123.53515625
-83.49609375,-41.015625,-51.26953125,-166.015625
-53.22265625,-46.875,-44.921875,-72.265625
-20.01953125,-31.25,-34.66796875,54.19921875
-40.0390625,-32.71484375,-45.41015625,22.4609375
-86.42578125,-53.22265625,-47.36328125,-123.046875
-99.609375,-56.15234375,-36.62109375,-190.91796875
-78.125,-52.24609375,-36.1328125,-107.91015625
-33.69140625,-41.9921875,-32.2265625,36.1328125
-35.64453125,-36.1328125,-31.73828125,26.85546875
-88.8671875,-46.38671875,-41.50390625,-110.3515625
-111.328125,-54.6875,-49.8046875,-186.03515625
-71.77734375,-45.41015625,-42.48046875,-98.6328125
-25.87890625,-31.25,-29.296875,42.96875
-41.015625,-28.3203125,-28.80859375,35.64453125
-83.49609375,-35.15625,-38.0859375,-88.8671875
-116.2109375,-53.22265625,-48.828125,-182.12890625
-90.8203125,-55.17578125,-44.921875,-124.0234375
-32.2265625,-36.62109375,-40.52734375,28.3203125
-36.1328125,-27.83203125,-37.109375,53.22265625
-80.56640625,-39.55078125,-35.15625,-71.2890625
-102.05078125,-55.6640625,-38.57421875,-169.921875
-79.1015625,-52.24609375,-41.50390625,-125.0
-28.80859375,-42.96875,-39.0625,23.92578125
-24.4140625,-39.0625,-34.1796875,69.3359375
-58.59375,-45.8984375,-36.1328125,-43.45703125
-83.49609375,-60.05859375,-39.0625,-153.80859375
-66.89453125,-59.08203125,-44.43359375,-127.44140625
-29.78515625,-50.29296875,-34.66796875,8.30078125
-18.06640625,-42.48046875,-28.80859375,69.82421875
-53.22265625,-41.9921875,-34.1796875,-28.80859375
-88.37890625,-51.7578125,-37.109375,-150.390625
-76.66015625,-61.03515625,-37.109375,-136.71875
-41.015625,-54.6875,-37.109375,-8.30078125
-24.90234375,-40.52734375,-36.62109375,65.91796875
-57.12890625,-41.9921875,-37.59765625,-21.97265625
-100.09765625,-58.10546875,-50.78125,-153.3203125
-83.984375,-65.4296875,-53.7109375,-150.87890625
-38.0859375,-54.6875,-45.41015625,-22.4609375
-12.6953125,-36.62109375,-43.9453125,67.3828125
-37.59765625,-41.50390625,-48.828125,-5.37109375
-82.51953125,-61.5234375,-50.78125,-142.578125
-74.21875,-67.3828125,-52.734375,-163.57421875
-29.296875,-54.19921875,-54.6875,-42.96875
-1.953125,-35.64453125,-42.48046875,70.3125
-31.25,-34.66796875,-40.0390625,15.13671875
-77.1484375,-54.19921875,-51.7578125,-122.55859375
-76.171875,-71.2890625,-48.828125,-155.76171875
-37.59765625,-63.4765625,-41.50390625,-50.78125
-12.20703125,-42.96875,-39.0625,64.94140625
-29.296875,-37.109375,-33.69140625,25.390625
-67.3828125,-43.45703125,-37.109375,-104.98046875
-77.1484375,-52.734375,-41.50390625,-155.2734375
-61.03515625,-59.08203125,-43.45703125,-74.21875
-34.66796875,-49.8046875,-42.96875,52.734375
-39.0625,-44.43359375,-39.0625,41.015625
-76.66015625,-52.734375,-37.59765625,-88.8671875
-84.9609375,-62.5,-40.0390625,-156.73828125
-58.10546875,-60.546875,-43.45703125,-84.9609375
-10.7421875,-41.9921875,-36.1328125,61.03515625
-0.48828125,-28.80859375,-36.1328125,74.21875
-49.31640625,-42.96875,-50.78125,-61.5234375
-76.66015625,-56.15234375,-55.17578125,-158.203125
-36.1328125,-40.52734375,-53.7109375,-97.65625
9.27734375,-37.59765625,-52.734375,46.875
-3.41796875,-48.828125,-38.0859375,74.70703125
-48.33984375,-54.19921875,-37.59765625,-47.36328125
-67.87109375,-55.6640625,-49.31640625,-147.4609375
-51.7578125,-48.828125,-45.41015625,-112.3046875
-9.27734375,-32.71484375,-29.78515625,16.6015625
-1.953125,-26.3671875,-22.94921875,62.5
-44.43359375,-39.55078125,-36.62109375,-45.8984375
-85.9375,-53.22265625,-53.22265625,-162.109375
-81.0546875,-61.03515625,-58.59375,-150.390625
-38.57421875,-44.43359375,-44.921875,-8.7890625
-26.85546875,-29.78515625,-29.296875,69.3359375
-65.4296875,-33.69140625,-34.1796875,-22.4609375
-104.00390625,-54.19921875,-48.33984375,-151.3671875
-91.30859375,-67.87109375,-55.6640625,-149.90234375
-45.41015625,-46.38671875,-50.29296875,-15.13671875
-18.5546875,-33.203125,-42.96875,67.3828125
-44.921875,-40.0390625,-48.828125,-15.13671875
-86.42578125,-52.24609375,-59.08203125,-144.04296875
-68.84765625,-53.7109375,-58.10546875,-152.83203125
-16.6015625,-46.38671875,-48.33984375,-23.4375
6.34765625,-31.73828125,-46.875,77.63671875
-23.92578125,-30.76171875,-54.19921875,6.34765625
-65.4296875,-44.921875,-48.828125,-123.53515625
-67.3828125,-56.640625,-47.8515625,-146.97265625
-34.1796875,-51.7578125,-46.875,-38.57421875
-2.9296875,-27.34375,-39.55078125,71.77734375
-31.25,-27.83203125,-37.109375,18.5546875
-83.49609375,-50.78125,-41.9921875,-111.81640625
-83.0078125,-58.59375,-47.36328125,-151.3671875
-47.36328125,-48.828125,-44.43359375,-60.05859375
-21.484375,-35.64453125,-40.0390625,59.5703125
-39.55078125,-34.1796875,-43.45703125,28.3203125
-82.51953125,-46.38671875,-51.26953125,-109.375
-89.35546875,-56.640625,-53.7109375,-170.41015625
-52.24609375,-48.33984375,-55.6640625,-83.49609375
-16.11328125,-40.0390625,-47.8515625,51.7578125
-38.0859375,-41.015625,-44.43359375,32.71484375
-79.1015625,-46.875,-51.26953125,-102.05078125
-81.0546875,-51.26953125,-49.8046875,-166.015625
-40.52734375,-44.43359375,-48.33984375,-83.49609375
3.90625,-31.25,-41.50390625,62.5
-5.859375,-31.73828125,-31.73828125,70.3125
-52.734375,-43.45703125,-38.0859375,-63.4765625
-77.1484375,-53.7109375,-49.31640625,-153.3203125
-48.33984375,-54.6875,-50.29296875,-95.703125
-7.8125,-38.0859375,-39.0625,50.29296875
-15.625,-20.5078125,-41.015625,70.3125
-67.3828125,-37.59765625,-53.22265625,-64.453125
-95.21484375,-57.6171875,-49.8046875,-165.52734375
-64.453125,-56.640625,-49.8046875,-125.48828125
-19.53125,-43.9453125,-50.78125,16.6015625
-22.94921875,-30.76171875,-48.33984375,65.91796875
-71.77734375,-38.0859375,-51.26953125,-46.875
-101.5625,-50.78125,-54.19921875,-161.1328125
-76.66015625,-54.19921875,-57.12890625,-139.6484375
-20.99609375,-35.15625,-46.875,-0.48828125
-8.30078125,-25.390625,-34.66796875,71.77734375
-42.96875,-38.0859375,-38.0859375,-18.06640625
-79.58984375,-43.45703125,-50.78125,-146.97265625
-75.68359375,-48.33984375,-61.03515625,-156.73828125
-22.94921875,-42.96875,-57.12890625,-20.01953125
5.37109375,-29.296875,-41.9921875,82.51953125
-27.83203125,-27.83203125,-43.9453125,-0.48828125
-72.265625,-38.57421875,-59.08203125,-139.6484375
-66.89453125,-47.8515625,-58.59375,-144.04296875
-19.53125,-43.45703125,-47.36328125,-14.6484375
1.46484375,-35.64453125,-45.41015625,85.44921875
-37.59765625,-41.9921875,-52.24609375,21.97265625
-79.58984375,-51.7578125,-48.828125,-110.83984375
-68.84765625,-52.24609375,-45.8984375,-133.7890625
-32.71484375,-42.96875,-46.875,-27.34375
-10.7421875,-32.2265625,-36.1328125,76.171875
-36.62109375,-34.1796875,-34.1796875,19.53125
-80.56640625,-49.8046875,-41.9921875,-115.72265625
-83.0078125,-65.4296875,-55.6640625,-161.1328125
-44.43359375,-58.59375,-62.98828125,-66.89453125
-11.23046875,-36.62109375,-54.19921875,58.10546875
-30.2734375,-32.2265625,-50.29296875,24.4140625
-67.3828125,-39.0625,-52.24609375,-105.46875
-64.453125,-45.41015625,-46.38671875,-153.80859375
-34.66796875,-44.43359375,-41.9921875,-75.68359375
-8.7890625,-32.71484375,-42.96875,44.43359375
-21.484375,-19.04296875,-44.921875,36.1328125
-60.05859375,-28.80859375,-49.31640625,-89.84375
-81.54296875,-51.7578125,-55.6640625,-166.015625
-58.10546875,-58.59375,-53.22265625,-104.4921875
-16.6015625,-54.19921875,-53.7109375,32.71484375
-18.06640625,-39.0625,-51.26953125,54.6875
-59.08203125,-43.45703125,-50.78125,-68.84765625
-84.47265625,-53.7109375,-54.19921875,-157.71484375
-64.453125,-47.36328125,-54.19921875,-109.86328125
-25.390625,-40.0390625,-45.8984375,22.94921875
-16.6015625,-33.203125,-49.8046875,52.734375
-54.6875,-34.1796875,-64.453125,-69.3359375
-91.796875,-42.48046875,-60.546875,-174.31640625
-79.58984375,-42.48046875,-57.12890625,-134.765625
-28.3203125,-35.64453125,-51.7578125,10.7421875
-20.99609375,-27.34375,-47.8515625,63.4765625
-69.82421875,-35.64453125,-48.828125,-49.8046875
-100.5859375,-50.78125,-54.6875,-166.015625
-76.66015625,-52.734375,-48.828125,-140.625
-29.296875,-46.875,-43.45703125,-5.37109375
-16.11328125,-33.69140625,-46.875,60.546875
-44.921875,-35.15625,-49.31640625,-34.1796875
-86.42578125,-54.6875,-49.8046875,-156.25
-82.51953125,-59.5703125,-49.31640625,-150.87890625
-36.1328125,-45.41015625,-47.36328125,-16.6015625
-19.04296875,-38.57421875,-46.875,73.73046875
-52.734375,-48.828125,-48.828125,-4.39453125
-88.8671875,-59.08203125,-51.26953125,-129.39453125
-88.37890625,-58.59375,-47.8515625,-142.578125
-45.8984375,-52.734375,-41.015625,-26.3671875
-16.6015625,-40.52734375,-38.0859375,75.1953125
-40.52734375,-35.15625,-39.55078125,13.671875
-89.35546875,-52.24609375,-46.875,-130.37109375
-102.05078125,-60.05859375,-51.7578125,-174.31640625
-64.453125,-47.36328125,-53.7109375,-70.3125
-31.25,-39.0625,-49.31640625,47.8515625
-54.6875,-33.69140625,-44.43359375,12.20703125
-104.00390625,-45.8984375,-48.828125,-126.46484375
-111.328125,-67.87109375,-49.31640625,-172.36328125
-77.1484375,-65.91796875,-48.828125,-78.61328125
-35.64453125,-46.38671875,-50.29296875,42.96875
-41.50390625,-35.15625,-54.19921875,19.04296875
-78.125,-46.38671875,-55.17578125,-109.86328125
-91.30859375,-57.12890625,-47.8515625,-166.9921875
-69.3359375,-52.24609375,-41.9921875,-90.8203125
-30.76171875,-37.59765625,-43.45703125,40.0390625
-34.66796875,-36.62109375,-50.78125,33.69140625
-72.265625,-45.41015625,-51.26953125,-93.75
-90.8203125,-46.875,-46.38671875,-164.0625
-72.75390625,-50.78125,-43.45703125,-96.6796875
-33.203125,-45.41015625,-42.96875,40.0390625
-35.15625,-43.9453125,-40.0390625,53.22265625
-74.21875,-53.7109375,-41.50390625,-66.40625
-90.33203125,-61.5234375,-51.26953125,-157.71484375
-73.73046875,-57.6171875,-49.8046875,-113.76953125
-31.73828125,-45.41015625,-42.96875,23.92578125
-23.92578125,-37.109375,-42.96875,57.6171875
-63.96484375,-42.96875,-50.29296875,-54.6875
-87.40234375,-59.08203125,-53.22265625,-152.83203125
-64.94140625,-63.96484375,-50.78125,-119.140625
-21.484375,-45.8984375,-44.43359375,14.6484375
-8.30078125,-33.203125,-39.0625,61.03515625
-30.76171875,-42.96875,-45.41015625,-39.55078125
-54.6875,-55.6640625,-41.50390625,-136.23046875
-50.78125,-63.96484375,-38.0859375,-125.48828125
-13.18359375,-59.08203125,-41.015625,0.9765625
6.34765625,-42.96875,-35.15625,78.61328125
-33.203125,-43.45703125,-40.52734375,-16.6015625
-80.078125,-56.15234375,-50.29296875,-143.5546875
-74.21875,-54.6875,-48.828125,-143.5546875
-30.76171875,-45.8984375,-41.015625,-11.71875
-6.8359375,-32.2265625,-39.0625,83.0078125
-34.66796875,-25.390625,-42.96875,8.7890625
-82.03125,-42.48046875,-50.78125,-134.765625
-77.63671875,-51.7578125,-52.734375,-159.1796875
-36.1328125,-43.45703125,-43.9453125,-35.64453125
-22.4609375,-31.25,-37.59765625,67.3828125
-53.7109375,-28.3203125,-40.52734375,10.25390625
-98.14453125,-42.48046875,-45.41015625,-129.39453125
-92.7734375,-49.31640625,-41.9921875,-163.0859375
-49.31640625,-46.38671875,-41.50390625,-52.734375
-19.04296875,-42.96875,-47.8515625,60.05859375
-36.62109375,-41.015625,-50.29296875,16.6015625
-71.2890625,-44.921875,-50.29296875,-118.65234375
-62.01171875,-45.41015625,-44.43359375,-156.73828125
-27.83203125,-40.52734375,-45.41015625,-60.546875
1.46484375,-35.64453125,-46.875,61.03515625
-17.08984375,-37.59765625,-43.9453125,38.57421875
-66.40625,-52.24609375,-46.38671875,-94.7265625
-67.87109375,-60.05859375,-40.0390625,-154.296875
-42.48046875,-52.24609375,-39.55078125,-81.0546875
-17.578125,-40.0390625,-39.0625,43.9453125
-21.97265625,-35.15625,-32.71484375,46.38671875
-65.4296875,-43.45703125,-40.52734375,-76.66015625
-93.75,-63.96484375,-45.8984375,-155.2734375
-73.73046875,-65.4296875,-40.0390625,-95.703125
-31.25,-40.0390625,-30.76171875,40.52734375
-29.78515625,-30.2734375,-34.1796875,55.6640625
-63.4765625,-37.59765625,-42.48046875,-65.91796875
-90.8203125,-51.26953125,-41.50390625,-157.2265625
-76.171875,-66.40625,-35.64453125,-108.3984375
-20.99609375,-50.78125,-29.296875,32.71484375
-8.30078125,-29.296875,-30.76171875,66.89453125
-58.10546875,-37.59765625,-41.9921875,-56.640625
-89.35546875,-52.24609375,-51.26953125,-171.38671875
-62.98828125,-50.29296875,-52.734375,-130.859375
-12.6953125,-30.2734375,-44.43359375,12.6953125
-1.953125,-20.01953125,-35.64453125,66.40625
-40.52734375,-29.78515625,-39.0625,-35.15625
