TP9,AF7,AF8,TP10
-34.66796875,-30.76171875,-44.921875,52.24609375
-62.5,-41.015625,-55.6640625,-100.09765625
-78.61328125,-55.17578125,-55.17578125,-185.546875
-53.22265625,-55.17578125,-53.22265625,-104.98046875
-16.11328125,-39.55078125,-54.6875,56.640625
-21.97265625,-26.85546875,-44.43359375,64.453125
-63.4765625,-38.0859375,-41.9921875,-87.890625
-80.078125,-51.26953125,-43.45703125,-180.6640625
-65.4296875,-50.78125,-44.921875,-114.74609375
-36.62109375,-41.015625,-47.8515625,46.875
-29.296875,-33.69140625,-47.8515625,73.2421875
-54.6875,-41.9921875,-45.8984375,-63.96484375
-78.125,-56.640625,-41.015625,-175.29296875
-74.70703125,-64.94140625,-46.38671875,-139.16015625
-48.33984375,-48.33984375,-44.43359375,27.34375
-45.8984375,-42.48046875,-41.015625,73.73046875
-65.91796875,-55.6640625,-43.45703125,-51.26953125
-81.54296875,-59.5703125,-41.50390625,-170.41015625
-67.3828125,-58.10546875,-39.55078125,-150.87890625
-38.0859375,-54.6875,-36.62109375,7.32421875
-31.25,-45.41015625,-39.0625,83.49609375
-52.24609375,-42.48046875,-47.8515625,-25.390625
-76.171875,-53.22265625,-48.33984375,-161.62109375
-59.5703125,-54.19921875,-44.43359375,-150.390625
-26.85546875,-42.96875,-38.0859375,2.9296875
-20.99609375,-28.80859375,-31.73828125,96.6796875
-39.55078125,-30.76171875,-32.71484375,12.20703125
-59.5703125,-49.31640625,-35.64453125,-134.765625
-53.22265625,-59.5703125,-41.50390625,-156.25
-25.87890625,-48.828125,-35.15625,-15.625
-10.25390625,-32.2265625,-36.1328125,94.7265625
-34.1796875,-36.62109375,-47.36328125,20.5078125
-69.82421875,-45.8984375,-39.55078125,-131.8359375
-68.84765625,-47.8515625,-35.64453125,-170.8984375
-45.8984375,-46.38671875,-38.0859375,-44.921875
-30.76171875,-37.109375,-33.203125,79.1015625
-43.9453125,-34.1796875,-37.59765625,24.90234375
-80.56640625,-54.19921875,-40.52734375,-127.44140625
-78.61328125,-59.5703125,-28.80859375,-172.36328125
-48.33984375,-52.24609375,-27.34375,-58.59375
-31.73828125,-46.875,-31.73828125,77.63671875
-43.9453125,-35.64453125,-35.15625,45.8984375
-72.75390625,-43.45703125,-41.50390625,-105.95703125
-74.70703125,-54.6875,-46.38671875,-175.78125
-43.45703125,-48.828125,-44.43359375,-83.49609375
-15.13671875,-36.1328125,-46.875,64.94140625
-22.4609375,-31.73828125,-59.08203125,58.59375
-52.24609375,-45.41015625,-58.59375,-87.40234375
-64.453125,-59.5703125,-56.15234375,-173.828125
-63.96484375,-60.05859375,-57.6171875,-98.14453125
-36.1328125,-49.8046875,-57.6171875,53.7109375
-33.203125,-47.36328125,-59.5703125,59.5703125
-71.2890625,-49.31640625,-58.10546875,-80.56640625
-92.28515625,-53.7109375,-56.15234375,-179.6875
-81.0546875,-55.17578125,-58.59375,-122.0703125
-52.734375,-53.7109375,-57.6171875,36.1328125
-48.33984375,-55.6640625,-56.15234375,64.94140625
-61.03515625,-52.24609375,-56.640625,-68.359375
-70.80078125,-50.78125,-56.15234375,-180.6640625
-63.96484375,-47.36328125,-55.17578125,-142.08984375
-30.76171875,-36.1328125,-55.17578125,22.94921875
-24.4140625,-34.66796875,-52.24609375,79.58984375
-52.24609375,-41.015625,-56.640625,-41.9921875
-67.87109375,-57.12890625,-60.546875,-166.9921875
-61.03515625,-63.96484375,-55.17578125,-145.01953125
-37.59765625,-45.8984375,-53.22265625,15.13671875
-30.76171875,-38.0859375,-54.19921875,84.47265625
-50.29296875,-48.33984375,-44.921875,-21.484375
-73.2421875,-57.12890625,-43.45703125,-156.73828125
-56.15234375,-63.96484375,-46.875,-153.80859375
-22.4609375,-57.6171875,-49.31640625,0.9765625
-16.6015625,-41.50390625,-52.734375,84.9609375
-38.0859375,-36.62109375,-53.7109375,-15.13671875
-68.84765625,-42.96875,-60.05859375,-165.0390625
-66.40625,-42.48046875,-59.5703125,-176.26953125
-36.1328125,-31.25,-48.33984375,-31.25
-21.97265625,-20.01953125,-47.36328125,82.51953125
-44.921875,-16.6015625,-55.17578125,3.90625
-72.75390625,-32.2265625,-51.26953125,-152.83203125
-74.21875,-42.48046875,-49.8046875,-186.03515625
-53.7109375,-40.52734375,-49.8046875,-62.5
-31.73828125,-37.59765625,-50.29296875,69.82421875
-44.921875,-33.203125,-54.19921875,22.4609375
-76.171875,-39.0625,-48.33984375,-136.23046875
-73.2421875,-54.19921875,-52.734375,-192.87109375
-41.50390625,-48.33984375,-56.15234375,-81.0546875
-20.01953125,-27.34375,-53.22265625,64.94140625
-34.1796875,-31.25,-51.7578125,42.96875
-62.5,-46.875,-47.36328125,-104.4921875
-65.4296875,-51.26953125,-40.0390625,-175.78125
-55.6640625,-54.19921875,-42.48046875,-89.84375
-38.0859375,-54.6875,-49.8046875,56.15234375
-34.1796875,-44.921875,-48.33984375,50.29296875
-62.01171875,-43.9453125,-46.875,-95.703125
-75.68359375,-54.6875,-49.31640625,-188.96484375
-61.5234375,-57.6171875,-47.36328125,-118.1640625
-38.0859375,-41.50390625,-39.55078125,48.828125
-35.15625,-32.2265625,-32.71484375,71.2890625
-54.19921875,-39.0625,-42.48046875,-75.68359375
-66.89453125,-44.921875,-50.78125,-181.640625
-59.5703125,-43.9453125,-52.24609375,-126.953125
-31.25,-32.71484375,-53.7109375,36.62109375
-30.76171875,-29.296875,-51.7578125,70.80078125
-58.10546875,-47.8515625,-55.6640625,-63.96484375
-79.1015625,-64.453125,-56.15234375,-179.19921875
-65.91796875,-56.640625,-48.828125,-143.5546875
-21.97265625,-45.41015625,-45.41015625,16.6015625
-17.08984375,-43.9453125,-49.31640625,78.125
-50.29296875,-45.41015625,-55.6640625,-38.0859375
-79.58984375,-52.24609375,-55.17578125,-169.921875
-68.359375,-55.17578125,-55.6640625,-155.2734375
-35.64453125,-46.38671875,-54.19921875,2.44140625
-26.85546875,-43.45703125,-56.15234375,79.58984375
-44.43359375,-42.96875,-59.5703125,-17.578125
-68.84765625,-49.31640625,-57.12890625,-151.85546875
-62.01171875,-59.08203125,-55.17578125,-157.2265625
-23.92578125,-51.7578125,-51.26953125,-7.8125
-5.37109375,-40.0390625,-46.875,98.6328125
-29.296875,-45.8984375,-51.26953125,8.7890625
-72.75390625,-59.5703125,-54.19921875,-143.06640625
-72.265625,-60.546875,-52.24609375,-160.64453125
-45.41015625,-53.22265625,-51.26953125,-31.73828125
-29.78515625,-42.48046875,-45.8984375,83.49609375
-41.50390625,-36.1328125,-46.38671875,19.53125
-79.58984375,-54.6875,-51.26953125,-137.20703125
-72.75390625,-57.12890625,-53.22265625,-175.78125
-42.96875,-41.9921875,-56.15234375,-53.7109375
-35.15625,-39.55078125,-52.734375,72.75390625
-48.33984375,-41.50390625,-51.26953125,30.76171875
-76.171875,-51.26953125,-56.640625,-125.0
-83.49609375,-65.4296875,-57.6171875,-193.359375
-65.91796875,-63.96484375,-55.17578125,-91.796875
-46.38671875,-48.33984375,-54.19921875,55.6640625
-47.8515625,-45.41015625,-49.31640625,36.1328125
-72.265625,-58.59375,-52.24609375,-111.328125
-88.8671875,-67.87109375,-52.24609375,-188.96484375
-75.1953125,-62.01171875,-50.29296875,-101.5625
-37.59765625,-50.78125,-50.29296875,60.546875
-46.875,-51.26953125,-52.734375,48.33984375
-82.03125,-64.94140625,-59.08203125,-100.09765625
-80.078125,-72.75390625,-58.59375,-188.4765625
-72.265625,-65.91796875,-53.22265625,-126.953125
-49.31640625,-50.29296875,-47.8515625,43.45703125
-40.0390625,-47.36328125,-49.31640625,67.87109375
-69.82421875,-57.12890625,-55.17578125,-78.61328125
-87.890625,-65.91796875,-57.6171875,-188.96484375
-70.3125,-73.2421875,-58.59375,-140.625
-37.59765625,-68.84765625,-57.12890625,20.01953125
-29.78515625,-56.15234375,-59.5703125,70.80078125
-76.66015625,-56.15234375,-68.359375,-66.40625
-109.375,-66.89453125,-72.75390625,-203.125
-90.8203125,-68.359375,-71.2890625,-178.7109375
-55.17578125,-50.78125,-69.82421875,-18.5546875
-51.26953125,-40.0390625,-69.3359375,45.41015625
-90.8203125,-43.9453125,-75.1953125,-76.171875
-118.65234375,-46.875,-78.61328125,-214.84375
-101.07421875,-51.26953125,-85.9375,-214.84375
-74.70703125,-46.875,-83.49609375,-77.63671875
-91.30859375,-29.78515625,-69.82421875,-7.8125
-124.51171875,-26.3671875,-71.77734375,-104.98046875
-150.390625,-37.109375,-70.80078125,-240.234375
-138.671875,-36.62109375,-81.54296875,-259.27734375
-100.5859375,-34.1796875,-86.42578125,-128.41796875
-87.890625,-33.69140625,-72.265625,-37.109375
-100.09765625,-24.90234375,-65.91796875,-117.67578125
-120.1171875,-26.85546875,-63.96484375,-248.53515625
-134.27734375,-43.45703125,-60.05859375,-263.18359375
-102.05078125,-37.59765625,-64.94140625,-147.94921875
-52.24609375,-3.41796875,-70.80078125,-32.71484375
-89.35546875,2.44140625,-62.98828125,-67.87109375
-139.16015625,-24.4140625,-80.56640625,-209.47265625
-118.65234375,-42.48046875,-88.8671875,-253.90625
-76.66015625,-27.34375,-45.8984375,-125.9765625
-61.03515625,-8.30078125,-39.55078125,19.53125
-54.6875,-11.23046875,-57.6171875,-22.4609375
-91.796875,-2.9296875,-52.24609375,-149.90234375
-97.16796875,4.8828125,-66.40625,-211.42578125
-54.6875,-11.23046875,-65.4296875,-125.0
-22.4609375,-7.32421875,-46.38671875,36.1328125
-47.8515625,1.953125,-46.875,11.71875
-81.54296875,-8.30078125,-58.59375,-119.62890625
-70.3125,-16.6015625,-65.91796875,-176.7578125
-38.57421875,-16.11328125,-70.3125,-121.09375
3.90625,-14.16015625,-54.6875,19.04296875
-6.8359375,-18.5546875,-43.9453125,48.828125
-24.90234375,-27.83203125,-49.31640625,-60.546875
-36.62109375,-46.38671875,-58.59375,-143.06640625
-29.296875,-42.96875,-64.453125,-103.02734375
-3.90625,-22.4609375,-62.98828125,20.99609375
9.765625,-14.16015625,-68.359375,54.19921875
-13.671875,-24.90234375,-66.89453125,-27.83203125
-51.26953125,-37.59765625,-48.828125,-114.74609375
-35.64453125,-34.66796875,-52.24609375,-105.46875
11.71875,-18.06640625,-60.05859375,6.34765625
12.20703125,-13.18359375,-56.15234375,71.2890625
-15.625,-20.99609375,-65.91796875,-4.39453125
-39.0625,-30.2734375,-71.77734375,-121.09375
-11.71875,-25.87890625,-74.21875,-111.81640625
31.73828125,-16.6015625,-65.91796875,10.25390625
51.26953125,-20.5078125,-63.96484375,72.75390625
3.41796875,-22.94921875,-76.171875,-1.46484375
-63.96484375,-33.69140625,-81.0546875,-123.046875
-19.04296875,-29.78515625,-83.984375,-114.2578125
33.203125,-29.78515625,-80.078125,-16.6015625
2.9296875,-47.8515625,-82.03125,54.6875
-41.50390625,-36.62109375,-70.80078125,12.6953125
-39.55078125,-20.5078125,-43.45703125,-104.4921875
-43.9453125,-27.83203125,-52.734375,-137.6953125
-12.6953125,-28.3203125,-54.19921875,-43.9453125
0.0,-36.1328125,-44.43359375,59.5703125
-37.109375,-33.69140625,-49.8046875,26.3671875
-50.29296875,-25.390625,-40.0390625,-82.03125
-44.43359375,-51.7578125,-69.82421875,-123.046875
2.9296875,-41.015625,-83.984375,-51.7578125
4.8828125,-8.30078125,-34.1796875,38.0859375
-56.15234375,-20.5078125,-25.390625,13.18359375
-66.89453125,-36.62109375,-36.1328125,-86.42578125
-51.26953125,-40.0390625,-43.9453125,-131.8359375
-30.2734375,-45.41015625,-53.7109375,-70.3125
-41.50390625,-62.98828125,-62.98828125,16.6015625
-56.640625,-57.6171875,-56.640625,16.6015625
-71.2890625,-48.33984375,-38.57421875,-63.96484375
-70.3125,-55.17578125,-41.015625,-145.01953125
-41.9921875,-58.59375,-55.6640625,-105.95703125
-21.97265625,-55.17578125,-55.17578125,5.859375
-46.38671875,-56.640625,-41.015625,24.4140625
-98.6328125,-60.546875,-40.52734375,-65.4296875
-93.26171875,-69.3359375,-63.96484375,-147.4609375
-47.8515625,-60.05859375,-65.4296875,-111.328125
-21.484375,-45.8984375,-36.1328125,7.8125
-48.828125,-53.7109375,-32.2265625,34.1796875
-99.12109375,-56.640625,-41.015625,-58.59375
-104.00390625,-59.08203125,-49.31640625,-139.16015625
-68.84765625,-60.05859375,-56.15234375,-127.9296875
-45.41015625,-64.453125,-54.19921875,-27.34375
-63.4765625,-68.359375,-60.05859375,24.4140625
-57.6171875,-62.01171875,-57.12890625,-52.24609375
-86.9140625,-67.87109375,-49.31640625,-145.01953125
-107.421875,-77.1484375,-56.15234375,-147.4609375
-50.29296875,-64.453125,-58.59375,-57.6171875
-41.015625,-49.8046875,-52.734375,1.953125
-93.75,-54.19921875,-47.8515625,-42.96875
-124.51171875,-68.84765625,-46.38671875,-139.6484375
-89.35546875,-69.3359375,-53.7109375,-160.15625
-48.828125,-62.5,-53.22265625,-56.640625
-50.78125,-48.828125,-47.8515625,21.484375
-87.40234375,-59.5703125,-56.640625,-31.73828125
-90.8203125,-85.9375,-48.828125,-111.81640625
-50.78125,-83.49609375,-42.96875,-133.7890625
-16.6015625,-61.5234375,-41.9921875,-69.82421875
-24.90234375,-41.50390625,-28.3203125,14.6484375
-75.1953125,-46.875,-32.2265625,-13.671875
-84.9609375,-55.17578125,-41.9921875,-109.375
-89.84375,-57.6171875,-45.41015625,-154.78515625
-41.50390625,-50.78125,-54.19921875,-95.21484375
-2.9296875,-48.828125,-60.546875,-2.44140625
-57.6171875,-72.75390625,-46.875,-13.671875
-106.4453125,-76.171875,-25.87890625,-100.5859375
-93.26171875,-67.3828125,-30.2734375,-156.25
-46.875,-66.89453125,-44.921875,-116.69921875
-31.73828125,-54.6875,-36.1328125,-20.99609375
-67.87109375,-54.19921875,-41.50390625,-27.83203125
-83.984375,-62.5,-60.05859375,-120.1171875
-74.21875,-65.4296875,-57.6171875,-160.64453125
-69.3359375,-69.82421875,-48.33984375,-117.67578125
-44.43359375,-63.4765625,-47.8515625,-31.73828125
-74.70703125,-67.3828125,-49.31640625,-2.9296875
-79.58984375,-72.265625,-49.8046875,-82.51953125
-73.2421875,-62.5,-45.8984375,-155.76171875
-69.82421875,-56.15234375,-45.41015625,-122.0703125
-46.875,-57.12890625,-51.7578125,-25.390625
-44.921875,-60.05859375,-49.8046875,-0.48828125
-77.1484375,-62.98828125,-43.9453125,-72.75390625
-75.68359375,-71.2890625,-47.36328125,-150.87890625
-42.96875,-68.359375,-60.546875,-140.13671875
-40.0390625,-61.03515625,-65.91796875,-51.7578125
-58.59375,-50.78125,-59.08203125,-2.9296875
-98.6328125,-56.640625,-59.5703125,-60.05859375
-104.4921875,-69.3359375,-58.10546875,-143.5546875
-72.75390625,-63.96484375,-56.640625,-136.71875
-42.96875,-62.01171875,-59.08203125,-47.8515625
-41.015625,-52.734375,-50.29296875,12.20703125
-76.171875,-53.22265625,-42.48046875,-43.45703125
-96.6796875,-66.40625,-42.48046875,-130.37109375
-71.2890625,-60.546875,-44.43359375,-130.859375
-30.2734375,-53.7109375,-43.9453125,-41.9921875
-24.4140625,-46.38671875,-40.0390625,30.2734375
-56.15234375,-42.48046875,-40.0390625,-26.3671875
-71.2890625,-54.6875,-35.64453125,-115.234375
-62.01171875,-47.8515625,-36.62109375,-121.09375
-30.2734375,-37.109375,-40.52734375,-39.0625
-16.6015625,-37.59765625,-35.64453125,33.203125
-35.15625,-42.48046875,-34.1796875,-5.37109375
-66.40625,-49.8046875,-35.64453125,-89.84375
-51.26953125,-51.7578125,-42.96875,-114.2578125
-15.13671875,-55.6640625,-52.24609375,-52.24609375
-9.765625,-60.546875,-38.57421875,23.92578125
-39.0625,-57.12890625,-37.59765625,-1.953125
-69.3359375,-48.828125,-43.45703125,-101.5625
-63.96484375,-44.921875,-44.43359375,-143.5546875
-41.9921875,-45.41015625,-44.43359375,-82.51953125
-31.25,-43.45703125,-47.36328125,2.44140625
-50.29296875,-43.45703125,-50.29296875,-11.71875
-82.03125,-47.8515625,-48.33984375,-99.12109375
-68.84765625,-47.8515625,-52.24609375,-148.92578125
-34.1796875,-36.62109375,-52.24609375,-100.5859375
-17.578125,-38.0859375,-45.8984375,-14.16015625
-42.48046875,-51.7578125,-49.31640625,-7.32421875
-73.73046875,-55.6640625,-54.19921875,-87.890625
-70.80078125,-55.6640625,-48.33984375,-145.99609375
-54.19921875,-54.19921875,-42.48046875,-101.5625
-29.78515625,-50.29296875,-43.45703125,-8.7890625
-41.9921875,-53.7109375,-43.45703125,3.41796875
-68.359375,-57.12890625,-46.38671875,-79.1015625
-76.66015625,-58.59375,-54.6875,-151.3671875
-52.734375,-58.10546875,-43.45703125,-110.3515625
-16.11328125,-50.29296875,-28.3203125,-2.44140625
-21.484375,-40.0390625,-28.3203125,31.73828125
-59.08203125,-51.7578125,-39.55078125,-45.41015625
-68.84765625,-68.84765625,-39.55078125,-124.51171875
-32.2265625,-64.453125,-36.1328125,-102.5390625
1.46484375,-47.36328125,-39.0625,-7.32421875
-18.5546875,-34.66796875,-36.1328125,40.0390625
-63.96484375,-42.48046875,-36.1328125,-32.71484375
-76.171875,-51.26953125,-33.69140625,-125.9765625
-53.7109375,-54.6875,-33.203125,-123.53515625
-23.4375,-51.7578125,-29.296875,-27.83203125
-32.71484375,-46.875,-14.6484375,20.99609375
-71.77734375,-43.9453125,-13.18359375,-41.015625
-78.125,-35.64453125,-21.484375,-114.2578125
-58.59375,-40.0390625,-20.99609375,-120.60546875
-25.87890625,-47.36328125,-24.4140625,-43.9453125
-17.08984375,-41.015625,-31.25,23.4375
-49.8046875,-40.0390625,-32.71484375,-12.20703125
-77.63671875,-41.9921875,-19.04296875,-102.5390625
-71.77734375,-41.9921875,-20.5078125,-125.9765625
-35.15625,-35.15625,-27.34375,-48.33984375
-27.83203125,-30.2734375,-25.87890625,24.90234375
-57.6171875,-29.78515625,-32.2265625,-8.7890625
-83.49609375,-40.52734375,-37.59765625,-106.4453125
-64.94140625,-55.6640625,-45.41015625,-145.5078125
-14.6484375,-43.45703125,-46.38671875,-70.3125
-23.92578125,-37.109375,-38.57421875,22.94921875
-67.3828125,-51.26953125,-39.0625,-6.34765625
-87.890625,-63.96484375,-44.43359375,-112.3046875
-80.56640625,-65.4296875,-50.29296875,-149.90234375
-54.6875,-54.19921875,-41.015625,-77.1484375
-41.50390625,-48.33984375,-35.15625,17.578125
-68.84765625,-49.31640625,-40.0390625,9.27734375
-100.09765625,-60.05859375,-44.921875,-87.890625
-91.796875,-68.359375,-39.55078125,-143.5546875
-51.26953125,-62.98828125,-36.62109375,-85.9375
-25.87890625,-55.17578125,-36.1328125,15.13671875
-42.48046875,-42.48046875,-30.2734375,19.04296875
-77.1484375,-45.8984375,-34.1796875,-67.87109375
-81.0546875,-58.10546875,-40.52734375,-141.11328125
-49.8046875,-54.19921875,-43.45703125,-115.234375
-31.73828125,-56.15234375,-46.38671875,-19.53125
-45.41015625,-55.6640625,-44.43359375,1.953125
-80.078125,-50.78125,-50.29296875,-75.1953125
-84.47265625,-50.29296875,-50.29296875,-138.671875
-58.10546875,-47.8515625,-39.0625,-105.95703125
-37.109375,-48.828125,-41.015625,-8.30078125
-60.546875,-48.828125,-40.52734375,15.13671875
-101.5625,-53.22265625,-41.50390625,-60.546875
-98.6328125,-51.26953125,-44.921875,-125.9765625
-78.61328125,-48.33984375,-51.7578125,-112.3046875
-55.17578125,-47.8515625,-48.828125,-23.4375
-58.59375,-42.48046875,-45.8984375,22.94921875
-91.796875,-53.7109375,-47.36328125,-34.66796875
-101.07421875,-58.59375,-47.8515625,-119.140625
-67.3828125,-49.8046875,-51.26953125,-118.65234375
-32.71484375,-43.45703125,-43.9453125,-20.99609375
-42.48046875,-40.0390625,-35.15625,37.109375
-71.2890625,-40.52734375,-31.73828125,-15.625
-77.1484375,-44.43359375,-34.66796875,-100.5859375
-44.43359375,-49.31640625,-37.59765625,-115.234375
-8.7890625,-44.921875,-38.57421875,-38.0859375
-26.3671875,-41.50390625,-38.57421875,31.73828125
-60.05859375,-45.8984375,-35.64453125,-4.39453125
-84.47265625,-49.8046875,-42.48046875,-103.515625
-66.89453125,-51.26953125,-47.8515625,-131.8359375
-23.4375,-46.875,-38.0859375,-47.8515625
-20.5078125,-40.52734375,-25.390625,36.1328125
-46.875,-36.1328125,-25.390625,4.8828125
-70.3125,-44.921875,-30.2734375,-96.19140625
-60.546875,-49.31640625,-30.76171875,-124.51171875
-34.1796875,-40.52734375,-30.76171875,-58.59375
-26.85546875,-35.15625,-34.66796875,24.4140625
-43.45703125,-32.2265625,-35.15625,24.4140625
-73.73046875,-42.48046875,-40.52734375,-69.3359375
-71.77734375,-53.22265625,-54.19921875,-120.60546875
-41.015625,-53.22265625,-53.7109375,-69.82421875
-20.01953125,-49.31640625,-46.38671875,16.11328125
-31.73828125,-47.8515625,-44.43359375,12.20703125
-74.21875,-54.6875,-49.8046875,-83.984375
-71.2890625,-53.7109375,-55.17578125,-141.6015625
-41.50390625,-52.24609375,-50.29296875,-92.7734375
-28.3203125,-45.41015625,-46.38671875,2.9296875
-49.31640625,-41.9921875,-47.8515625,14.6484375
-80.078125,-52.24609375,-47.36328125,-75.68359375
-74.21875,-50.78125,-46.38671875,-143.5546875
-43.9453125,-51.26953125,-48.33984375,-102.5390625
-22.94921875,-52.734375,-42.48046875,-3.41796875
-43.45703125,-53.7109375,-46.38671875,8.30078125
-80.078125,-53.7109375,-52.734375,-69.3359375
-88.37890625,-55.6640625,-49.31640625,-133.30078125
-66.40625,-57.6171875,-43.9453125,-113.28125
-39.0625,-46.38671875,-40.52734375,-18.06640625
-41.015625,-40.52734375,-37.59765625,26.3671875
-72.265625,-45.41015625,-32.71484375,-41.9921875
-80.56640625,-53.22265625,-42.48046875,-132.8125
-46.38671875,-52.734375,-48.828125,-118.65234375
-20.99609375,-46.38671875,-35.64453125,-20.5078125
-30.76171875,-45.41015625,-35.64453125,28.3203125
-63.96484375,-52.24609375,-39.0625,-34.1796875
-76.66015625,-54.19921875,-39.55078125,-120.60546875
-47.8515625,-47.36328125,-41.9921875,-118.1640625
-5.859375,-45.8984375,-36.1328125,-22.4609375
-2.44140625,-39.0625,-33.203125,46.875
-34.1796875,-40.52734375,-34.1796875,0.0
-62.5,-51.26953125,-28.3203125,-88.8671875
-38.0859375,-53.22265625,-20.5078125,-104.4921875
-22.94921875,-52.24609375,-23.92578125,-32.71484375
-45.41015625,-45.41015625,-25.390625,26.85546875
-58.10546875,-36.62109375,-28.80859375,-9.27734375
-79.1015625,-44.43359375,-31.73828125,-99.609375
-77.63671875,-57.12890625,-30.76171875,-125.0
-42.96875,-50.29296875,-33.69140625,-47.36328125
-29.296875,-43.9453125,-32.71484375,24.4140625
-49.8046875,-51.7578125,-38.0859375,-1.46484375
-74.21875,-56.15234375,-44.43359375,-83.984375
-70.80078125,-61.03515625,-43.45703125,-133.30078125
-55.17578125,-61.5234375,-41.9921875,-77.63671875
-49.8046875,-52.24609375,-41.50390625,10.25390625
-67.87109375,-53.22265625,-41.9921875,-2.9296875
-87.40234375,-59.08203125,-46.875,-95.21484375
-72.265625,-52.24609375,-57.12890625,-146.97265625
-48.828125,-51.26953125,-53.7109375,-86.9140625
-30.76171875,-50.29296875,-48.33984375,7.8125
-50.78125,-44.921875,-46.38671875,12.20703125
-76.171875,-49.31640625,-40.0390625,-66.89453125
-66.89453125,-51.7578125,-37.109375,-121.58203125
-49.31640625,-48.33984375,-40.0390625,-77.63671875
-33.69140625,-46.875,-46.38671875,6.8359375
-40.52734375,-44.43359375,-43.9453125,20.5078125
-76.66015625,-45.41015625,-42.96875,-56.640625
-79.58984375,-53.7109375,-47.36328125,-124.51171875
-44.43359375,-53.22265625,-42.96875,-92.28515625
-26.85546875,-45.8984375,-40.0390625,0.48828125
-28.3203125,-46.875,-41.9921875,26.3671875
-61.03515625,-49.31640625,-42.96875,-50.29296875
-83.984375,-48.33984375,-48.828125,-132.32421875
-55.17578125,-46.875,-52.734375,-124.51171875
-30.2734375,-41.50390625,-53.7109375,-27.34375
-46.38671875,-33.203125,-58.10546875,19.53125
-74.21875,-40.0390625,-62.98828125,-55.17578125
-75.68359375,-46.38671875,-61.5234375,-133.7890625
-54.19921875,-45.41015625,-59.5703125,-124.0234375
-28.80859375,-46.875,-55.6640625,-41.50390625
-36.62109375,-49.31640625,-49.31640625,15.13671875
-66.89453125,-46.38671875,-51.7578125,-36.62109375
-85.9375,-52.734375,-54.6875,-121.58203125
-59.5703125,-54.6875,-49.8046875,-125.0
-21.97265625,-46.38671875,-47.36328125,-34.1796875
-24.90234375,-37.109375,-48.828125,33.203125
-56.15234375,-36.62109375,-50.78125,-13.671875
-74.70703125,-40.0390625,-50.78125,-105.46875
-61.03515625,-41.015625,-48.828125,-124.0234375
-28.80859375,-42.48046875,-41.015625,-47.36328125
-21.97265625,-40.0390625,-39.0625,28.80859375
-50.29296875,-41.015625,-41.9921875,-0.48828125
-73.2421875,-44.921875,-44.921875,-98.14453125
-61.03515625,-50.29296875,-45.41015625,-132.32421875
-39.55078125,-49.8046875,-39.0625,-62.01171875
-38.57421875,-46.38671875,-37.59765625,13.671875
-61.03515625,-49.8046875,-38.0859375,-9.27734375
-92.28515625,-56.640625,-36.1328125,-100.5859375
-75.68359375,-58.59375,-40.0390625,-148.4375
-45.41015625,-53.22265625,-45.8984375,-91.796875
-43.9453125,-41.50390625,-42.96875,-3.41796875
-62.01171875,-39.55078125,-41.015625,-10.25390625
-88.37890625,-50.78125,-43.9453125,-93.26171875
-78.125,-55.17578125,-43.45703125,-143.5546875
-46.875,-51.26953125,-41.015625,-95.21484375
-35.15625,-44.921875,-41.015625,-3.90625
-52.24609375,-45.41015625,-38.0859375,0.9765625
-80.56640625,-52.24609375,-32.71484375,-74.70703125
-85.44921875,-54.19921875,-38.57421875,-133.30078125
-55.6640625,-57.12890625,-47.36328125,-98.14453125
-21.484375,-46.38671875,-41.9921875,0.0
-39.55078125,-36.62109375,-36.1328125,20.01953125
-80.56640625,-45.8984375,-41.015625,-62.5
-75.68359375,-56.640625,-41.50390625,-132.8125
-38.0859375,-56.15234375,-46.38671875,-111.81640625
-20.01953125,-45.41015625,-53.7109375,-16.11328125
-41.9921875,-40.52734375,-42.96875,29.78515625
-70.3125,-38.0859375,-38.57421875,-40.0390625
-72.75390625,-39.55078125,-40.52734375,-118.65234375
-48.33984375,-49.31640625,-39.55078125,-106.4453125
-20.01953125,-46.38671875,-38.57421875,-12.20703125
-27.34375,-40.52734375,-38.57421875,32.2265625
-58.10546875,-46.38671875,-39.0625,-33.69140625
-71.2890625,-51.26953125,-48.828125,-119.62890625
-53.7109375,-57.6171875,-56.15234375,-118.1640625
-23.4375,-62.98828125,-50.29296875,-30.76171875
-27.83203125,-59.5703125,-45.8984375,22.4609375
-58.59375,-52.24609375,-40.52734375,-23.4375
-70.80078125,-55.6640625,-44.921875,-118.65234375
-62.5,-53.7109375,-46.875,-137.20703125
-33.203125,-47.8515625,-48.828125,-49.31640625
-33.69140625,-54.19921875,-51.26953125,20.99609375
-64.453125,-56.15234375,-49.31640625,-22.4609375
-87.890625,-57.12890625,-48.33984375,-116.2109375
-80.078125,-58.10546875,-42.96875,-136.23046875
-52.734375,-55.6640625,-45.41015625,-58.59375
-45.8984375,-51.7578125,-46.875,19.53125
-73.2421875,-55.17578125,-49.8046875,-20.99609375
-99.12109375,-59.08203125,-52.24609375,-118.1640625
-83.984375,-59.08203125,-53.22265625,-149.90234375
-56.15234375,-53.7109375,-52.734375,-80.078125
-42.96875,-41.50390625,-47.36328125,4.39453125
-60.546875,-45.41015625,-48.33984375,-18.5546875
-88.37890625,-60.546875,-53.7109375,-109.375
-83.49609375,-64.94140625,-51.7578125,-141.11328125
-42.96875,-55.6640625,-50.78125,-71.77734375
-23.92578125,-48.828125,-50.29296875,9.27734375
-49.31640625,-53.7109375,-42.48046875,-2.9296875
-87.40234375,-63.4765625,-41.9921875,-92.28515625
-79.58984375,-69.3359375,-43.9453125,-145.5078125
-38.57421875,-62.98828125,-42.96875,-90.8203125
-27.34375,-54.19921875,-44.43359375,3.90625
-57.12890625,-51.26953125,-48.828125,2.44140625
-89.84375,-53.7109375,-52.24609375,-89.35546875
-92.28515625,-59.08203125,-53.22265625,-145.01953125
-62.98828125,-62.98828125,-51.26953125,-95.703125
-38.0859375,-60.546875,-54.6875,-6.34765625
-57.6171875,-52.734375,-60.546875,6.8359375
-89.84375,-58.10546875,-62.5,-65.4296875
-90.8203125,-65.4296875,-57.12890625,-125.9765625
-75.1953125,-67.87109375,-54.6875,-102.5390625
-49.31640625,-63.4765625,-55.6640625,-10.7421875
-56.640625,-53.22265625,-42.48046875,16.6015625
-99.12109375,-53.22265625,-33.203125,-61.5234375
-107.421875,-56.15234375,-33.203125,-125.48828125
-83.49609375,-47.8515625,-36.1328125,-104.00390625
-62.98828125,-43.9453125,-38.0859375,-21.484375
-75.68359375,-46.38671875,-36.62109375,7.32421875
-106.4453125,-46.38671875,-39.0625,-57.6171875
-112.3046875,-51.26953125,-46.875,-134.27734375
-89.35546875,-59.5703125,-50.29296875,-133.7890625
-56.15234375,-48.33984375,-40.52734375,-45.41015625
-59.08203125,-44.921875,-41.9921875,0.48828125
-84.47265625,-55.17578125,-50.29296875,-59.5703125
-93.26171875,-62.5,-51.7578125,-130.37109375
-90.33203125,-60.05859375,-52.734375,-134.765625
-76.171875,-52.24609375,-47.8515625,-65.4296875
-74.70703125,-50.78125,-41.9921875,-18.06640625
-105.95703125,-56.640625,-40.0390625,-66.40625
-128.41796875,-63.96484375,-41.9921875,-145.5078125
-107.421875,-62.01171875,-44.921875,-153.80859375
-73.73046875,-59.08203125,-47.36328125,-87.890625
-62.01171875,-56.15234375,-52.24609375,-35.15625
-78.61328125,-51.7578125,-55.6640625,-69.3359375
-103.515625,-58.10546875,-56.640625,-142.08984375
-85.9375,-61.5234375,-56.640625,-149.90234375
-62.01171875,-54.6875,-58.10546875,-84.9609375
-60.546875,-52.734375,-60.05859375,-36.62109375
-77.1484375,-51.26953125,-57.12890625,-65.91796875
-109.86328125,-50.78125,-57.12890625,-129.39453125
-92.7734375,-48.33984375,-58.59375,-142.578125
-59.5703125,-48.33984375,-54.6875,-83.49609375
-64.94140625,-49.8046875,-53.7109375,-35.15625
-89.84375,-51.26953125,-58.10546875,-68.359375
-118.1640625,-52.24609375,-61.5234375,-133.7890625
-110.83984375,-53.7109375,-58.59375,-148.92578125
-80.56640625,-53.7109375,-48.828125,-98.6328125
-73.2421875,-57.12890625,-45.41015625,-45.41015625
-90.33203125,-52.734375,-47.36328125,-56.640625
-112.3046875,-52.734375,-51.7578125,-113.76953125
-109.86328125,-55.17578125,-57.12890625,-144.04296875
-79.1015625,-42.48046875,-56.640625,-110.3515625
-51.26953125,-41.50390625,-56.640625,-49.31640625
-63.4765625,-52.24609375,-58.10546875,-48.828125
-95.21484375,-58.10546875,-57.6171875,-95.21484375
-86.9140625,-58.59375,-53.7109375,-115.72265625
-47.8515625,-51.7578125,-48.828125,-79.58984375
-23.92578125,-47.36328125,-44.43359375,-23.92578125
-37.109375,-46.38671875,-43.9453125,-13.18359375
-64.453125,-43.9453125,-45.41015625,-46.875
-76.66015625,-46.38671875,-49.31640625,-92.7734375
-62.98828125,-50.29296875,-52.734375,-98.6328125
-36.62109375,-49.8046875,-58.59375,-64.94140625
-45.41015625,-42.96875,-60.546875,-77.1484375
-73.73046875,-42.48046875,-61.5234375,-144.04296875
-86.9140625,-53.22265625,-61.5234375,-199.70703125
-83.0078125,-63.96484375,-61.5234375,-206.0546875
-54.6875,-62.01171875,-59.08203125,-162.59765625
-56.640625,-54.6875,-54.19921875,-145.99609375
-86.9140625,-54.19921875,-54.6875,-179.19921875
-100.5859375,-55.17578125,-54.6875,-209.9609375
-86.42578125,-53.7109375,-59.08203125,-208.0078125
-53.7109375,-48.828125,-61.5234375,-164.0625
-45.8984375,-44.921875,-61.5234375,-135.7421875
-77.63671875,-47.36328125,-66.40625,-167.48046875
-101.5625,-47.36328125,-67.87109375,-206.54296875
-76.66015625,-51.26953125,-73.2421875,-214.84375
-20.01953125,-49.8046875,-69.82421875,-153.80859375
-19.04296875,-48.828125,-49.31640625,-107.91015625
-83.984375,-64.453125,-51.26953125,-166.9921875
-125.48828125,-70.80078125,-62.98828125,-228.02734375
-118.65234375,-68.359375,-60.05859375,-231.4453125
-94.7265625,-68.359375,-54.19921875,-196.77734375
-93.26171875,-71.77734375,-57.12890625,-172.36328125
-127.44140625,-74.70703125,-63.96484375,-208.0078125
-146.484375,-76.171875,-69.82421875,-256.8359375
-125.9765625,-70.80078125,-62.98828125,-251.46484375
-121.58203125,-70.3125,-56.640625,-221.19140625
-131.8359375,-76.171875,-68.359375,-211.9140625
-147.94921875,-81.54296875,-71.2890625,-228.515625
-185.546875,-88.37890625,-64.94140625,-269.04296875
-193.359375,-88.8671875,-63.96484375,-284.66796875
-171.38671875,-89.35546875,-67.3828125,-242.67578125
-165.0390625,-88.37890625,-68.84765625,-191.89453125
-187.98828125,-93.26171875,-68.359375,-194.3359375
-228.02734375,-104.00390625,-74.21875,-244.62890625
-239.2578125,-105.95703125,-67.3828125,-274.90234375
-230.46875,-113.28125,-67.87109375,-281.73828125
-212.40234375,-118.65234375,-74.21875,-256.8359375
-217.28515625,-112.79296875,-70.80078125,-259.27734375
-247.55859375,-116.69921875,-76.66015625,-296.38671875
-249.0234375,-125.48828125,-78.61328125,-296.875
-226.07421875,-130.37109375,-74.70703125,-271.97265625
-197.75390625,-131.8359375,-74.70703125,-235.3515625
-198.73046875,-126.953125,-74.21875,-245.1171875
-225.5859375,-123.53515625,-75.68359375,-386.71875
-234.375,-127.44140625,-78.125,-504.39453125
-209.47265625,-128.90625,-79.1015625,-497.55859375
-180.6640625,-127.44140625,-86.42578125,-483.88671875
-185.546875,-137.6953125,-90.33203125,-504.8828125
-211.42578125,-147.94921875,-86.9140625,-579.1015625
-218.75,-148.4375,-82.51953125,-621.58203125
-194.82421875,-151.3671875,-86.42578125,-596.6796875
-162.59765625,-150.87890625,-95.21484375,-539.55078125
-167.48046875,-152.83203125,-90.8203125,-517.578125
-194.82421875,-161.1328125,-94.23828125,-586.42578125
-203.125,-163.0859375,-96.19140625,-667.96875
-186.5234375,-169.921875,-95.21484375,-671.875
-157.2265625,-167.48046875,-97.65625,-618.1640625
-155.76171875,-168.45703125,-92.28515625,-573.2421875
-190.4296875,-182.12890625,-89.84375,-608.3984375
-205.56640625,-186.5234375,-89.35546875,-649.90234375
-175.78125,-180.6640625,-87.890625,-600.5859375
-140.13671875,-173.828125,-89.35546875,-504.8828125
-126.46484375,-165.0390625,-90.8203125,-420.8984375
-138.671875,-159.66796875,-83.49609375,-394.04296875
-161.1328125,-161.62109375,-82.51953125,-386.71875
-147.94921875,-158.203125,-84.9609375,-351.07421875
-109.86328125,-142.578125,-81.54296875,-264.6484375
-91.796875,-127.44140625,-77.63671875,-173.828125
-107.421875,-123.046875,-76.66015625,-147.4609375
-125.9765625,-117.67578125,-76.171875,-156.25
-123.53515625,-109.375,-72.265625,-130.859375
-99.609375,-105.46875,-75.68359375,-57.12890625
-71.2890625,-97.65625,-71.77734375,15.625
-75.1953125,-78.61328125,-73.2421875,13.18359375
-104.98046875,-72.265625,-76.171875,-25.87890625
-115.72265625,-75.1953125,-64.94140625,-12.20703125
-96.6796875,-66.89453125,-60.05859375,46.38671875
-70.3125,-60.546875,-60.05859375,99.609375
-75.1953125,-55.6640625,-57.12890625,106.4453125
-100.09765625,-47.36328125,-55.6640625,82.51953125
-98.14453125,-44.921875,-52.734375,71.77734375
-71.2890625,-38.0859375,-50.29296875,112.79296875
-41.9921875,-29.78515625,-43.45703125,189.94140625
-58.10546875,-29.78515625,-39.55078125,191.40625
-88.37890625,-30.2734375,-42.48046875,129.8828125
-81.54296875,-31.25,-41.50390625,108.3984375
-63.96484375,-35.15625,-40.52734375,146.484375
-26.3671875,-31.25,-34.66796875,205.078125
-27.34375,-20.5078125,-35.64453125,197.75390625
-60.546875,-15.625,-42.48046875,137.20703125
-63.4765625,-11.23046875,-49.8046875,106.4453125
-47.36328125,-4.39453125,-54.19921875,136.71875
-23.92578125,-4.8828125,-53.7109375,197.75390625
-40.52734375,-4.8828125,-54.6875,214.84375
-63.96484375,0.0,-55.17578125,180.6640625
-79.1015625,2.44140625,-52.734375,139.6484375
-80.56640625,-4.39453125,-47.8515625,149.4140625
-47.8515625,0.0,-40.0390625,218.75
-36.1328125,13.18359375,-38.57421875,249.51171875
-68.359375,6.8359375,-46.38671875,208.49609375
-94.23828125,-0.48828125,-43.45703125,186.03515625
-76.66015625,4.8828125,-31.73828125,232.421875
-37.59765625,16.6015625,-27.34375,329.58984375
-26.85546875,21.97265625,-27.34375,389.6484375
-59.5703125,22.94921875,-28.3203125,335.44921875
-82.51953125,21.97265625,-29.296875,245.60546875
-66.40625,20.5078125,-27.83203125,212.40234375
-39.0625,14.6484375,-31.73828125,239.74609375
-19.04296875,18.5546875,-28.80859375,278.80859375
-26.85546875,31.73828125,-21.484375,255.37109375
-56.640625,32.2265625,-25.390625,185.05859375
-50.29296875,21.484375,-28.80859375,172.36328125
-15.13671875,23.4375,-26.3671875,238.76953125
-9.27734375,27.83203125,-24.90234375,282.2265625
-36.62109375,21.97265625,-30.76171875,238.28125
-58.10546875,18.06640625,-30.76171875,176.7578125
-55.6640625,18.5546875,-25.390625,159.66796875
-35.64453125,19.04296875,-24.4140625,189.453125
-17.08984375,20.5078125,-21.97265625,224.12109375
-26.85546875,20.99609375,-20.5078125,188.4765625
-62.98828125,17.578125,-25.390625,100.09765625
-69.3359375,17.578125,-29.296875,42.96875
-36.62109375,15.625,-24.90234375,69.82421875
-15.625,2.9296875,-25.390625,117.67578125
-32.71484375,1.46484375,-26.85546875,86.9140625
-65.91796875,-5.37109375,-34.66796875,0.48828125
-65.4296875,-12.20703125,-33.69140625,-41.015625
-45.8984375,-8.30078125,-23.4375,-17.08984375
-21.484375,-1.46484375,-24.90234375,37.109375
-22.94921875,0.9765625,-26.85546875,34.66796875
-53.7109375,-12.20703125,-25.87890625,-45.8984375
-59.5703125,-17.08984375,-26.85546875,-108.88671875
-42.96875,-12.6953125,-30.2734375,-86.42578125
-33.203125,-16.11328125,-33.203125,-21.97265625
-36.62109375,-26.85546875,-34.66796875,-23.92578125
-54.6875,-34.66796875,-36.1328125,-91.30859375
-68.84765625,-30.76171875,-36.62109375,-142.08984375
-56.15234375,-31.73828125,-39.55078125,-124.51171875
-31.25,-41.50390625,-46.38671875,-54.19921875
-30.2734375,-44.921875,-43.9453125,-34.66796875
-41.50390625,-42.48046875,-39.55078125,-93.75
-58.59375,-47.8515625,-44.43359375,-161.62109375
-55.17578125,-49.31640625,-43.45703125,-158.69140625
-21.97265625,-40.52734375,-39.55078125,-76.66015625
-11.71875,-31.73828125,-41.9921875,-33.69140625
-37.59765625,-35.15625,-43.9453125,-92.7734375
-54.19921875,-42.96875,-49.31640625,-170.41015625
-40.52734375,-42.48046875,-51.26953125,-168.9453125
-10.25390625,-34.66796875,-45.8984375,-85.9375
-5.859375,-33.203125,-45.8984375,-41.015625
-28.3203125,-39.0625,-47.8515625,-95.21484375
-61.03515625,-43.9453125,-55.17578125,-182.12890625
-56.15234375,-46.875,-59.5703125,-190.4296875
-29.78515625,-44.43359375,-55.17578125,-105.95703125
-29.296875,-45.8984375,-49.31640625,-44.43359375
-44.43359375,-46.38671875,-46.875,-84.47265625
-87.40234375,-54.19921875,-46.875,-171.875
-86.42578125,-55.17578125,-47.8515625,-185.546875
-39.0625,-51.7578125,-43.9453125,-104.00390625
-30.76171875,-45.41015625,-38.57421875,-41.015625
-55.6640625,-37.109375,-36.62109375,-81.0546875
-80.078125,-47.36328125,-38.0859375,-159.1796875
-80.56640625,-52.734375,-39.0625,-180.17578125
-60.546875,-50.29296875,-41.9921875,-119.62890625
-42.96875,-48.33984375,-40.52734375,-32.71484375
-52.24609375,-45.8984375,-37.59765625,-40.0390625
-87.890625,-48.828125,-43.45703125,-133.30078125
-80.078125,-53.22265625,-46.38671875,-179.19921875
-55.17578125,-56.640625,-44.921875,-125.0
-31.25,-46.875,-37.109375,-17.578125
-34.66796875,-43.45703125,-40.0390625,-17.578125
-66.89453125,-47.36328125,-49.31640625,-122.0703125
-62.01171875,-49.31640625,-40.0390625,-163.57421875
-55.6640625,-58.59375,-30.2734375,-113.76953125
-38.57421875,-51.7578125,-31.73828125,-15.625
-33.69140625,-43.45703125,-30.2734375,0.48828125
-65.91796875,-50.29296875,-29.78515625,-90.33203125
-76.171875,-45.8984375,-28.3203125,-159.1796875
-63.4765625,-34.66796875,-38.0859375,-136.71875
-40.52734375,-31.25,-45.41015625,-43.45703125
-40.0390625,-27.83203125,-36.62109375,-10.7421875
-77.63671875,-30.2734375,-41.50390625,-88.37890625
-90.33203125,-33.203125,-44.921875,-156.25
-66.40625,-35.15625,-41.9921875,-134.27734375
-47.8515625,-41.9921875,-39.55078125,-39.55078125
-47.36328125,-37.59765625,-32.71484375,12.20703125
-60.05859375,-29.296875,-33.203125,-49.31640625
-78.61328125,-37.109375,-39.55078125,-136.71875
-63.4765625,-41.9921875,-41.015625,-125.9765625
-35.15625,-36.62109375,-37.59765625,-30.2734375
-29.78515625,-32.71484375,-35.64453125,21.97265625
-58.10546875,-40.0390625,-37.109375,-40.0390625
-91.796875,-49.31640625,-36.62109375,-132.32421875
-73.2421875,-43.45703125,-33.69140625,-138.671875
-29.78515625,-44.43359375,-35.15625,-47.8515625
-18.06640625,-44.43359375,-32.71484375,28.80859375
-44.921875,-41.50390625,-35.64453125,-20.01953125
-74.21875,-51.7578125,-42.48046875,-125.48828125
-67.3828125,-59.08203125,-41.50390625,-151.85546875
-36.1328125,-52.734375,-33.69140625,-63.4765625
-21.484375,-40.52734375,-22.4609375,30.2734375
-33.69140625,-30.76171875,-25.390625,1.46484375
-72.265625,-28.3203125,-38.0859375,-105.95703125
-72.265625,-27.83203125,-45.41015625,-145.01953125
-39.55078125,-29.78515625,-49.31640625,-61.5234375
-26.85546875,-28.3203125,-43.45703125,34.1796875
-38.57421875,-25.87890625,-42.48046875,14.6484375
-67.87109375,-34.1796875,-54.19921875,-82.51953125
-79.58984375,-43.9453125,-56.15234375,-127.44140625
-54.6875,-41.9921875,-45.8984375,-59.08203125
-24.90234375,-29.78515625,-46.38671875,41.9921875
-34.1796875,-21.484375,-50.29296875,30.2734375
-64.94140625,-28.80859375,-54.19921875,-65.4296875
-67.87109375,-38.57421875,-51.26953125,-121.09375
-36.62109375,-40.0390625,-45.41015625,-63.96484375
-5.859375,-33.203125,-42.96875,49.8046875
-15.13671875,-26.85546875,-39.55078125,50.78125
-45.8984375,-27.34375,-41.9921875,-50.29296875
-41.9921875,-41.9921875,-42.96875,-113.76953125
-24.90234375,-53.22265625,-40.0390625,-75.1953125
4.39453125,-41.50390625,-44.921875,30.76171875
12.20703125,-28.80859375,-46.38671875,61.5234375
-38.0859375,-30.76171875,-47.36328125,-35.15625
-67.3828125,-41.015625,-49.8046875,-121.58203125
-45.41015625,-42.96875,-43.45703125,-89.84375
-23.92578125,-35.15625,-43.9453125,12.20703125
-20.01953125,-24.90234375,-42.48046875,57.12890625
-55.17578125,-29.296875,-45.41015625,-28.3203125
-86.42578125,-37.109375,-48.828125,-120.60546875
-77.63671875,-32.71484375,-48.33984375,-118.1640625
-45.41015625,-29.78515625,-38.57421875,-20.99609375
-37.109375,-30.76171875,-26.3671875,44.43359375
-60.05859375,-35.64453125,-23.92578125,-21.484375
-86.9140625,-42.48046875,-27.83203125,-124.51171875
-79.58984375,-38.57421875,-23.92578125,-127.9296875
-41.50390625,-31.25,-20.5078125,-25.390625
-31.73828125,-24.4140625,-19.04296875,35.64453125
-60.05859375,-24.90234375,-20.01953125,-26.3671875
-83.984375,-33.203125,-26.85546875,-119.62890625
-74.70703125,-32.2265625,-33.69140625,-132.32421875
-38.0859375,-24.4140625,-26.85546875,-28.80859375
-22.4609375,-21.484375,-16.6015625,60.546875
-43.9453125,-27.83203125,-20.5078125,5.859375
-70.80078125,-45.41015625,-29.78515625,-111.328125
-65.4296875,-49.31640625,-28.80859375,-135.7421875
-41.50390625,-40.52734375,-21.484375,-50.29296875
-24.4140625,-37.109375,-20.5078125,43.9453125
-36.1328125,-40.0390625,-20.5078125,18.06640625
-75.68359375,-49.31640625,-27.34375,-94.23828125
-71.2890625,-52.24609375,-32.2265625,-131.34765625
-21.484375,-42.48046875,-23.92578125,-43.45703125
-4.39453125,-30.2734375,-28.80859375,49.31640625
-24.90234375,-37.59765625,-31.73828125,30.2734375
-55.17578125,-48.33984375,-33.203125,-66.40625
-67.3828125,-47.36328125,-39.0625,-120.60546875
-39.55078125,-41.015625,-30.2734375,-43.9453125
-7.32421875,-28.3203125,-28.3203125,60.546875
-34.66796875,-28.80859375,-38.0859375,41.50390625
-73.73046875,-35.15625,-41.015625,-63.96484375
-72.265625,-39.0625,-41.9921875,-131.8359375
-49.8046875,-42.48046875,-48.33984375,-83.0078125
-10.25390625,-28.80859375,-43.45703125,39.0625
-3.41796875,-16.6015625,-35.64453125,63.4765625
-39.0625,-26.3671875,-38.57421875,-30.76171875
-57.6171875,-37.59765625,-41.015625,-102.5390625
-30.2734375,-32.71484375,-38.57421875,-62.01171875
10.7421875,-20.5078125,-32.2265625,49.8046875
-1.46484375,-18.06640625,-36.1328125,72.265625
-41.50390625,-27.34375,-43.45703125,-26.3671875
-59.5703125,-41.9921875,-44.921875,-113.76953125
-47.36328125,-49.31640625,-46.875,-94.23828125
-12.20703125,-33.203125,-42.96875,18.5546875
-3.41796875,-24.4140625,-40.0390625,65.91796875
-29.78515625,-30.2734375,-42.96875,-26.85546875
-65.4296875,-38.0859375,-50.29296875,-134.765625
-59.5703125,-43.45703125,-52.24609375,-124.51171875
-7.32421875,-33.203125,-42.96875,-1.46484375
-14.16015625,-21.97265625,-44.921875,58.10546875
-70.3125,-33.203125,-46.38671875,-14.16015625
-104.4921875,-53.22265625,-43.9453125,-119.140625
-92.7734375,-56.15234375,-48.33984375,-117.67578125
-36.62109375,-39.0625,-41.015625,2.44140625
-15.13671875,-30.76171875,-39.0625,71.77734375
-44.921875,-39.55078125,-43.9453125,11.23046875
-66.40625,-49.31640625,-44.921875,-83.984375
-46.38671875,-56.640625,-43.45703125,-95.21484375
-4.39453125,-44.43359375,-35.15625,6.8359375
6.8359375,-34.1796875,-32.2265625,88.37890625
-23.4375,-39.0625,-36.62109375,33.69140625
-54.6875,-39.0625,-40.52734375,-77.1484375
-43.45703125,-48.33984375,-50.78125,-111.81640625
-18.06640625,-54.6875,-46.875,-28.80859375
-0.48828125,-42.96875,-37.59765625,67.3828125
0.0,-34.66796875,-39.55078125,38.0859375
-43.45703125,-41.50390625,-40.52734375,-80.56640625
-60.05859375,-42.96875,-43.45703125,-137.20703125
-19.53125,-33.69140625,-40.52734375,-55.6640625
0.9765625,-22.94921875,-30.2734375,63.96484375
-28.80859375,-24.90234375,-27.83203125,41.9921875
-61.5234375,-39.0625,-34.1796875,-79.58984375
-67.3828125,-53.22265625,-40.0390625,-131.34765625
-41.9921875,-47.36328125,-38.57421875,-62.98828125
-7.32421875,-18.06640625,-35.64453125,49.8046875
-12.6953125,-14.16015625,-39.0625,40.0390625
-61.5234375,-32.71484375,-41.015625,-75.68359375
-83.0078125,-42.96875,-41.015625,-143.5546875
-51.26953125,-43.9453125,-41.50390625,-85.9375
-16.6015625,-35.15625,-28.80859375,39.55078125
-24.90234375,-30.76171875,-20.5078125,59.08203125
-64.94140625,-40.0390625,-25.390625,-46.38671875
-79.58984375,-52.24609375,-31.25,-128.90625
-60.546875,-47.36328125,-36.1328125,-96.19140625
-27.34375,-38.57421875,-34.1796875,21.484375
-20.01953125,-32.71484375,-31.73828125,59.5703125
-42.48046875,-38.0859375,-34.1796875,-32.71484375
-74.21875,-50.78125,-42.96875,-133.30078125
-67.3828125,-52.24609375,-47.36328125,-125.48828125
-20.5078125,-41.50390625,-45.41015625,-8.7890625
-12.20703125,-34.66796875,-50.29296875,41.015625
-52.734375,-43.9453125,-49.8046875,-41.50390625
-79.58984375,-53.22265625,-38.0859375,-131.8359375
-72.265625,-59.5703125,-39.0625,-131.34765625
-35.15625,-48.33984375,-41.015625,-22.4609375
-24.4140625,-36.62109375,-31.73828125,48.828125
-59.5703125,-49.31640625,-27.34375,-19.53125
-87.890625,-55.17578125,-34.66796875,-130.859375
-76.171875,-58.59375,-37.59765625,-137.6953125
-36.1328125,-51.7578125,-31.73828125,-20.5078125
-21.484375,-31.25,-30.2734375,61.03515625
-55.6640625,-34.66796875,-35.15625,-13.671875
-86.42578125,-53.22265625,-40.52734375,-126.953125
-68.84765625,-58.10546875,-43.45703125,-128.41796875
-23.92578125,-54.6875,-36.62109375,-7.8125
5.37109375,-38.57421875,-28.80859375,88.37890625
-27.83203125,-28.80859375,-36.62109375,22.94921875
-66.40625,-40.52734375,-46.38671875,-98.6328125
-57.12890625,-49.31640625,-49.8046875,-124.0234375
-15.13671875,-40.52734375,-46.38671875,-25.87890625
14.6484375,-25.390625,-44.921875,87.40234375
-13.18359375,-29.296875,-41.9921875,48.828125
-60.546875,-38.57421875,-45.41015625,-84.9609375
-71.2890625,-43.9453125,-58.59375,-136.23046875
-19.53125,-41.50390625,-56.640625,-47.36328125
21.97265625,-27.83203125,-43.45703125,75.68359375
-4.39453125,-20.5078125,-47.8515625,43.45703125
-46.875,-31.73828125,-54.19921875,-79.1015625
-55.6640625,-39.0625,-43.45703125,-123.53515625
-32.71484375,-41.015625,-39.55078125,-54.6875
-0.9765625,-30.2734375,-41.9921875,62.5
-3.41796875,-23.4375,-43.9453125,63.96484375
-50.29296875,-43.45703125,-50.78125,-57.6171875
-75.1953125,-56.640625,-49.8046875,-138.671875
-45.41015625,-47.36328125,-41.015625,-83.984375
0.48828125,-34.1796875,-40.52734375,44.43359375
0.0,-29.296875,-44.43359375,61.5234375
-38.0859375,-39.0625,-48.33984375,-60.05859375
-46.875,-47.8515625,-53.7109375,-135.25390625
-26.85546875,-43.9453125,-63.4765625,-90.33203125
9.765625,-31.25,-64.94140625,35.64453125
15.625,-22.4609375,-55.6640625,68.84765625
-15.625,-31.73828125,-50.29296875,-36.62109375
-33.69140625,-40.52734375,-51.26953125,-125.9765625
-24.4140625,-42.48046875,-58.10546875,-101.07421875
11.23046875,-41.9921875,-58.10546875,21.97265625
25.87890625,-32.2265625,-54.6875,75.1953125
-9.27734375,-31.73828125,-54.6875,-5.859375
-53.22265625,-44.921875,-58.10546875,-114.74609375
-36.1328125,-49.8046875,-59.5703125,-105.46875
10.7421875,-35.15625,-61.03515625,27.83203125
14.6484375,-21.484375,-56.15234375,92.28515625
-14.6484375,-24.4140625,-48.828125,2.44140625
-44.43359375,-36.1328125,-51.26953125,-114.74609375
-41.9921875,-42.96875,-54.6875,-119.140625
-7.8125,-32.2265625,-53.7109375,-3.41796875
8.7890625,-20.99609375,-55.6640625,78.125
-27.34375,-30.2734375,-61.03515625,4.39453125
-65.91796875,-43.45703125,-65.91796875,-121.09375
-51.26953125,-47.36328125,-69.82421875,-139.6484375
-9.27734375,-36.1328125,-64.94140625,-26.85546875
19.53125,-16.11328125,-58.59375,71.77734375
6.34765625,-17.578125,-56.15234375,25.87890625
-35.64453125,-39.55078125,-59.08203125,-94.7265625
-38.0859375,-52.24609375,-59.08203125,-128.90625
-6.34765625,-47.36328125,-55.6640625,-27.83203125
19.53125,-29.78515625,-49.31640625,79.1015625
4.8828125,-19.04296875,-48.33984375,40.52734375
-34.66796875,-30.76171875,-55.6640625,-85.44921875
-54.19921875,-51.26953125,-51.26953125,-130.37109375
-40.0390625,-58.10546875,-45.41015625,-45.8984375
-17.578125,-46.875,-43.9453125,64.94140625
-35.64453125,-41.9921875,-44.43359375,46.38671875
-69.3359375,-47.8515625,-49.31640625,-75.68359375
-65.4296875,-50.78125,-48.828125,-138.671875
-32.71484375,-47.36328125,-43.45703125,-64.94140625
7.8125,-38.57421875,-36.1328125,69.3359375
-2.9296875,-38.57421875,-34.66796875,69.3359375
-45.8984375,-53.7109375,-40.52734375,-65.91796875
-60.05859375,-60.05859375,-46.875,-152.34375
-33.203125,-53.7109375,-51.7578125,-90.33203125
10.7421875,-44.43359375,-43.45703125,51.7578125
1.953125,-41.015625,-34.66796875,69.82421875
-38.57421875,-48.828125,-39.55078125,-50.29296875
-56.640625,-58.10546875,-52.734375,-144.04296875
-33.203125,-50.29296875,-52.734375,-96.19140625
9.765625,-29.296875,-40.52734375,50.29296875
4.8828125,-24.4140625,-32.71484375,86.9140625
-38.57421875,-37.109375,-32.2265625,-26.85546875
-57.6171875,-52.24609375,-30.76171875,-121.09375
-41.50390625,-53.7109375,-32.2265625,-96.6796875
-3.41796875,-38.0859375,-30.76171875,27.83203125
3.41796875,-31.25,-28.3203125,85.44921875
-36.1328125,-39.55078125,-38.57421875,-18.06640625
-70.3125,-49.31640625,-45.41015625,-143.5546875
-55.17578125,-52.734375,-53.7109375,-138.671875
-6.34765625,-38.57421875,-48.33984375,4.39453125
6.34765625,-21.484375,-27.34375,90.33203125
-34.66796875,-25.87890625,-21.97265625,6.8359375
-69.82421875,-45.8984375,-30.76171875,-112.3046875
-52.24609375,-46.875,-36.62109375,-113.76953125
-14.6484375,-41.50390625,-26.3671875,10.7421875
4.8828125,-38.57421875,-19.53125,100.09765625
-16.6015625,-30.2734375,-24.90234375,35.15625
-63.4765625,-43.45703125,-29.78515625,-95.21484375
-63.4765625,-64.453125,-36.62109375,-125.48828125
-19.53125,-53.22265625,-38.57421875,-23.4375
-0.48828125,-36.1328125,-36.62109375,71.77734375
-22.94921875,-34.66796875,-35.64453125,21.97265625
-62.5,-38.57421875,-36.62109375,-108.3984375
-70.3125,-48.33984375,-41.50390625,-149.4140625
-36.62109375,-42.96875,-40.0390625,-45.41015625
-12.6953125,-25.87890625,-34.1796875,77.1484375
-41.50390625,-30.2734375,-36.62109375,40.0390625
-86.42578125,-41.015625,-39.55078125,-87.40234375
-91.796875,-44.43359375,-42.96875,-130.859375
-66.40625,-50.78125,-50.29296875,-46.875
-31.73828125,-48.828125,-54.19921875,73.73046875
-44.43359375,-41.015625,-45.41015625,54.6875
-96.6796875,-52.734375,-45.8984375,-81.0546875
-99.609375,-68.359375,-52.24609375,-143.06640625
-66.40625,-68.84765625,-41.015625,-67.3828125
-19.04296875,-54.6875,-30.2734375,73.73046875
-27.34375,-45.8984375,-42.96875,73.2421875
-71.2890625,-54.19921875,-50.78125,-58.10546875
-67.3828125,-51.7578125,-48.33984375,-129.39453125
-35.64453125,-40.52734375,-51.7578125,-74.70703125
10.25390625,-24.4140625,-50.78125,65.4296875
4.39453125,-17.578125,-51.7578125,84.47265625
-32.2265625,-30.2734375,-51.7578125,-27.83203125
-50.78125,-45.41015625,-53.7109375,-112.3046875
-51.26953125,-53.22265625,-54.6875,-83.49609375
-18.06640625,-45.8984375,-48.33984375,44.43359375
0.0,-28.80859375,-49.31640625,90.8203125
-33.203125,-29.296875,-50.29296875,-7.8125
-71.2890625,-49.31640625,-50.78125,-118.65234375
-62.01171875,-57.6171875,-55.17578125,-110.3515625
-19.04296875,-49.8046875,-50.78125,20.5078125
-9.27734375,-40.0390625,-40.0390625,91.30859375
-42.48046875,-37.59765625,-40.52734375,7.8125
-79.58984375,-53.7109375,-47.8515625,-112.79296875
-69.82421875,-61.03515625,-48.33984375,-116.2109375
-34.1796875,-50.29296875,-43.45703125,5.37109375
-27.34375,-40.0390625,-37.59765625,81.0546875
-49.8046875,-34.1796875,-38.0859375,6.8359375
-86.42578125,-46.875,-42.48046875,-118.1640625
-80.078125,-56.640625,-45.41015625,-127.9296875
-35.15625,-45.8984375,-45.8984375,-10.7421875
-6.34765625,-29.78515625,-41.9921875,79.58984375
-29.296875,-32.2265625,-44.43359375,14.6484375
-66.40625,-49.31640625,-51.7578125,-118.65234375
-52.24609375,-51.7578125,-49.8046875,-133.30078125
-15.13671875,-49.8046875,-47.36328125,-23.4375
5.859375,-47.36328125,-47.8515625,82.03125
-18.06640625,-41.50390625,-45.8984375,41.015625
-64.453125,-48.828125,-48.33984375,-94.7265625
-60.546875,-55.6640625,-50.78125,-139.16015625
-20.5078125,-48.828125,-45.41015625,-44.921875
2.9296875,-35.15625,-46.38671875,63.4765625
-21.97265625,-31.73828125,-50.78125,25.390625
-71.2890625,-44.43359375,-47.8515625,-104.00390625
-77.63671875,-47.8515625,-42.48046875,-154.296875
-41.50390625,-35.64453125,-41.9921875,-72.265625
-4.39453125,-19.53125,-44.921875,57.12890625
-21.97265625,-19.04296875,-51.26953125,41.015625
-68.84765625,-31.73828125,-55.6640625,-94.7265625
-78.61328125,-42.96875,-55.6640625,-161.1328125
-57.6171875,-50.29296875,-47.8515625,-84.9609375
-21.484375,-39.55078125,-37.109375,54.19921875
-27.83203125,-33.69140625,-34.1796875,61.5234375
-63.96484375,-46.38671875,-40.52734375,-54.6875
-69.82421875,-48.33984375,-45.8984375,-135.7421875
-38.0859375,-45.41015625,-45.41015625,-91.796875
1.46484375,-37.109375,-43.9453125,45.41015625
-1.953125,-26.3671875,-46.875,74.21875
-37.109375,-30.2734375,-46.875,-36.62109375
-65.91796875,-44.921875,-44.921875,-138.671875
-61.5234375,-52.24609375,-56.15234375,-112.79296875
-27.83203125,-34.66796875,-61.5234375,18.5546875
-25.390625,-23.4375,-49.8046875,65.4296875
-58.10546875,-33.203125,-45.8984375,-29.296875
-79.58984375,-44.43359375,-49.8046875,-140.13671875
-63.96484375,-34.1796875,-53.22265625,-121.58203125
-29.78515625,-21.97265625,-54.6875,7.32421875
-18.06640625,-26.3671875,-45.8984375,70.80078125
-38.0859375,-31.73828125,-37.59765625,-7.8125
-71.77734375,-47.36328125,-41.50390625,-127.9296875
-61.5234375,-50.78125,-48.828125,-128.90625
-16.6015625,-39.0625,-46.875,-0.9765625
-6.8359375,-34.1796875,-46.38671875,72.265625
-37.59765625,-36.62109375,-52.734375,-12.6953125
-74.21875,-51.26953125,-63.4765625,-140.625
-67.87109375,-52.24609375,-64.94140625,-151.85546875
-20.01953125,-35.15625,-57.12890625,-32.71484375
18.5546875,-13.671875,-57.12890625,71.2890625
-2.44140625,-19.04296875,-52.24609375,28.80859375
-55.6640625,-47.36328125,-49.8046875,-104.00390625
-61.03515625,-53.7109375,-55.6640625,-139.6484375
-19.53125,-40.52734375,-47.8515625,-25.390625
9.27734375,-20.5078125,-38.57421875,90.8203125
-21.97265625,-25.87890625,-37.109375,47.8515625
-74.70703125,-50.29296875,-44.43359375,-96.19140625
-78.61328125,-54.6875,-51.26953125,-149.4140625
-34.1796875,-43.45703125,-46.875,-49.31640625
0.48828125,-26.3671875,-41.015625,80.078125
-26.85546875,-21.97265625,-38.57421875,59.08203125
-80.078125,-36.62109375,-43.45703125,-76.171875
-93.26171875,-47.8515625,-48.828125,-148.92578125
-56.640625,-38.0859375,-51.7578125,-79.1015625
-15.13671875,-21.97265625,-49.31640625,50.78125
-22.94921875,-27.83203125,-47.8515625,47.36328125
-64.453125,-37.109375,-46.875,-71.77734375
-81.0546875,-49.8046875,-52.734375,-141.11328125
-48.33984375,-56.640625,-51.7578125,-79.1015625
-5.859375,-46.38671875,-43.45703125,59.08203125
-15.625,-46.38671875,-44.43359375,71.2890625
-51.26953125,-49.8046875,-50.29296875,-47.8515625
-68.84765625,-56.640625,-56.640625,-135.25390625
-51.26953125,-63.4765625,-53.7109375,-90.8203125
-3.90625,-50.78125,-43.9453125,51.26953125
-10.25390625,-37.59765625,-50.78125,76.66015625
-58.59375,-45.41015625,-59.08203125,-45.8984375
-67.87109375,-56.640625,-55.6640625,-143.06640625
-53.22265625,-54.19921875,-60.05859375,-118.1640625
-20.99609375,-38.57421875,-59.08203125,9.27734375
-4.39453125,-29.78515625,-56.15234375,66.89453125
-34.66796875,-41.9921875,-49.31640625,-17.578125
-82.51953125,-62.01171875,-51.7578125,-131.34765625
-74.70703125,-66.89453125,-60.05859375,-123.046875
-20.99609375,-50.29296875,-48.33984375,20.01953125
-18.5546875,-41.50390625,-38.0859375,84.47265625
-56.640625,-44.43359375,-34.66796875,-7.8125
-88.37890625,-52.24609375,-31.73828125,-123.046875
-77.1484375,-58.10546875,-34.1796875,-122.55859375
-31.73828125,-49.8046875,-33.69140625,-2.9296875
-12.6953125,-35.15625,-28.80859375,80.56640625
-37.109375,-38.0859375,-33.69140625,6.34765625
-72.265625,-56.15234375,-37.59765625,-115.72265625
-67.87109375,-62.5,-32.2265625,-120.1171875
-34.1796875,-47.8515625,-38.0859375,-14.16015625
-18.5546875,-32.71484375,-37.59765625,68.359375
-32.71484375,-30.76171875,-33.203125,14.16015625
-69.3359375,-46.38671875,-37.59765625,-110.3515625
-74.70703125,-57.6171875,-40.0390625,-149.4140625
-37.59765625,-50.29296875,-32.71484375,-47.36328125
-9.765625,-39.0625,-22.94921875,68.84765625
-29.296875,-34.1796875,-24.4140625,27.34375
-67.87109375,-41.50390625,-29.296875,-104.98046875
-67.87109375,-50.29296875,-30.76171875,-156.25
-41.50390625,-57.6171875,-32.2265625,-76.171875
-13.18359375,-49.8046875,-26.3671875,49.8046875
-31.25,-38.57421875,-25.87890625,43.45703125
-69.82421875,-46.38671875,-28.3203125,-80.078125
-73.2421875,-58.59375,-31.73828125,-144.04296875
-56.15234375,-62.98828125,-39.55078125,-84.9609375
-18.5546875,-52.734375,-32.2265625,46.875
-14.16015625,-40.52734375,-23.92578125,64.94140625
-62.01171875,-45.41015625,-27.83203125,-63.96484375
-86.9140625,-59.08203125,-35.64453125,-157.71484375
-52.24609375,-52.24609375,-37.59765625,-98.14453125
0.0,-32.71484375,-31.73828125,43.45703125
-12.20703125,-32.2265625,-26.85546875,64.94140625
-62.5,-49.31640625,-31.25,-50.78125
-79.58984375,-60.05859375,-37.59765625,-140.625
-60.05859375,-58.10546875,-39.0625,-105.46875
-19.53125,-44.921875,-45.8984375,21.97265625
-16.11328125,-34.66796875,-44.921875,64.453125
-51.26953125,-39.0625,-41.015625,-42.96875
-78.125,-48.828125,-42.96875,-152.83203125
-64.453125,-58.10546875,-46.38671875,-137.20703125
-14.6484375,-51.7578125,-42.96875,0.0
1.953125,-32.71484375,-40.52734375,62.01171875
-28.3203125,-36.62109375,-52.24609375,-36.1328125
-63.4765625,-58.10546875,-59.5703125,-148.92578125
-56.640625,-64.94140625,-56.15234375,-139.16015625
-14.16015625,-47.8515625,-50.29296875,-10.7421875
0.9765625,-30.76171875,-45.8984375,66.89453125
-25.390625,-36.62109375,-49.31640625,-9.765625
-60.546875,-48.33984375,-55.17578125,-135.25390625
-59.08203125,-52.24609375,-57.6171875,-145.99609375
-28.3203125,-48.33984375,-50.29296875,-26.85546875
-11.23046875,-35.64453125,-45.8984375,59.5703125
-32.2265625,-36.1328125,-51.26953125,-3.90625
-61.03515625,-44.43359375,-47.8515625,-116.2109375
-60.546875,-49.31640625,-42.96875,-132.8125
-33.69140625,-54.6875,-41.50390625,-27.83203125
-5.37109375,-43.9453125,-32.2265625,81.54296875
-20.5078125,-38.0859375,-31.25,37.109375
-66.89453125,-54.19921875,-40.0390625,-95.703125
-71.2890625,-62.5,-43.9453125,-140.13671875
-31.73828125,-53.22265625,-40.52734375,-47.36328125
-2.9296875,-36.1328125,-35.15625,70.3125
-17.578125,-30.76171875,-39.0625,35.15625
-59.5703125,-39.0625,-46.875,-97.65625
-71.77734375,-51.7578125,-48.828125,-156.25
-37.59765625,-41.50390625,-46.875,-72.265625
-1.46484375,-28.3203125,-47.36328125,62.5
-18.06640625,-38.0859375,-51.7578125,45.8984375
-65.4296875,-50.78125,-56.640625,-84.47265625
-77.63671875,-65.91796875,-58.59375,-146.97265625
-46.38671875,-67.3828125,-55.17578125,-78.125
-9.765625,-46.38671875,-42.48046875,53.7109375
-18.06640625,-41.50390625,-37.109375,61.03515625
-53.22265625,-54.19921875,-39.0625,-54.6875
-67.3828125,-62.98828125,-43.9453125,-144.53125
-50.29296875,-58.10546875,-54.6875,-99.12109375
-10.25390625,-41.015625,-48.828125,45.8984375
-12.6953125,-31.73828125,-47.8515625,73.73046875
-59.5703125,-41.50390625,-57.6171875,-52.24609375
-80.56640625,-56.640625,-58.10546875,-156.73828125
-58.10546875,-61.5234375,-56.15234375,-111.81640625
-14.6484375,-47.36328125,-47.8515625,31.25
-8.7890625,-36.1328125,-41.9921875,71.2890625
-46.875,-40.0390625,-46.38671875,-34.1796875
-74.70703125,-51.26953125,-56.15234375,-145.99609375
-59.5703125,-59.08203125,-60.546875,-129.8828125
-11.71875,-44.43359375,-50.78125,14.16015625
-2.44140625,-26.85546875,-42.48046875,81.0546875
-40.52734375,-32.2265625,-44.43359375,-16.6015625
-73.2421875,-44.43359375,-47.36328125,-130.37109375
-63.4765625,-48.828125,-48.33984375,-129.39453125
-19.04296875,-37.59765625,-48.828125,-6.8359375
-1.46484375,-23.92578125,-46.875,77.1484375
-31.73828125,-30.76171875,-45.41015625,-1.46484375
-77.1484375,-49.31640625,-57.12890625,-135.25390625
-71.77734375,-56.15234375,-54.19921875,-143.5546875
-25.390625,-47.36328125,-34.66796875,-19.04296875
-7.32421875,-34.1796875,-33.69140625,67.3828125
-27.83203125,-30.2734375,-41.9921875,5.37109375
-62.5,-44.43359375,-42.48046875,-116.69921875
-69.82421875,-58.59375,-47.8515625,-148.4375
-36.62109375,-48.33984375,-50.29296875,-49.8046875
-3.90625,-29.296875,-45.8984375,68.359375
-25.87890625,-37.59765625,-50.29296875,23.92578125
-64.94140625,-50.29296875,-56.15234375,-109.86328125
-69.3359375,-53.22265625,-59.5703125,-153.80859375
-38.0859375,-48.33984375,-55.6640625,-64.453125
-2.9296875,-34.66796875,-47.36328125,55.17578125
-19.04296875,-36.62109375,-41.015625,33.203125
-62.5,-51.26953125,-45.8984375,-89.84375
-82.03125,-64.94140625,-56.15234375,-154.78515625
-55.6640625,-62.98828125,-56.640625,-81.54296875
-14.16015625,-46.875,-44.43359375,54.6875
-27.83203125,-38.57421875,-33.203125,51.7578125
-68.359375,-42.48046875,-40.0390625,-66.40625
-74.70703125,-55.6640625,-41.9921875,-134.27734375
-51.7578125,-57.6171875,-42.48046875,-79.1015625
-10.7421875,-38.57421875,-42.48046875,48.828125
-5.37109375,-26.3671875,-34.66796875,66.89453125
-49.8046875,-39.55078125,-45.8984375,-51.26953125
-75.68359375,-52.24609375,-55.17578125,-138.671875
-57.6171875,-51.7578125,-50.78125,-96.19140625
-10.25390625,-32.2265625,-43.9453125,40.0390625
-5.37109375,-19.53125,-41.50390625,82.03125
-47.36328125,-25.87890625,-46.38671875,-32.71484375
-68.84765625,-33.203125,-49.8046875,-138.671875
-44.921875,-40.0390625,-48.828125,-109.375
-4.39453125,-35.64453125,-44.43359375,28.80859375
-6.34765625,-30.76171875,-42.48046875,80.56640625
-43.45703125,-46.875,-42.96875,-23.4375
-73.2421875,-62.5,-45.41015625,-137.6953125
-71.2890625,-64.94140625,-53.7109375,-133.30078125
-37.109375,-54.19921875,-60.546875,-7.32421875
-22.4609375,-35.15625,-62.01171875,63.96484375
-49.8046875,-34.1796875,-57.12890625,-20.99609375
-86.42578125,-48.828125,-50.29296875,-137.6953125
-83.49609375,-56.15234375,-48.33984375,-141.11328125
-36.1328125,-41.015625,-50.29296875,-17.578125
-16.11328125,-28.80859375,-45.8984375,71.77734375
-43.9453125,-42.48046875,-43.45703125,5.37109375
-82.03125,-56.640625,-51.26953125,-110.83984375
-75.68359375,-60.05859375,-53.22265625,-121.58203125
-29.78515625,-55.6640625,-50.29296875,-8.7890625
-5.859375,-45.41015625,-45.41015625,88.37890625
-25.390625,-44.921875,-47.8515625,31.73828125
-64.453125,-53.7109375,-53.22265625,-104.4921875
-69.82421875,-60.546875,-55.6640625,-141.6015625
-38.0859375,-59.5703125,-55.17578125,-41.9921875
-7.32421875,-44.921875,-46.875,74.21875
-25.87890625,-33.203125,-45.8984375,39.55078125
-71.77734375,-42.48046875,-49.8046875,-92.7734375
-70.80078125,-55.6640625,-55.17578125,-145.99609375
-32.2265625,-47.8515625,-51.7578125,-53.22265625
-3.41796875,-28.80859375,-47.36328125,69.3359375
-23.92578125,-26.85546875,-49.8046875,46.875
-65.91796875,-45.41015625,-50.78125,-78.125
-68.84765625,-52.734375,-54.19921875,-138.671875
-41.50390625,-42.48046875,-52.24609375,-70.80078125
-12.20703125,-28.3203125,-46.38671875,48.33984375
-21.484375,-28.3203125,-41.50390625,46.38671875
-58.59375,-38.0859375,-40.0390625,-66.89453125
-73.73046875,-44.43359375,-36.1328125,-132.32421875
-51.7578125,-45.8984375,-32.71484375,-73.73046875
-10.7421875,-38.57421875,-31.25,62.01171875
-10.7421875,-28.80859375,-31.73828125,86.42578125
-51.26953125,-38.57421875,-34.1796875,-34.66796875
-75.1953125,-47.8515625,-36.1328125,-125.48828125
-55.17578125,-51.7578125,-37.109375,-84.9609375
-13.18359375,-48.33984375,-34.1796875,42.48046875
-15.13671875,-37.59765625,-34.66796875,80.56640625
-58.10546875,-43.9453125,-43.45703125,-29.78515625
-84.47265625,-60.546875,-52.24609375,-143.5546875
-67.3828125,-62.98828125,-53.22265625,-117.67578125
-18.06640625,-40.52734375,-47.8515625,17.08984375
-7.8125,-27.34375,-48.33984375,64.453125
-53.22265625,-40.0390625,-56.640625,-41.50390625
-89.35546875,-56.15234375,-62.01171875,-160.64453125
-72.75390625,-61.5234375,-57.12890625,-145.99609375
-35.15625,-46.875,-53.22265625,-23.4375
-29.296875,-32.71484375,-54.6875,38.57421875
-52.24609375,-35.64453125,-53.7109375,-34.1796875
-84.9609375,-49.31640625,-54.6875,-145.99609375
-88.37890625,-59.08203125,-54.19921875,-153.80859375
-54.6875,-46.38671875,-55.17578125,-41.015625
-27.34375,-30.76171875,-50.78125,48.828125
-40.0390625,-28.3203125,-50.78125,-12.20703125
-79.58984375,-42.96875,-54.6875,-133.7890625
-77.1484375,-55.17578125,-56.15234375,-146.97265625
-35.64453125,-46.875,-52.734375,-33.69140625
-20.99609375,-39.0625,-50.78125,63.96484375
-51.26953125,-39.55078125,-55.6640625,4.8828125
-86.9140625,-46.875,-56.15234375,-125.9765625
-83.49609375,-48.828125,-56.15234375,-160.15625
-44.43359375,-44.921875,-51.7578125,-60.546875
-10.25390625,-31.73828125,-41.9921875,59.08203125
-26.3671875,-26.3671875,-43.45703125,29.78515625
-68.359375,-41.50390625,-52.24609375,-106.93359375
-80.078125,-48.33984375,-54.19921875,-161.1328125
-51.26953125,-46.38671875,-46.38671875,-65.4296875
-16.11328125,-35.64453125,-40.52734375,64.453125
-32.71484375,-31.73828125,-44.921875,40.52734375
-79.1015625,-41.50390625,-50.78125,-96.6796875
-85.9375,-48.33984375,-48.828125,-163.57421875
-53.7109375,-44.921875,-41.015625,-86.42578125
-15.13671875,-30.76171875,-40.52734375,51.26953125
-22.94921875,-32.71484375,-44.921875,52.734375
-64.453125,-49.31640625,-51.7578125,-71.77734375
-79.1015625,-60.546875,-55.6640625,-149.4140625
-61.5234375,-50.78125,-53.7109375,-94.23828125
-19.04296875,-24.4140625,-42.48046875,47.8515625
-18.06640625,-20.5078125,-41.015625,69.3359375
-61.03515625,-40.0390625,-48.33984375,-54.19921875
-72.75390625,-51.7578125,-49.31640625,-140.625
-51.26953125,-58.59375,-47.8515625,-100.5859375
-11.71875,-49.31640625,-41.50390625,28.80859375
-7.32421875,-40.0390625,-38.57421875,68.84765625
-51.26953125,-50.78125,-45.41015625,-45.8984375
-80.078125,-57.6171875,-50.78125,-161.1328125
-52.734375,-49.31640625,-51.7578125,-125.9765625
-8.30078125,-42.96875,-51.26953125,14.6484375
-3.90625,-35.64453125,-46.38671875,70.3125
-30.76171875,-26.85546875,-43.45703125,-17.578125
-62.98828125,-38.57421875,-49.31640625,-139.6484375
-61.03515625,-48.33984375,-50.78125,-142.08984375
-25.390625,-42.96875,-44.43359375,-12.20703125
-11.23046875,-33.203125,-36.62109375,66.40625
-42.48046875,-31.73828125,-39.55078125,-16.11328125
-86.42578125,-42.48046875,-51.26953125,-147.94921875
-86.42578125,-55.17578125,-59.08203125,-161.1328125
-40.0390625,-51.7578125,-52.24609375,-41.015625
-13.671875,-30.2734375,-42.48046875,59.5703125
-45.8984375,-31.25,-39.0625,-1.46484375
-89.84375,-51.26953125,-41.015625,-129.39453125
-85.9375,-54.6875,-48.828125,-154.296875
-39.55078125,-41.50390625,-46.38671875,-42.96875
-3.41796875,-34.1796875,-41.50390625,72.75390625
-23.92578125,-37.109375,-43.45703125,22.94921875
-67.3828125,-45.8984375,-44.43359375,-107.91015625
-63.96484375,-49.31640625,-49.31640625,-148.4375
-34.66796875,-48.33984375,-54.19921875,-59.08203125
-3.41796875,-34.1796875,-44.43359375,60.05859375
-19.04296875,-32.2265625,-42.96875,32.71484375
-68.84765625,-47.8515625,-53.7109375,-99.12109375
-75.1953125,-53.22265625,-57.12890625,-160.64453125
-41.50390625,-43.9453125,-50.29296875,-81.0546875
-3.90625,-20.5078125,-41.9921875,45.41015625
-13.671875,-18.06640625,-46.875,35.15625
-55.17578125,-38.57421875,-46.38671875,-85.9375
-71.2890625,-47.8515625,-46.875,-150.87890625
-54.19921875,-43.9453125,-52.24609375,-89.84375
-15.625,-31.25,-48.828125,41.50390625
-17.08984375,-28.3203125,-46.38671875,51.7578125
-62.5,-37.109375,-51.7578125,-75.68359375
-84.9609375,-45.41015625,-62.01171875,-161.62109375
-55.17578125,-42.96875,-62.98828125,-112.3046875
-7.32421875,-27.83203125,-50.29296875,26.3671875
-12.6953125,-25.390625,-40.52734375,57.12890625
-57.6171875,-34.66796875,-40.0390625,-49.31640625
-84.9609375,-48.33984375,-43.9453125,-148.4375
-68.359375,-58.59375,-51.26953125,-120.1171875
-19.53125,-43.9453125,-47.8515625,20.99609375
-4.39453125,-27.83203125,-41.015625,77.1484375
-44.43359375,-35.64453125,-44.43359375,-31.73828125
-79.58984375,-48.828125,-55.17578125,-149.90234375
-61.03515625,-54.6875,-62.01171875,-128.41796875
-25.390625,-50.29296875,-54.19921875,-0.9765625
-17.08984375,-38.57421875,-45.8984375,66.89453125
-51.26953125,-41.015625,-50.29296875,-22.94921875
-88.37890625,-52.24609375,-54.6875,-145.99609375
-73.73046875,-51.26953125,-51.7578125,-141.6015625
-32.2265625,-44.43359375,-45.41015625,-12.6953125
-8.7890625,-33.69140625,-39.0625,75.1953125
-36.62109375,-35.15625,-40.0390625,2.44140625
-86.42578125,-53.7109375,-47.8515625,-132.8125
-81.54296875,-56.640625,-51.7578125,-148.4375
-37.59765625,-46.38671875,-48.828125,-25.87890625
-18.5546875,-40.0390625,-42.96875,68.84765625
-48.33984375,-41.50390625,-41.50390625,7.32421875
-96.6796875,-51.26953125,-41.50390625,-125.48828125
-95.21484375,-62.98828125,-41.015625,-160.15625
-44.43359375,-57.6171875,-44.43359375,-51.7578125
-14.6484375,-35.15625,-40.52734375,69.3359375
-42.48046875,-32.2265625,-39.55078125,28.80859375
-86.42578125,-48.33984375,-46.875,-112.3046875
-83.0078125,-55.17578125,-45.8984375,-153.3203125
-42.96875,-53.7109375,-38.57421875,-53.22265625
-7.32421875,-41.9921875,-35.64453125,65.4296875
-16.6015625,-31.73828125,-41.9921875,42.48046875
-59.08203125,-45.41015625,-50.78125,-89.35546875
-73.2421875,-61.5234375,-52.734375,-160.15625
-39.55078125,-57.12890625,-51.26953125,-87.890625
4.39453125,-39.0625,-43.45703125,46.38671875
-8.7890625,-31.73828125,-37.109375,49.31640625
-61.03515625,-41.015625,-34.66796875,-71.2890625
-81.54296875,-58.10546875,-34.66796875,-148.4375
-57.12890625,-64.94140625,-39.0625,-98.6328125
-15.13671875,-46.875,-42.48046875,26.85546875
-14.16015625,-37.109375,-46.38671875,44.921875
-48.33984375,-41.015625,-44.43359375,-65.4296875
-69.82421875,-46.875,-41.9921875,-152.83203125
-55.17578125,-49.8046875,-46.875,-117.67578125
-18.5546875,-40.52734375,-45.8984375,13.18359375
-17.578125,-34.66796875,-41.015625,53.7109375
-56.640625,-38.57421875,-39.55078125,-53.7109375
-90.8203125,-51.26953125,-45.8984375,-161.1328125
-74.70703125,-50.78125,-47.36328125,-130.37109375
-32.2265625,-37.109375,-41.015625,1.953125
-30.2734375,-34.66796875,-39.0625,50.78125
-58.10546875,-38.57421875,-38.0859375,-41.015625
-86.42578125,-52.24609375,-47.8515625,-153.3203125
-76.171875,-59.08203125,-51.26953125,-143.5546875
-32.2265625,-43.9453125,-35.64453125,-9.765625
-17.08984375,-30.76171875,-27.83203125,64.94140625
-45.41015625,-37.109375,-31.73828125,-17.08984375
-83.49609375,-50.78125,-42.48046875,-142.578125
-78.61328125,-52.734375,-47.8515625,-143.5546875
-39.0625,-42.96875,-41.50390625,-19.04296875
-20.5078125,-29.78515625,-33.203125,63.4765625
-42.96875,-33.69140625,-29.78515625,-1.46484375
-82.03125,-51.7578125,-36.62109375,-125.48828125
-76.171875,-57.12890625,-35.64453125,-139.6484375
-36.62109375,-44.921875,-34.66796875,-25.87890625
-14.6484375,-29.296875,-36.1328125,72.75390625
-36.1328125,-29.78515625,-40.0390625,14.6484375
-82.51953125,-47.36328125,-49.31640625,-122.0703125
-81.0546875,-50.78125,-48.33984375,-152.83203125
-34.66796875,-39.55078125,-48.828125,-48.33984375
-8.7890625,-22.4609375,-46.875,61.03515625
-31.25,-21.484375,-40.0390625,24.90234375
-78.125,-41.015625,-42.96875,-103.02734375
-87.890625,-52.24609375,-47.36328125,-155.2734375
-58.59375,-52.734375,-47.8515625,-75.1953125
-29.78515625,-38.0859375,-37.109375,41.9921875
-39.0625,-31.25,-31.25,28.80859375
-77.1484375,-47.8515625,-43.45703125,-97.65625
-85.9375,-57.6171875,-48.828125,-164.55078125
-53.7109375,-56.15234375,-43.45703125,-85.44921875
-7.8125,-42.96875,-31.25,57.6171875
-17.578125,-33.203125,-33.69140625,55.6640625
-67.87109375,-42.48046875,-45.8984375,-78.125
-81.54296875,-55.6640625,-44.921875,-157.71484375
-47.8515625,-44.43359375,-37.59765625,-95.21484375
-4.8828125,-21.484375,-36.1328125,43.9453125
-9.765625,-20.5078125,-40.0390625,58.10546875
-50.29296875,-38.57421875,-45.41015625,-53.7109375
-79.58984375,-57.6171875,-48.33984375,-144.53125
-68.359375,-55.6640625,-51.26953125,-113.28125
-22.94921875,-35.64453125,-55.17578125,19.53125
-11.23046875,-27.83203125,-56.15234375,60.546875
-53.22265625,-37.109375,-57.12890625,-45.8984375
-89.35546875,-53.7109375,-59.08203125,-150.87890625
-77.1484375,-57.12890625,-63.96484375,-128.90625
-28.3203125,-50.29296875,-58.10546875,3.41796875
-16.11328125,-37.109375,-45.41015625,73.2421875
-58.59375,-35.15625,-46.875,-15.13671875
-96.6796875,-60.546875,-55.6640625,-140.13671875
-79.58984375,-67.87109375,-57.12890625,-131.34765625
-29.296875,-49.31640625,-47.8515625,3.41796875
-11.71875,-34.66796875,-41.9921875,74.21875
-45.41015625,-38.57421875,-51.7578125,-13.671875
-87.890625,-55.17578125,-62.5,-142.578125
-71.77734375,-58.10546875,-55.6640625,-144.04296875
-30.2734375,-46.875,-46.38671875,-21.484375
-14.16015625,-36.1328125,-49.8046875,66.40625
-30.76171875,-34.66796875,-52.24609375,1.953125
-67.3828125,-42.48046875,-51.7578125,-122.0703125
-71.77734375,-53.7109375,-48.828125,-139.6484375
-37.59765625,-56.15234375,-47.8515625,-34.1796875
-9.765625,-37.59765625,-44.43359375,72.75390625
-30.2734375,-37.109375,-48.33984375,27.34375
-74.70703125,-52.24609375,-58.59375,-107.91015625
-81.54296875,-58.10546875,-57.6171875,-148.92578125
-50.29296875,-59.08203125,-49.31640625,-52.24609375
-19.53125,-43.45703125,-40.52734375,71.2890625
-36.62109375,-32.71484375,-39.55078125,43.9453125
-84.9609375,-45.41015625,-45.41015625,-88.8671875
-90.33203125,-55.6640625,-50.78125,-145.5078125
-53.7109375,-42.96875,-49.8046875,-63.96484375
-19.04296875,-35.15625,-41.9921875,60.546875
-28.3203125,-42.96875,-39.55078125,50.78125
-72.265625,-51.7578125,-46.875,-80.56640625
-87.890625,-58.10546875,-54.19921875,-158.69140625
-49.8046875,-52.24609375,-56.640625,-87.890625
2.44140625,-36.1328125,-44.43359375,52.24609375
-13.18359375,-34.1796875,-43.45703125,58.10546875
-61.03515625,-48.33984375,-53.22265625,-70.80078125
-68.359375,-55.17578125,-53.7109375,-147.94921875
-42.96875,-51.26953125,-49.8046875,-90.33203125
-6.34765625,-41.9921875,-31.25,51.7578125
-7.8125,-34.66796875,-24.90234375,82.51953125
-41.015625,-42.48046875,-37.109375,-26.85546875
-74.70703125,-58.59375,-47.36328125,-130.37109375
-65.4296875,-60.05859375,-45.41015625,-102.05078125
-17.578125,-47.36328125,-38.0859375,36.62109375
-11.23046875,-32.71484375,-32.71484375,81.54296875
-48.33984375,-40.0390625,-41.50390625,-20.99609375
-80.56640625,-56.640625,-49.8046875,-132.32421875
-68.84765625,-56.15234375,-46.38671875,-125.9765625
-29.296875,-41.50390625,-41.50390625,2.44140625
-17.578125,-30.76171875,-33.69140625,75.68359375
-46.875,-39.0625,-34.66796875,-9.27734375
-83.0078125,-49.31640625,-49.8046875,-134.27734375
-69.82421875,-52.24609375,-51.7578125,-135.25390625
-17.578125,-45.8984375,-41.50390625,-8.30078125
-1.953125,-34.66796875,-43.9453125,70.80078125
-30.2734375,-33.69140625,-48.828125,-2.9296875
-68.359375,-41.50390625,-52.24609375,-127.9296875
-66.40625,-50.78125,-53.22265625,-144.04296875
-24.4140625,-48.33984375,-44.921875,-24.4140625
-6.34765625,-38.57421875,-34.1796875,76.66015625
-32.71484375,-42.48046875,-35.64453125,22.94921875
-74.70703125,-54.19921875,-44.43359375,-104.98046875
-78.125,-61.03515625,-47.8515625,-141.11328125
-37.109375,-52.24609375,-43.45703125,-34.66796875
-10.25390625,-33.69140625,-40.0390625,73.73046875
-29.296875,-36.1328125,-41.50390625,31.73828125
-69.82421875,-56.15234375,-45.41015625,-93.26171875
-80.078125,-61.03515625,-44.43359375,-146.97265625
-48.33984375,-51.26953125,-37.109375,-59.08203125
-8.30078125,-34.1796875,-23.92578125,65.91796875
-23.4375,-29.78515625,-28.80859375,37.59765625
-70.80078125,-43.9453125,-37.59765625,-93.75
-82.51953125,-54.6875,-43.45703125,-156.25
-55.6640625,-49.8046875,-49.8046875,-84.47265625
-19.04296875,-38.0859375,-39.0625,42.48046875
-27.83203125,-30.2734375,-40.52734375,37.109375
-66.89453125,-39.55078125,-53.22265625,-88.8671875
-77.1484375,-59.08203125,-56.15234375,-165.0390625
-53.7109375,-59.08203125,-48.828125,-99.609375
-7.8125,-39.55078125,-37.109375,45.41015625
-10.7421875,-34.66796875,-36.1328125,62.01171875
-56.15234375,-47.36328125,-42.96875,-60.546875
-72.75390625,-55.6640625,-43.9453125,-147.94921875
-51.26953125,-57.6171875,-44.43359375,-103.515625
-15.13671875,-50.78125,-52.24609375,27.83203125
-15.625,-43.45703125,-43.9453125,68.84765625
-52.24609375,-50.78125,-36.62109375,-39.0625
-78.125,-58.10546875,-43.9453125,-143.06640625
-65.4296875,-60.05859375,-47.8515625,-115.72265625
-30.76171875,-52.24609375,-44.43359375,11.71875
-20.99609375,-36.62109375,-38.0859375,65.91796875
-55.6640625,-39.0625,-48.33984375,-39.55078125
-89.35546875,-56.15234375,-55.17578125,-148.4375
-71.77734375,-59.08203125,-49.8046875,-124.0234375
-25.87890625,-47.8515625,-42.96875,5.37109375
-13.18359375,-40.0390625,-42.96875,71.77734375
-41.9921875,-40.0390625,-45.8984375,-12.6953125
-73.73046875,-51.26953125,-49.8046875,-135.7421875
-67.87109375,-59.5703125,-51.26953125,-145.5078125
-20.01953125,-42.96875,-42.48046875,-20.01953125
5.37109375,-28.80859375,-40.0390625,69.3359375
-26.85546875,-33.69140625,-44.921875,-3.41796875
-69.82421875,-42.96875,-53.22265625,-130.859375
-67.87109375,-50.78125,-55.17578125,-142.578125
-27.83203125,-40.0390625,-44.43359375,-23.4375
-3.90625,-26.85546875,-34.66796875,79.1015625
-32.71484375,-30.2734375,-42.96875,16.6015625
-83.984375,-44.43359375,-56.15234375,-120.1171875
-82.03125,-50.78125,-58.59375,-149.90234375
-41.50390625,-43.9453125,-54.6875,-45.41015625
-16.6015625,-31.25,-49.8046875,70.80078125
-36.62109375,-23.92578125,-49.8046875,36.1328125
-84.47265625,-36.1328125,-53.22265625,-99.12109375
-95.21484375,-56.15234375,-61.03515625,-156.25
-52.24609375,-53.7109375,-54.6875,-67.87109375
-14.6484375,-32.71484375,-44.43359375,60.05859375
-34.66796875,-33.69140625,-52.734375,41.015625
-69.82421875,-46.875,-59.5703125,-87.890625
-68.84765625,-49.31640625,-59.5703125,-147.4609375
-40.52734375,-44.921875,-49.8046875,-69.82421875
-7.8125,-35.64453125,-45.41015625,53.22265625
-12.6953125,-29.78515625,-49.8046875,50.78125
-50.29296875,-39.55078125,-51.26953125,-71.77734375
-70.80078125,-54.19921875,-51.7578125,-150.390625
-42.96875,-45.8984375,-45.41015625,-92.7734375
1.953125,-29.78515625,-40.0390625,36.1328125
-3.90625,-27.34375,-41.9921875,51.7578125
-49.31640625,-40.0390625,-50.29296875,-63.4765625
-81.0546875,-54.6875,-52.24609375,-156.25
-58.10546875,-50.29296875,-48.33984375,-115.234375
-3.90625,-32.2265625,-43.9453125,30.76171875
-3.41796875,-27.34375,-39.55078125,74.21875
-43.9453125,-41.9921875,-41.50390625,-35.15625
-72.265625,-53.7109375,-47.36328125,-138.671875
-62.5,-50.78125,-50.78125,-117.67578125
-18.5546875,-28.80859375,-45.41015625,15.13671875
-18.5546875,-22.94921875,-43.9453125,72.75390625
-61.03515625,-38.57421875,-47.36328125,-24.4140625
-93.26171875,-50.78125,-46.875,-136.23046875
-84.47265625,-62.5,-47.8515625,-128.90625
-42.48046875,-50.78125,-45.41015625,-3.90625
-30.76171875,-29.78515625,-36.1328125,67.3828125
-59.5703125,-34.1796875,-40.52734375,-18.06640625
-83.984375,-47.36328125,-48.828125,-135.7421875
-67.87109375,-53.7109375,-53.22265625,-144.53125
-20.5078125,-43.45703125,-45.41015625,-24.4140625
3.41796875,-25.390625,-33.69140625,70.80078125
-17.578125,-22.4609375,-32.2265625,11.23046875
-51.7578125,-32.2265625,-34.66796875,-111.81640625
-47.36328125,-42.96875,-33.69140625,-138.18359375
-14.16015625,-45.8984375,-38.0859375,-33.69140625
6.34765625,-35.64453125,-39.55078125,69.3359375
-13.18359375,-32.2265625,-37.59765625,17.578125
-61.5234375,-41.50390625,-48.33984375,-117.67578125
-68.84765625,-47.8515625,-54.6875,-151.85546875
-27.83203125,-43.45703125,-48.828125,-51.7578125
1.953125,-31.73828125,-40.52734375,68.359375
-16.6015625,-31.25,-38.0859375,42.48046875
-64.94140625,-45.8984375,-45.8984375,-92.7734375
-79.58984375,-48.33984375,-52.24609375,-157.71484375
-52.24609375,-45.8984375,-54.6875,-79.1015625
-14.16015625,-37.59765625,-48.33984375,56.15234375
-22.4609375,-30.2734375,-42.48046875,40.52734375
-72.75390625,-42.96875,-42.48046875,-90.8203125
-90.8203125,-49.8046875,-46.38671875,-159.66796875
-62.98828125,-43.9453125,-49.8046875,-95.21484375
-19.04296875,-30.76171875,-41.9921875,40.52734375
-19.04296875,-24.4140625,-28.3203125,55.6640625
-65.4296875,-32.2265625,-34.1796875,-64.453125
-91.30859375,-48.828125,-47.8515625,-150.87890625
-65.4296875,-53.7109375,-50.29296875,-99.12109375
-16.11328125,-33.203125,-44.921875,40.0390625
-15.625,-25.87890625,-42.48046875,62.98828125
-60.05859375,-43.45703125,-53.7109375,-61.03515625
-77.63671875,-54.6875,-59.08203125,-154.296875
-57.12890625,-52.24609375,-51.26953125,-109.86328125
-22.4609375,-38.0859375,-37.59765625,28.3203125
-24.4140625,-34.66796875,-37.109375,67.3828125
-66.89453125,-44.921875,-44.921875,-38.57421875
-94.23828125,-52.24609375,-44.921875,-144.04296875
-75.1953125,-50.78125,-43.9453125,-125.9765625
-30.76171875,-39.0625,-45.8984375,2.9296875
-19.53125,-31.25,-41.50390625,66.89453125
-46.38671875,-29.296875,-39.55078125,-22.94921875
-79.58984375,-38.0859375,-43.9453125,-137.20703125
-77.63671875,-57.6171875,-48.33984375,-128.90625
-38.57421875,-51.7578125,-43.45703125,-1.46484375
-34.1796875,-36.62109375,-38.57421875,74.70703125
-66.89453125,-42.96875,-41.9921875,-5.859375
-102.05078125,-58.59375,-44.921875,-128.90625
-99.609375,-64.453125,-46.875,-142.08984375
-54.19921875,-49.8046875,-48.828125,-32.71484375
-28.80859375,-41.9921875,-48.828125,63.4765625
-44.921875,-41.015625,-48.828125,11.23046875
-82.51953125,-55.17578125,-53.22265625,-121.09375
-78.61328125,-56.640625,-57.6171875,-154.296875
-30.2734375,-51.7578125,-50.78125,-47.36328125
-3.41796875,-45.41015625,-42.96875,65.91796875
-24.90234375,-29.78515625,-46.875,-2.44140625
-52.24609375,-39.55078125,-51.7578125,-105.95703125
-25.87890625,-36.1328125,-41.9921875,11.23046875
-44.921875,-36.1328125,-42.96875,-18.06640625
-82.03125,-53.22265625,-52.734375,-155.2734375
-75.68359375,-56.15234375,-51.7578125,-141.6015625
-39.0625,-44.921875,-43.9453125,-14.6484375
-12.6953125,-34.1796875,-35.64453125,70.80078125
-52.24609375,-40.52734375,-42.48046875,-19.04296875
-85.44921875,-47.8515625,-50.78125,-139.16015625
-71.77734375,-48.828125,-53.7109375,-140.625
-32.2265625,-42.96875,-53.22265625,-23.92578125
-7.8125,-30.2734375,-48.33984375,71.2890625
-43.45703125,-33.203125,-55.6640625,-3.41796875
-74.70703125,-49.8046875,-57.6171875,-125.0
-68.84765625,-60.05859375,-46.875,-139.16015625
-37.59765625,-54.6875,-41.50390625,-28.80859375
-11.23046875,-39.55078125,-38.57421875,78.61328125
-28.3203125,-37.109375,-39.0625,30.76171875
-66.40625,-53.7109375,-46.38671875,-97.16796875
-71.2890625,-62.01171875,-47.8515625,-140.13671875
-32.2265625,-48.828125,-43.9453125,-41.015625
0.48828125,-36.1328125,-44.921875,67.87109375
-18.06640625,-37.109375,-52.734375,28.80859375
-63.4765625,-44.921875,-51.7578125,-98.14453125
-77.63671875,-56.15234375,-49.8046875,-153.80859375
-42.48046875,-48.33984375,-46.875,-61.03515625
-15.13671875,-33.203125,-35.64453125,63.4765625
-24.4140625,-29.78515625,-36.62109375,46.875
-64.94140625,-44.921875,-44.43359375,-89.35546875
-84.47265625,-61.5234375,-45.41015625,-164.0625
-51.26953125,-55.6640625,-48.828125,-92.28515625
-20.99609375,-41.015625,-46.38671875,30.76171875
-24.4140625,-32.2265625,-37.109375,49.8046875
-70.3125,-51.26953125,-41.015625,-69.3359375
-101.07421875,-73.2421875,-46.38671875,-160.15625
-68.359375,-64.453125,-39.55078125,-95.21484375
-34.66796875,-48.33984375,-37.109375,34.1796875
-40.52734375,-48.33984375,-38.0859375,56.640625
-81.0546875,-57.6171875,-38.57421875,-57.6171875
-100.5859375,-64.453125,-41.50390625,-148.92578125
-71.2890625,-61.03515625,-48.33984375,-113.28125
-31.25,-44.43359375,-48.33984375,7.8125
-19.53125,-33.69140625,-47.8515625,47.8515625
-46.875,-42.96875,-52.734375,-53.22265625
-71.2890625,-51.26953125,-53.7109375,-143.06640625
-64.453125,-63.4765625,-51.7578125,-120.1171875
-21.97265625,-54.6875,-43.9453125,3.90625
-9.765625,-37.109375,-37.109375,61.5234375
-57.6171875,-51.26953125,-45.41015625,-41.9921875
-85.9375,-66.40625,-58.10546875,-151.3671875
-69.3359375,-62.01171875,-53.7109375,-144.53125
-31.73828125,-45.41015625,-40.52734375,-15.625
-22.94921875,-38.0859375,-34.1796875,70.3125
-61.03515625,-43.9453125,-37.59765625,-13.18359375
-90.33203125,-55.6640625,-40.52734375,-126.953125
-78.125,-63.96484375,-43.45703125,-133.7890625
-37.109375,-49.31640625,-44.43359375,-20.01953125
-9.765625,-32.2265625,-38.57421875,78.125
-42.96875,-45.41015625,-43.45703125,15.625
-81.54296875,-65.4296875,-45.41015625,-106.4453125
-86.9140625,-70.80078125,-47.8515625,-138.671875
-48.33984375,-59.5703125,-49.8046875,-34.66796875
-12.20703125,-38.57421875,-46.38671875,73.2421875
-29.296875,-38.57421875,-48.33984375,22.4609375
-62.5,-49.31640625,-54.19921875,-107.91015625
-66.89453125,-49.8046875,-61.03515625,-150.390625
-33.203125,-46.38671875,-55.6640625,-50.29296875
-10.7421875,-37.109375,-42.48046875,59.08203125
-28.3203125,-26.85546875,-37.109375,27.83203125
-71.77734375,-40.0390625,-45.8984375,-98.6328125
-83.49609375,-52.734375,-52.24609375,-156.25
-44.921875,-45.8984375,-49.8046875,-68.84765625
-21.484375,-41.015625,-46.38671875,43.45703125
-36.1328125,-40.0390625,-45.8984375,23.92578125
-77.63671875,-42.48046875,-54.6875,-101.5625
-96.6796875,-56.15234375,-63.96484375,-180.6640625
-60.546875,-58.59375,-53.22265625,-106.93359375
-29.296875,-45.8984375,-40.0390625,30.2734375
-34.1796875,-41.015625,-43.9453125,44.921875
-64.94140625,-45.8984375,-52.24609375,-71.2890625
-80.078125,-51.7578125,-52.24609375,-147.4609375
-47.8515625,-52.734375,-50.78125,-87.890625
-14.16015625,-43.9453125,-53.22265625,36.1328125
-4.8828125,-33.203125,-47.8515625,75.68359375
-40.52734375,-36.62109375,-45.8984375,-29.296875
-77.1484375,-45.8984375,-48.33984375,-137.6953125
-52.734375,-43.9453125,-43.45703125,-100.5859375
-7.32421875,-36.1328125,-38.57421875,37.109375
0.0,-35.64453125,-44.43359375,78.61328125
-40.52734375,-38.57421875,-49.8046875,-27.83203125
-74.70703125,-50.78125,-46.38671875,-131.34765625
-59.08203125,-56.640625,-46.875,-111.328125
-19.04296875,-40.0390625,-46.875,13.18359375
-11.71875,-33.203125,-46.875,68.359375
-49.8046875,-43.9453125,-50.29296875,-31.25
-84.47265625,-51.7578125,-51.26953125,-144.04296875
-71.2890625,-53.7109375,-47.8515625,-140.13671875
-27.83203125,-41.50390625,-41.015625,-12.6953125
-10.7421875,-29.296875,-40.52734375,71.2890625
-46.38671875,-34.1796875,-50.78125,-16.11328125
-85.44921875,-48.33984375,-56.640625,-132.32421875
-83.0078125,-53.22265625,-51.7578125,-136.23046875
-39.55078125,-40.0390625,-41.50390625,-16.6015625
-12.20703125,-28.3203125,-32.71484375,85.44921875
-42.48046875,-30.2734375,-35.15625,20.5078125
-73.73046875,-43.45703125,-45.8984375,-109.375
-70.3125,-50.78125,-49.8046875,-142.08984375
-34.66796875,-43.45703125,-48.33984375,-41.50390625
2.44140625,-30.76171875,-42.96875,71.2890625
-15.13671875,-24.4140625,-44.921875,25.87890625
-64.94140625,-36.62109375,-49.8046875,-106.4453125
-73.2421875,-46.875,-43.9453125,-148.4375
-34.66796875,-39.0625,-44.43359375,-55.6640625
-8.30078125,-25.87890625,-45.41015625,56.640625
-24.90234375,-21.484375,-46.38671875,32.71484375
-60.546875,-31.25,-51.7578125,-92.28515625
-78.61328125,-44.43359375,-56.640625,-154.78515625
-54.19921875,-45.41015625,-48.33984375,-68.359375
-26.3671875,-43.9453125,-41.9921875,51.7578125
-38.57421875,-41.015625,-48.33984375,36.1328125
-75.68359375,-44.43359375,-51.7578125,-86.9140625
-83.0078125,-52.24609375,-54.6875,-161.1328125
-47.36328125,-47.8515625,-58.10546875,-97.16796875
-9.765625,-31.73828125,-49.31640625,28.3203125
-13.671875,-26.85546875,-41.015625,46.38671875
-61.03515625,-40.52734375,-50.78125,-65.91796875
-83.49609375,-49.31640625,-55.6640625,-158.69140625
-51.7578125,-42.96875,-55.17578125,-114.2578125
-5.859375,-25.390625,-46.38671875,20.99609375
-4.39453125,-22.94921875,-38.0859375,66.40625
-53.22265625,-47.8515625,-43.9453125,-46.875
-82.03125,-58.10546875,-50.29296875,-147.4609375
-56.640625,-50.29296875,-45.41015625,-112.79296875
-17.578125,-41.9921875,-34.66796875,13.671875
-10.7421875,-35.15625,-30.76171875,68.84765625
-48.33984375,-38.57421875,-38.0859375,-32.71484375
-82.51953125,-57.12890625,-47.8515625,-145.99609375
-71.77734375,-65.4296875,-42.96875,-132.8125
-31.73828125,-57.12890625,-32.2265625,-1.953125
-16.6015625,-44.921875,-29.78515625,76.66015625
-48.33984375,-38.0859375,-35.64453125,-8.7890625
-87.890625,-52.734375,-46.875,-126.46484375
-80.078125,-69.3359375,-44.921875,-131.34765625
-30.76171875,-60.546875,-40.52734375,-5.859375
-9.765625,-42.96875,-41.50390625,82.51953125
-43.45703125,-40.0390625,-47.8515625,-0.9765625
-71.77734375,-48.828125,-56.640625,-125.9765625
-62.98828125,-48.828125,-53.7109375,-144.53125
-31.25,-44.921875,-43.45703125,-28.80859375
-10.7421875,-41.50390625,-38.0859375,78.125
-40.52734375,-40.0390625,-41.015625,17.08984375
-77.63671875,-51.26953125,-48.828125,-108.88671875
-71.77734375,-52.24609375,-55.17578125,-142.578125
-32.71484375,-43.45703125,-56.640625,-42.96875
-2.9296875,-37.59765625,-48.33984375,66.89453125
-18.5546875,-30.2734375,-46.875,27.83203125
-58.59375,-43.45703125,-60.05859375,-98.6328125
-68.84765625,-59.08203125,-61.03515625,-147.94921875
-40.0390625,-53.22265625,-53.22265625,-57.12890625
-10.25390625,-38.57421875,-44.921875,60.546875
-25.390625,-34.66796875,-44.921875,38.57421875
-70.3125,-47.8515625,-55.17578125,-88.37890625
-91.30859375,-58.10546875,-58.10546875,-161.62109375
-55.17578125,-51.26953125,-47.8515625,-87.40234375
-16.11328125,-37.59765625,-39.0625,44.921875
-18.06640625,-31.25,-42.96875,54.19921875
-48.828125,-40.0390625,-50.78125,-67.3828125
-72.265625,-52.734375,-59.5703125,-157.2265625
-43.45703125,-55.6640625,-60.546875,-94.7265625
-4.8828125,-43.45703125,-51.7578125,38.57421875
-10.25390625,-32.71484375,-50.29296875,60.546875
-51.26953125,-40.52734375,-56.15234375,-57.6171875
-72.265625,-54.19921875,-57.12890625,-149.4140625
-45.41015625,-53.7109375,-51.26953125,-96.6796875
-13.671875,-43.9453125,-44.921875,34.66796875
-15.625,-41.50390625,-43.45703125,71.77734375
-44.921875,-32.71484375,-33.69140625,-28.3203125
-68.359375,-34.1796875,-32.2265625,-134.27734375
-55.6640625,-49.8046875,-39.55078125,-116.69921875
-16.6015625,-45.41015625,-38.0859375,10.7421875
-11.71875,-37.59765625,-39.55078125,64.94140625
-56.640625,-42.96875,-43.45703125,-35.64453125
-87.40234375,-49.8046875,-39.55078125,-141.11328125
-70.3125,-47.8515625,-38.57421875,-131.8359375
-30.2734375,-38.57421875,-40.0390625,-7.32421875
-21.97265625,-35.15625,-42.96875,65.4296875
-54.6875,-41.015625,-50.78125,-22.4609375
-79.1015625,-52.24609375,-54.6875,-131.34765625
-71.2890625,-54.19921875,-54.19921875,-139.16015625
-41.015625,-49.31640625,-49.31640625,-21.484375
-20.99609375,-42.96875,-36.62109375,73.73046875
-49.31640625,-39.0625,-41.015625,-3.90625
-89.35546875,-48.828125,-55.17578125,-131.8359375
-86.9140625,-58.10546875,-53.7109375,-160.15625
-41.50390625,-50.29296875,-54.19921875,-50.78125
-9.765625,-35.15625,-55.6640625,62.5
-38.57421875,-33.69140625,-41.50390625,20.99609375
-84.47265625,-50.29296875,-39.0625,-103.02734375
-84.47265625,-60.05859375,-45.41015625,-144.53125
-46.875,-56.640625,-47.8515625,-46.38671875
-14.6484375,-40.0390625,-40.0390625,68.359375
-32.2265625,-32.71484375,-39.55078125,29.78515625
-82.03125,-51.7578125,-51.26953125,-104.4921875
-95.703125,-64.94140625,-52.24609375,-165.52734375
-54.19921875,-54.6875,-45.8984375,-77.63671875
-16.11328125,-41.9921875,-37.59765625,49.8046875
-32.2265625,-40.52734375,-38.0859375,36.1328125
-80.56640625,-48.828125,-51.7578125,-92.28515625
-98.14453125,-66.89453125,-54.6875,-166.015625
-62.98828125,-66.89453125,-56.15234375,-94.7265625
-25.87890625,-51.7578125,-57.6171875,29.78515625
-22.4609375,-36.62109375,-44.921875,42.96875
-59.08203125,-40.52734375,-42.48046875,-66.89453125
-91.796875,-61.5234375,-47.36328125,-152.34375
-67.87109375,-69.82421875,-44.921875,-94.7265625
-25.87890625,-55.6640625,-46.875,33.203125
-17.08984375,-37.109375,-42.96875,61.03515625
-48.828125,-38.0859375,-44.43359375,-47.36328125
-77.63671875,-54.19921875,-55.6640625,-144.53125
-57.6171875,-57.12890625,-49.8046875,-103.02734375
-14.6484375,-45.41015625,-42.96875,33.69140625
-4.39453125,-37.109375,-48.33984375,83.984375
-40.52734375,-37.109375,-49.31640625,-27.83203125
-75.1953125,-45.8984375,-53.7109375,-145.5078125
-58.59375,-43.45703125,-56.15234375,-128.41796875
-12.20703125,-32.71484375,-46.38671875,5.37109375
-5.859375,-27.83203125,-38.57421875,76.66015625
-49.8046875,-35.15625,-40.52734375,-19.53125
-82.03125,-49.31640625,-47.8515625,-138.18359375
-68.359375,-53.22265625,-49.31640625,-133.7890625
-29.296875,-41.015625,-41.015625,-3.90625
-6.34765625,-28.3203125,-34.66796875,86.42578125
-34.1796875,-32.2265625,-34.66796875,7.8125
-64.94140625,-43.45703125,-36.1328125,-106.93359375
-63.96484375,-50.29296875,-40.0390625,-126.953125
-33.203125,-43.9453125,-36.1328125,-20.5078125
-7.32421875,-30.76171875,-31.73828125,81.0546875
-31.73828125,-30.76171875,-33.69140625,21.484375
-71.2890625,-47.36328125,-41.9921875,-104.00390625
-71.2890625,-58.59375,-41.9921875,-135.7421875
-30.76171875,-54.19921875,-36.62109375,-34.1796875
-0.48828125,-40.52734375,-43.9453125,79.1015625
-25.390625,-36.1328125,-41.015625,41.9921875
-70.80078125,-48.33984375,-41.015625,-86.9140625
-76.66015625,-55.17578125,-49.31640625,-139.6484375
-43.9453125,-50.78125,-52.734375,-50.78125
-19.53125,-41.9921875,-51.7578125,61.03515625
-41.50390625,-41.9921875,-57.6171875,28.3203125
-79.58984375,-49.31640625,-64.453125,-95.21484375
-88.37890625,-64.94140625,-63.96484375,-154.78515625
-51.26953125,-64.453125,-61.03515625,-74.70703125
-18.06640625,-43.45703125,-56.640625,43.9453125
-33.69140625,-38.0859375,-57.12890625,35.15625
-71.2890625,-54.6875,-60.05859375,-87.40234375
-84.9609375,-62.98828125,-62.01171875,-166.015625
-56.15234375,-57.6171875,-62.5,-93.26171875
-13.671875,-41.015625,-52.734375,40.52734375
-16.6015625,-33.203125,-45.41015625,50.29296875
-54.19921875,-45.41015625,-46.875,-61.5234375
-73.2421875,-53.22265625,-52.734375,-144.04296875
-51.7578125,-43.9453125,-56.15234375,-92.7734375
-19.53125,-35.15625,-57.12890625,26.3671875
-17.578125,-34.66796875,-56.15234375,50.29296875
-50.78125,-43.9453125,-50.78125,-46.875
-79.1015625,-54.6875,-50.78125,-139.6484375
-58.10546875,-51.7578125,-48.828125,-109.375
-20.01953125,-40.0390625,-46.38671875,20.01953125
-11.71875,-27.83203125,-44.43359375,71.77734375
-48.33984375,-36.62109375,-45.8984375,-34.66796875
-78.125,-52.734375,-54.6875,-145.99609375
-71.2890625,-54.6875,-60.546875,-131.8359375
-39.0625,-45.41015625,-53.7109375,-8.7890625
-18.5546875,-26.85546875,-42.96875,70.3125
-49.31640625,-31.73828125,-46.875,-17.08984375
-87.890625,-50.29296875,-60.546875,-143.06640625
-78.125,-53.22265625,-55.6640625,-141.11328125
-34.66796875,-41.9921875,-43.45703125,-13.671875
-15.625,-27.34375,-41.50390625,70.3125
-50.29296875,-26.3671875,-42.96875,-12.20703125
-87.40234375,-44.43359375,-47.8515625,-133.30078125
-75.68359375,-48.828125,-49.8046875,-143.5546875
-24.90234375,-30.2734375,-49.31640625,-30.76171875
1.46484375,-16.6015625,-46.875,70.80078125
-29.78515625,-27.83203125,-41.50390625,14.6484375
-66.40625,-39.55078125,-44.921875,-110.3515625
-64.94140625,-43.45703125,-49.31640625,-145.01953125
-35.15625,-45.41015625,-42.48046875,-42.96875
-11.71875,-37.109375,-30.76171875,69.82421875
-24.90234375,-30.76171875,-32.2265625,32.71484375
-69.3359375,-42.48046875,-48.828125,-103.515625
-84.9609375,-57.6171875,-47.8515625,-163.0859375
-42.96875,-49.31640625,-41.015625,-64.94140625
-3.41796875,-33.69140625,-39.0625,60.546875
-28.3203125,-27.83203125,-39.0625,33.69140625
-81.0546875,-39.0625,-48.33984375,-103.02734375
-89.35546875,-51.26953125,-49.8046875,-172.8515625
-46.875,-32.2265625,-50.29296875,-87.890625
-12.20703125,-9.765625,-47.8515625,36.62109375
-32.2265625,-24.90234375,-45.41015625,29.296875
-75.1953125,-42.48046875,-54.19921875,-94.23828125
-87.40234375,-50.78125,-54.19921875,-170.41015625
-50.29296875,-55.6640625,-47.8515625,-100.5859375
-7.32421875,-37.59765625,-42.48046875,33.203125
-15.13671875,-19.04296875,-43.45703125,52.24609375
-57.6171875,-39.0625,-54.19921875,-64.94140625
-74.70703125,-56.640625,-56.15234375,-149.4140625
-43.45703125,-52.734375,-47.36328125,-90.8203125
-8.30078125,-42.96875,-44.43359375,40.0390625
-5.37109375,-26.85546875,-41.9921875,78.125
-45.41015625,-31.25,-38.0859375,-33.203125
-80.078125,-51.7578125,-42.48046875,-142.578125
-62.5,-47.8515625,-48.828125,-117.67578125
-19.04296875,-33.203125,-43.9453125,10.7421875
-11.23046875,-25.390625,-42.48046875,65.91796875
-52.24609375,-32.2265625,-49.31640625,-38.0859375
-85.9375,-51.7578125,-49.8046875,-146.484375
-76.66015625,-55.6640625,-45.8984375,-131.34765625
-40.0390625,-42.48046875,-42.96875,-8.30078125
-23.4375,-35.64453125,-37.59765625,67.87109375
-53.7109375,-38.57421875,-41.50390625,-15.13671875
-88.8671875,-44.921875,-51.26953125,-129.8828125
-89.35546875,-62.01171875,-55.6640625,-144.04296875
-49.8046875,-62.01171875,-56.640625,-29.78515625
-20.01953125,-43.45703125,-50.78125,72.265625
-55.17578125,-43.9453125,-41.015625,0.9765625
-99.12109375,-58.10546875,-41.015625,-127.44140625
-89.35546875,-63.96484375,-44.43359375,-144.53125
-41.015625,-53.7109375,-43.9453125,-31.73828125
-13.18359375,-45.8984375,-42.96875,70.80078125
-39.0625,-50.78125,-41.9921875,16.11328125
-73.2421875,-63.4765625,-45.8984375,-104.98046875
-73.2421875,-68.84765625,-42.48046875,-140.625
-33.203125,-56.640625,-35.15625,-42.96875
-3.41796875,-45.41015625,-30.2734375,75.68359375
-20.99609375,-41.50390625,-30.76171875,44.921875
-63.4765625,-53.22265625,-37.59765625,-84.47265625
-75.68359375,-66.40625,-42.96875,-139.6484375
-37.59765625,-54.6875,-47.36328125,-54.6875
-14.6484375,-39.55078125,-48.33984375,51.7578125
-21.484375,-34.1796875,-44.921875,40.0390625
-57.12890625,-44.921875,-47.8515625,-78.125
-85.44921875,-53.22265625,-52.734375,-156.25
-46.38671875,-45.41015625,-49.31640625,-82.03125
-2.9296875,-38.57421875,-46.875,49.8046875
-8.7890625,-31.25,-43.9453125,55.17578125
-55.17578125,-42.48046875,-49.31640625,-73.2421875
-81.0546875,-62.01171875,-59.08203125,-169.921875
-54.6875,-62.98828125,-49.8046875,-111.328125
-20.99609375,-46.875,-40.52734375,21.484375
-23.4375,-38.57421875,-46.875,41.9921875
-59.5703125,-45.41015625,-45.41015625,-62.01171875
-79.58984375,-54.6875,-44.43359375,-147.4609375
-63.96484375,-57.12890625,-49.31640625,-110.3515625
-27.34375,-45.41015625,-42.96875,17.08984375
-21.484375,-36.1328125,-41.50390625,54.6875
-58.10546875,-43.9453125,-44.921875,-51.7578125
-83.0078125,-50.78125,-52.734375,-153.3203125
-62.5,-46.38671875,-57.12890625,-130.37109375
-26.3671875,-42.48046875,-47.8515625,-4.39453125
-22.4609375,-40.0390625,-43.9453125,56.15234375
-53.22265625,-44.43359375,-43.45703125,-30.2734375
-78.61328125,-58.59375,-44.43359375,-140.13671875
-76.171875,-63.96484375,-45.8984375,-145.01953125
-34.1796875,-49.31640625,-39.0625,-16.6015625
-7.8125,-34.66796875,-41.50390625,74.21875
-42.96875,-34.66796875,-50.29296875,-12.6953125
-82.51953125,-41.9921875,-55.17578125,-140.625
-79.1015625,-50.78125,-52.24609375,-159.66796875
-35.64453125,-39.0625,-38.57421875,-33.69140625
-11.23046875,-29.296875,-34.66796875,66.89453125
-41.015625,-41.50390625,-43.9453125,-0.9765625
-78.61328125,-49.8046875,-48.33984375,-122.0703125
-80.56640625,-50.29296875,-51.26953125,-150.390625
-34.66796875,-42.96875,-49.8046875,-41.015625
-1.46484375,-32.71484375,-43.45703125,73.2421875
-26.3671875,-26.85546875,-50.29296875,24.4140625
-62.98828125,-35.64453125,-51.26953125,-104.98046875
-69.82421875,-49.8046875,-46.38671875,-153.80859375
-36.62109375,-48.828125,-44.921875,-61.03515625
-1.46484375,-36.62109375,-38.0859375,54.19921875
-15.13671875,-20.99609375,-37.109375,27.34375
-57.6171875,-29.296875,-46.38671875,-98.14453125
-77.63671875,-49.8046875,-46.875,-153.80859375
-46.38671875,-50.78125,-41.9921875,-69.3359375
-15.13671875,-37.59765625,-41.9921875,50.29296875
-27.83203125,-28.80859375,-41.50390625,39.55078125
-68.84765625,-40.0390625,-45.41015625,-89.35546875
-89.35546875,-57.6171875,-52.734375,-171.38671875
-60.546875,-55.17578125,-48.33984375,-101.5625
-25.390625,-41.015625,-40.0390625,27.34375
-31.73828125,-41.50390625,-41.9921875,31.73828125
-70.3125,-49.8046875,-52.24609375,-83.984375
-90.8203125,-54.19921875,-55.6640625,-165.0390625
-64.94140625,-57.6171875,-53.7109375,-112.79296875
-21.97265625,-50.78125,-49.8046875,13.671875
-10.25390625,-33.69140625,-44.43359375,42.48046875
-47.8515625,-39.55078125,-51.7578125,-60.546875
-79.1015625,-55.6640625,-56.640625,-153.80859375
-56.15234375,-55.6640625,-48.828125,-115.234375
-11.71875,-45.8984375,-34.66796875,18.5546875
-7.8125,-37.109375,-31.25,60.546875
-47.8515625,-42.96875,-38.0859375,-43.45703125
-77.63671875,-58.59375,-42.48046875,-145.01953125
-71.77734375,-68.359375,-46.875,-130.37109375
-29.296875,-50.78125,-45.41015625,0.0
-6.8359375,-28.3203125,-41.9921875,74.21875
-47.36328125,-33.69140625,-47.36328125,-30.76171875
-86.9140625,-44.921875,-54.6875,-157.2265625
-72.75390625,-49.8046875,-54.19921875,-152.83203125
-26.85546875,-43.45703125,-41.9921875,-25.390625
-12.6953125,-28.3203125,-36.1328125,58.59375
-45.41015625,-30.76171875,-42.48046875,-21.484375
-79.58984375,-50.29296875,-51.7578125,-140.625
-76.66015625,-62.5,-54.19921875,-158.69140625
-24.90234375,-53.22265625,-46.38671875,-38.0859375
3.41796875,-35.64453125,-40.52734375,66.40625
-36.1328125,-35.64453125,-45.41015625,2.44140625
-74.70703125,-46.38671875,-57.6171875,-119.62890625
-75.1953125,-61.03515625,-59.5703125,-157.71484375
-31.25,-56.640625,-48.828125,-53.7109375
1.46484375,-41.50390625,-32.2265625,72.265625
-31.73828125,-44.921875,-35.15625,27.34375
-81.0546875,-55.17578125,-43.45703125,-106.93359375
-87.890625,-61.5234375,-42.96875,-152.34375
-45.41015625,-55.17578125,-45.41015625,-59.08203125
-10.25390625,-37.59765625,-43.9453125,55.17578125
-29.78515625,-36.1328125,-46.38671875,22.94921875
-69.3359375,-48.33984375,-52.734375,-102.5390625
-75.1953125,-51.7578125,-51.7578125,-159.1796875
-46.38671875,-51.7578125,-48.828125,-91.796875
-14.16015625,-42.96875,-47.8515625,25.390625
-21.97265625,-31.25,-48.33984375,22.94921875
-62.5,-36.1328125,-55.6640625,-93.75
-81.0546875,-55.17578125,-56.640625,-168.9453125
-53.22265625,-53.7109375,-52.24609375,-100.5859375
-15.13671875,-33.69140625,-41.50390625,32.2265625
-20.99609375,-26.3671875,-40.52734375,43.45703125
-61.03515625,-40.0390625,-48.33984375,-69.3359375
-83.0078125,-48.33984375,-46.875,-149.90234375
-61.5234375,-44.43359375,-41.015625,-99.12109375
-23.4375,-32.2265625,-37.109375,25.390625
-21.97265625,-21.97265625,-46.38671875,55.17578125
-60.05859375,-34.66796875,-56.15234375,-53.7109375
-83.49609375,-50.29296875,-54.19921875,-150.390625
-64.94140625,-54.19921875,-46.875,-119.62890625
-20.01953125,-48.33984375,-41.015625,10.7421875
-8.7890625,-35.15625,-40.52734375,64.453125
-52.734375,-42.48046875,-51.7578125,-45.41015625
-81.54296875,-63.96484375,-61.03515625,-157.2265625
-62.01171875,-68.84765625,-54.6875,-139.6484375
-26.85546875,-58.10546875,-47.36328125,-13.671875
-6.34765625,-40.0390625,-45.41015625,64.94140625
-25.390625,-34.1796875,-47.8515625,-16.11328125
-66.40625,-48.33984375,-51.7578125,-138.18359375
-67.3828125,-60.05859375,-54.19921875,-146.484375
-26.85546875,-50.29296875,-50.29296875,-21.97265625
-7.8125,-35.64453125,-46.38671875,64.94140625
-48.828125,-41.015625,-45.41015625,-3.41796875
-99.12109375,-59.08203125,-45.8984375,-113.28125
-100.5859375,-66.89453125,-47.36328125,-132.8125
-62.98828125,-54.6875,-43.45703125,-22.94921875
-30.76171875,-42.48046875,-34.66796875,80.078125
-44.43359375,-45.41015625,-36.1328125,26.3671875
-78.125,-55.6640625,-42.96875,-99.609375
-88.37890625,-58.10546875,-48.33984375,-143.5546875
-51.7578125,-52.24609375,-47.36328125,-55.17578125
-11.23046875,-45.41015625,-40.0390625,60.05859375
-22.4609375,-34.66796875,-41.50390625,26.85546875
-63.96484375,-41.9921875,-50.29296875,-107.421875
-82.03125,-57.6171875,-54.19921875,-160.64453125
-51.7578125,-45.41015625,-47.8515625,-71.77734375
-13.18359375,-28.3203125,-43.9453125,46.38671875
-25.87890625,-27.83203125,-43.9453125,30.2734375
-75.68359375,-44.43359375,-45.41015625,-92.7734375
-92.7734375,-57.12890625,-48.828125,-163.0859375
-66.89453125,-53.7109375,-43.9453125,-88.8671875
-29.296875,-40.0390625,-38.0859375,35.15625
-26.85546875,-31.25,-39.55078125,36.62109375
-69.3359375,-43.45703125,-42.48046875,-86.42578125
-90.8203125,-58.59375,-42.96875,-161.62109375
-55.6640625,-56.640625,-39.55078125,-91.796875
-18.06640625,-43.45703125,-35.15625,36.1328125
-16.11328125,-34.66796875,-35.64453125,58.59375
-50.29296875,-39.55078125,-44.921875,-57.12890625
-85.44921875,-57.6171875,-50.29296875,-158.203125
-65.4296875,-58.59375,-45.41015625,-114.2578125
-21.97265625,-39.0625,-45.41015625,15.13671875
-14.16015625,-33.69140625,-46.38671875,52.24609375
-45.41015625,-38.0859375,-43.9453125,-42.96875
-76.66015625,-48.828125,-41.9921875,-137.20703125
-69.3359375,-62.01171875,-42.96875,-114.2578125
-33.203125,-51.26953125,-42.96875,6.34765625
-16.11328125,-31.25,-43.9453125,65.91796875
-50.29296875,-36.62109375,-47.36328125,-28.80859375
-86.42578125,-57.6171875,-58.10546875,-141.11328125
-76.66015625,-61.03515625,-57.6171875,-131.8359375
-38.0859375,-45.8984375,-43.9453125,-11.23046875
-25.390625,-33.203125,-41.50390625,64.94140625
-57.12890625,-37.59765625,-46.38671875,-17.578125
-84.9609375,-48.33984375,-53.7109375,-133.7890625
-79.1015625,-47.8515625,-52.734375,-140.13671875
-34.66796875,-40.0390625,-44.43359375,-18.5546875
-7.8125,-33.203125,-39.55078125,79.58984375
-30.2734375,-34.66796875,-44.43359375,6.8359375
-57.6171875,-45.41015625,-51.7578125,-112.3046875
-58.10546875,-56.640625,-53.22265625,-131.34765625
-28.80859375,-50.29296875,-53.22265625,-27.83203125
-0.48828125,-31.73828125,-49.31640625,77.1484375
-15.13671875,-33.203125,-42.48046875,30.2734375
-56.15234375,-47.36328125,-41.50390625,-91.30859375
-73.2421875,-57.6171875,-49.31640625,-138.18359375
-44.921875,-49.8046875,-52.24609375,-43.9453125
-13.671875,-28.80859375,-45.41015625,67.87109375
-32.71484375,-32.2265625,-44.43359375,30.2734375
-77.1484375,-52.734375,-53.7109375,-97.16796875
-87.40234375,-57.6171875,-58.10546875,-157.71484375
-49.8046875,-45.8984375,-47.8515625,-70.80078125
-23.4375,-35.64453125,-42.96875,41.9921875
-41.015625,-34.66796875,-45.8984375,18.5546875
-76.66015625,-43.9453125,-46.875,-96.19140625
-98.14453125,-61.03515625,-43.45703125,-155.76171875
-65.91796875,-54.19921875,-39.55078125,-78.61328125
-30.76171875,-38.57421875,-39.55078125,41.50390625
-39.55078125,-37.59765625,-37.109375,43.9453125
-64.94140625,-44.921875,-39.0625,-68.84765625
-82.03125,-64.94140625,-50.29296875,-151.85546875
-57.6171875,-65.91796875,-50.29296875,-99.12109375
-21.97265625,-49.31640625,-47.8515625,23.92578125
-18.06640625,-43.9453125,-49.8046875,54.6875
-52.24609375,-49.31640625,-50.78125,-49.8046875
-80.078125,-59.5703125,-54.6875,-142.08984375
-53.22265625,-60.546875,-53.7109375,-98.14453125
-13.18359375,-43.9453125,-46.38671875,27.34375
-8.30078125,-36.1328125,-44.43359375,66.40625
-49.8046875,-48.828125,-52.734375,-41.50390625
-81.54296875,-56.15234375,-59.5703125,-144.04296875
-67.3828125,-53.7109375,-57.12890625,-123.53515625
-32.2265625,-45.8984375,-53.22265625,-1.953125
-23.92578125,-42.48046875,-51.7578125,60.05859375
-61.03515625,-50.29296875,-50.78125,-32.71484375
-94.7265625,-64.453125,-58.59375,-146.97265625
-83.0078125,-68.84765625,-60.546875,-143.06640625
-40.52734375,-53.7109375,-52.734375,-19.04296875
-14.16015625,-38.0859375,-47.36328125,58.59375
-41.015625,-41.015625,-48.828125,-22.94921875
-71.2890625,-51.26953125,-50.29296875,-130.37109375
-73.73046875,-60.05859375,-53.7109375,-141.11328125
-40.52734375,-49.8046875,-46.875,-28.80859375
-10.7421875,-28.80859375,-44.921875,68.359375
-38.0859375,-37.59765625,-47.8515625,5.859375
-75.68359375,-59.5703125,-47.8515625,-111.328125
-77.1484375,-60.546875,-52.24609375,-137.6953125
-43.9453125,-58.10546875,-48.828125,-36.62109375
-16.11328125,-47.8515625,-38.0859375,67.3828125
-35.15625,-38.0859375,-39.55078125,18.5546875
-68.84765625,-47.36328125,-45.8984375,-106.4453125
-75.1953125,-56.640625,-48.828125,-151.85546875
-38.57421875,-51.7578125,-47.36328125,-58.10546875
-11.71875,-41.015625,-43.9453125,54.19921875
-35.64453125,-42.96875,-49.8046875,22.94921875
-73.73046875,-49.31640625,-56.15234375,-94.23828125
-84.47265625,-51.26953125,-57.6171875,-151.85546875
-62.5,-56.640625,-61.03515625,-83.49609375
-26.3671875,-48.33984375,-56.640625,41.015625
-28.80859375,-40.0390625,-53.22265625,43.45703125
-66.40625,-48.33984375,-56.640625,-80.078125
-86.9140625,-54.6875,-57.6171875,-160.15625
-56.15234375,-52.24609375,-55.6640625,-90.8203125
-18.06640625,-44.921875,-52.734375,35.64453125
-18.5546875,-38.57421875,-47.36328125,46.875
-58.59375,-44.43359375,-44.43359375,-73.73046875
-88.37890625,-55.17578125,-52.734375,-171.38671875
-63.96484375,-53.22265625,-56.640625,-119.140625
-32.71484375,-45.8984375,-47.8515625,14.6484375
-33.69140625,-42.96875,-39.55078125,41.015625
-74.21875,-53.7109375,-41.50390625,-75.68359375
-106.4453125,-62.01171875,-49.31640625,-174.31640625
-75.1953125,-56.640625,-51.26953125,-130.37109375
-27.34375,-44.921875,-43.45703125,9.27734375
-22.4609375,-36.62109375,-38.0859375,58.59375
-62.5,-41.9921875,-36.1328125,-46.38671875
-87.40234375,-51.7578125,-42.96875,-152.83203125
-77.63671875,-58.59375,-47.8515625,-133.30078125
-42.48046875,-56.15234375,-36.62109375,1.953125
-22.94921875,-39.55078125,-31.73828125,73.73046875
-64.94140625,-36.1328125,-42.96875,-29.78515625
-104.98046875,-52.24609375,-51.7578125,-153.80859375
-87.890625,-57.6171875,-55.6640625,-150.87890625
-40.0390625,-43.9453125,-48.828125,-25.390625
-24.90234375,-31.73828125,-46.875,58.59375
-55.6640625,-33.69140625,-50.29296875,-19.53125
-87.40234375,-45.8984375,-54.6875,-135.25390625
-91.796875,-50.78125,-57.6171875,-154.78515625
-54.6875,-43.9453125,-46.38671875,-44.43359375
-25.87890625,-29.296875,-42.96875,53.22265625
-54.6875,-28.80859375,-52.734375,-14.16015625
-89.84375,-41.50390625,-58.10546875,-134.27734375
-93.26171875,-48.33984375,-56.640625,-159.66796875
-63.4765625,-53.22265625,-51.26953125,-54.6875
-27.34375,-42.96875,-44.921875,60.05859375
-40.52734375,-38.0859375,-45.41015625,20.5078125
-81.0546875,-54.6875,-53.22265625,-106.4453125
-90.8203125,-61.03515625,-52.24609375,-158.69140625
-59.08203125,-49.31640625,-51.7578125,-73.73046875
-21.97265625,-31.25,-51.7578125,45.41015625
-25.390625,-27.83203125,-45.8984375,31.73828125
-61.03515625,-44.43359375,-41.015625,-79.58984375
-84.47265625,-61.03515625,-52.24609375,-152.34375
-56.640625,-51.7578125,-59.08203125,-82.03125
-16.6015625,-36.62109375,-46.38671875,56.15234375
-34.1796875,-42.96875,-45.8984375,44.921875
-77.1484375,-52.734375,-51.7578125,-80.078125
-87.890625,-62.98828125,-51.7578125,-151.85546875
-59.08203125,-65.4296875,-44.921875,-85.9375
-23.4375,-52.734375,-34.66796875,48.828125
-22.94921875,-41.015625,-35.15625,67.87109375
-61.5234375,-46.38671875,-41.50390625,-51.7578125
-82.51953125,-54.19921875,-45.8984375,-143.5546875
-53.22265625,-47.36328125,-48.828125,-97.65625
-15.625,-35.15625,-44.921875,28.3203125
-9.27734375,-24.4140625,-42.48046875,62.01171875
-46.875,-33.69140625,-44.921875,-41.50390625
-81.0546875,-58.10546875,-44.43359375,-141.11328125
-68.84765625,-64.453125,-45.8984375,-119.62890625
-32.71484375,-44.921875,-40.0390625,3.41796875
-21.97265625,-33.69140625,-37.109375,62.5
-56.15234375,-42.48046875,-45.41015625,-31.25
-85.9375,-54.6875,-46.875,-134.27734375
-71.2890625,-58.59375,-48.828125,-121.58203125
-34.66796875,-46.875,-47.36328125,0.9765625
-17.08984375,-29.78515625,-40.0390625,79.58984375
-52.24609375,-35.15625,-44.43359375,-5.37109375
-90.8203125,-48.33984375,-52.734375,-120.60546875
-82.03125,-54.19921875,-54.19921875,-129.8828125
-40.52734375,-51.26953125,-46.38671875,-11.71875
-17.578125,-36.62109375,-39.55078125,76.171875
-45.41015625,-41.50390625,-44.921875,2.9296875
-78.125,-51.26953125,-43.9453125,-109.86328125
-73.73046875,-50.78125,-41.9921875,-131.8359375
-30.2734375,-47.36328125,-47.36328125,-26.3671875
-2.44140625,-38.0859375,-49.8046875,73.2421875
-33.203125,-36.62109375,-49.8046875,12.6953125
-70.3125,-45.8984375,-47.36328125,-107.91015625
-76.66015625,-62.5,-48.828125,-145.5078125
-40.0390625,-51.7578125,-47.36328125,-48.828125
-6.8359375,-32.2265625,-45.8984375,61.5234375
-20.5078125,-37.109375,-49.8046875,22.4609375
-59.5703125,-51.7578125,-53.7109375,-102.5390625
-71.77734375,-62.01171875,-54.6875,-152.83203125
-32.2265625,-43.9453125,-51.26953125,-57.6171875
2.9296875,-19.53125,-48.33984375,58.10546875
-12.6953125,-24.90234375,-50.29296875,33.203125
-54.19921875,-41.9921875,-54.6875,-85.9375
-73.2421875,-53.7109375,-53.7109375,-154.78515625
-39.55078125,-53.22265625,-45.41015625,-82.03125
-2.44140625,-36.62109375,-42.96875,43.9453125
-8.7890625,-25.87890625,-40.0390625,56.640625
-52.734375,-33.69140625,-39.0625,-58.10546875
-82.03125,-53.7109375,-43.9453125,-146.97265625
-49.31640625,-58.59375,-42.48046875,-83.0078125
-12.20703125,-42.48046875,-40.52734375,45.8984375
-23.92578125,-36.1328125,-37.59765625,63.4765625
-59.5703125,-45.8984375,-39.55078125,-52.24609375
-87.40234375,-56.15234375,-47.8515625,-155.2734375
-72.75390625,-56.640625,-48.33984375,-124.51171875
-28.80859375,-37.59765625,-41.015625,5.37109375
-17.08984375,-24.90234375,-36.1328125,54.6875
-53.7109375,-38.57421875,-43.9453125,-56.15234375
-79.1015625,-46.875,-50.29296875,-161.62109375
-62.5,-46.875,-54.6875,-134.765625
-25.390625,-44.921875,-58.10546875,-11.23046875
-7.8125,-34.1796875,-52.734375,56.640625
-37.109375,-38.0859375,-50.29296875,-35.15625
-66.89453125,-56.640625,-49.31640625,-141.6015625
-55.17578125,-56.15234375,-51.26953125,-127.44140625
-20.01953125,-41.9921875,-49.31640625,-6.8359375
-3.41796875,-30.76171875,-40.52734375,68.84765625
-39.55078125,-34.1796875,-45.8984375,-18.5546875
-83.49609375,-49.31640625,-53.22265625,-139.6484375
-83.49609375,-59.5703125,-55.17578125,-149.4140625
-43.45703125,-43.45703125,-49.31640625,-29.296875
-15.13671875,-29.78515625,-41.015625,65.4296875
-46.875,-38.57421875,-43.45703125,-3.90625
-90.33203125,-53.22265625,-46.875,-121.58203125
-89.84375,-60.05859375,-44.921875,-147.94921875
-57.6171875,-47.8515625,-40.52734375,-47.8515625
-30.76171875,-28.80859375,-40.52734375,58.59375
-45.8984375,-32.71484375,-44.921875,9.27734375
-81.54296875,-49.31640625,-50.78125,-119.62890625
-81.0546875,-51.7578125,-54.19921875,-166.015625
-35.15625,-47.8515625,-47.36328125,-70.3125
-6.34765625,-40.52734375,-38.0859375,49.31640625
-29.296875,-36.62109375,-39.0625,20.01953125
-65.91796875,-45.8984375,-49.31640625,-105.46875
-83.49609375,-62.5,-58.59375,-167.48046875
-55.6640625,-62.01171875,-56.640625,-85.9375
-19.53125,-45.41015625,-51.26953125,38.57421875
-31.25,-40.52734375,-48.828125,33.203125
-62.01171875,-48.33984375,-50.78125,-84.9609375
-74.21875,-55.6640625,-53.22265625,-156.25
-52.24609375,-53.7109375,-52.24609375,-88.8671875
-17.578125,-34.66796875,-46.875,36.62109375
-19.53125,-28.80859375,-47.8515625,46.875
-56.15234375,-44.921875,-54.6875,-71.2890625
-74.70703125,-50.78125,-51.7578125,-147.4609375
-43.45703125,-54.6875,-50.29296875,-82.51953125
-3.41796875,-45.8984375,-43.45703125,52.24609375
-9.765625,-31.25,-38.0859375,75.1953125
-48.33984375,-36.62109375,-40.52734375,-41.015625
-69.3359375,-53.7109375,-48.828125,-137.6953125
-49.31640625,-60.546875,-45.8984375,-101.5625
-13.18359375,-50.78125,-35.64453125,31.25
-9.27734375,-44.43359375,-41.015625,76.66015625
-51.7578125,-47.36328125,-47.8515625,-30.2734375
-85.44921875,-53.22265625,-53.7109375,-137.20703125
-68.359375,-53.22265625,-55.6640625,-120.60546875
-24.4140625,-37.109375,-40.52734375,12.6953125
-9.27734375,-20.5078125,-34.66796875,86.42578125
-45.41015625,-34.1796875,-51.7578125,-14.6484375
-77.63671875,-57.6171875,-58.59375,-130.859375
-72.75390625,-61.03515625,-53.7109375,-128.41796875
-34.1796875,-50.78125,-56.15234375,-16.11328125
-4.8828125,-37.59765625,-57.12890625,67.3828125
-43.9453125,-42.48046875,-55.17578125,-5.859375
-89.35546875,-65.4296875,-57.6171875,-125.0
-82.51953125,-73.2421875,-51.26953125,-137.6953125
-38.57421875,-53.22265625,-42.48046875,-21.97265625
-16.6015625,-38.0859375,-43.45703125,67.87109375
-45.41015625,-36.62109375,-51.7578125,3.41796875
-80.078125,-47.8515625,-58.10546875,-120.1171875
-82.51953125,-62.01171875,-59.5703125,-155.76171875
-42.48046875,-55.6640625,-53.22265625,-47.8515625
-8.30078125,-43.45703125,-40.0390625,73.2421875
-28.80859375,-42.48046875,-42.96875,30.76171875
-67.3828125,-51.26953125,-53.22265625,-96.6796875
-79.58984375,-60.05859375,-54.6875,-146.97265625
-45.41015625,-53.22265625,-52.734375,-64.453125
-12.6953125,-41.50390625,-44.921875,48.828125
-24.90234375,-35.15625,-36.1328125,33.203125
-72.75390625,-44.921875,-43.9453125,-91.796875
-94.7265625,-55.6640625,-51.7578125,-163.57421875
-58.10546875,-58.59375,-48.33984375,-81.54296875
-16.11328125,-48.33984375,-41.50390625,47.8515625
-21.484375,-40.52734375,-39.0625,46.38671875
-63.4765625,-51.7578125,-39.0625,-74.70703125
-89.35546875,-67.3828125,-47.36328125,-156.73828125
-58.10546875,-63.96484375,-51.26953125,-90.33203125
-25.87890625,-46.875,-45.41015625,40.0390625
-30.76171875,-46.875,-44.43359375,52.734375
-62.01171875,-54.6875,-41.9921875,-57.6171875
-88.8671875,-67.3828125,-43.45703125,-147.4609375
-60.546875,-64.453125,-39.0625,-96.6796875
-15.625,-42.96875,-28.3203125,42.48046875
-17.08984375,-41.9921875,-28.80859375,71.77734375
-54.6875,-56.15234375,-41.50390625,-44.43359375
-87.40234375,-66.89453125,-51.26953125,-143.06640625
-70.3125,-70.3125,-48.828125,-114.74609375
-22.94921875,-57.12890625,-35.64453125,15.13671875
-20.5078125,-45.8984375,-26.85546875,74.21875
-62.98828125,-52.24609375,-31.25,-26.85546875
-92.28515625,-67.3828125,-39.0625,-131.8359375
-75.68359375,-63.4765625,-40.52734375,-111.81640625
-35.64453125,-54.19921875,-39.0625,8.30078125
-28.3203125,-48.828125,-37.59765625,73.73046875
-67.3828125,-51.7578125,-44.43359375,-19.53125
-93.75,-65.91796875,-45.8984375,-135.25390625
-79.1015625,-71.77734375,-42.48046875,-134.27734375
-47.8515625,-65.4296875,-46.875,-25.390625
-30.2734375,-51.26953125,-45.41015625,54.6875
-63.4765625,-48.33984375,-43.45703125,-20.5078125
-100.09765625,-61.03515625,-46.38671875,-141.11328125
-90.33203125,-71.2890625,-47.8515625,-161.62109375
-52.734375,-61.03515625,-44.921875,-51.7578125
-29.296875,-48.33984375,-45.8984375,43.9453125
-46.38671875,-48.33984375,-43.9453125,0.48828125
-73.2421875,-58.10546875,-41.9921875,-112.3046875
-75.1953125,-62.01171875,-46.875,-151.3671875
-37.109375,-49.31640625,-41.015625,-45.41015625
-10.7421875,-47.36328125,-29.78515625,62.98828125
-32.71484375,-54.19921875,-34.1796875,19.53125
-66.40625,-60.05859375,-42.48046875,-101.07421875
-76.171875,-66.40625,-44.921875,-153.80859375
-45.8984375,-55.6640625,-42.48046875,-67.87109375
-12.6953125,-38.57421875,-35.15625,48.828125
-25.390625,-36.62109375,-32.71484375,32.2265625
-70.3125,-49.8046875,-45.41015625,-85.9375
-82.51953125,-60.546875,-51.7578125,-149.90234375
-50.29296875,-54.6875,-50.78125,-80.078125
-25.390625,-40.0390625,-49.31640625,38.57421875
-36.1328125,-35.15625,-43.45703125,46.38671875
-69.82421875,-47.36328125,-43.45703125,-73.2421875
-90.8203125,-59.5703125,-47.36328125,-154.78515625
-63.4765625,-52.24609375,-49.8046875,-91.796875
-23.92578125,-41.50390625,-49.31640625,33.69140625
-25.87890625,-34.66796875,-46.875,50.78125
-60.546875,-36.1328125,-46.38671875,-56.640625
-83.984375,-48.33984375,-54.6875,-147.4609375
-59.08203125,-49.8046875,-58.59375,-107.91015625
-20.01953125,-40.0390625,-54.6875,18.5546875
-14.16015625,-35.15625,-53.22265625,56.15234375
-51.26953125,-30.76171875,-50.78125,-47.36328125
-83.0078125,-44.921875,-54.19921875,-148.4375
-62.98828125,-59.08203125,-57.12890625,-119.140625
-20.5078125,-41.50390625,-54.19921875,9.765625
-8.30078125,-27.34375,-48.828125,72.265625
-46.38671875,-41.50390625,-46.38671875,-19.53125
-81.0546875,-49.31640625,-48.33984375,-131.34765625
-69.3359375,-50.78125,-46.38671875,-123.046875
