TP9,AF7,AF8,TP10
-52.24609375,-61.5234375,-45.8984375,-83.0078125
-28.3203125,-45.8984375,-42.48046875,60.546875
-39.0625,-48.33984375,-43.9453125,42.48046875
-67.3828125,-55.6640625,-39.0625,-95.703125
-83.0078125,-58.59375,-41.9921875,-175.29296875
-65.91796875,-54.19921875,-44.921875,-100.09765625
-38.0859375,-55.6640625,-46.38671875,52.734375
-43.45703125,-58.10546875,-43.9453125,57.6171875
-76.66015625,-59.08203125,-41.50390625,-71.77734375
-96.6796875,-71.77734375,-43.9453125,-171.38671875
-76.66015625,-69.82421875,-41.9921875,-122.0703125
-46.875,-55.6640625,-46.875,34.1796875
-46.38671875,-40.52734375,-48.828125,67.87109375
-71.77734375,-41.015625,-54.6875,-58.59375
-86.9140625,-60.05859375,-49.31640625,-174.31640625
-61.5234375,-58.10546875,-34.66796875,-134.27734375
-30.76171875,-45.8984375,-41.015625,17.08984375
-29.78515625,-40.52734375,-44.43359375,68.84765625
-56.15234375,-48.828125,-46.38671875,-42.48046875
-85.44921875,-63.96484375,-49.31640625,-169.43359375
-83.0078125,-72.75390625,-45.41015625,-156.73828125
-46.875,-67.87109375,-42.48046875,-10.7421875
-27.83203125,-46.875,-40.0390625,71.77734375
-54.19921875,-47.36328125,-49.31640625,-23.4375
-87.40234375,-71.2890625,-55.6640625,-167.96875
-78.125,-71.77734375,-51.7578125,-170.8984375
-41.50390625,-54.6875,-43.9453125,-31.73828125
-20.5078125,-44.43359375,-39.0625,65.4296875
-47.8515625,-48.828125,-47.36328125,-17.08984375
-90.33203125,-54.19921875,-58.59375,-165.0390625
-80.078125,-58.59375,-55.17578125,-177.24609375
-49.31640625,-62.5,-49.31640625,-48.828125
-32.2265625,-46.875,-39.55078125,65.91796875
-46.38671875,-40.0390625,-38.57421875,12.6953125
-89.35546875,-57.12890625,-54.19921875,-139.16015625
-100.09765625,-73.2421875,-56.640625,-186.03515625
-66.89453125,-71.2890625,-46.875,-70.3125
-33.69140625,-54.6875,-38.57421875,63.96484375
-38.57421875,-56.15234375,-52.24609375,20.99609375
-76.171875,-68.84765625,-59.5703125,-131.34765625
-79.58984375,-57.12890625,-40.0390625,-180.17578125
-41.9921875,-41.50390625,-39.55078125,-69.3359375
-7.8125,-38.0859375,-44.43359375,75.1953125
-20.5078125,-45.41015625,-44.921875,51.7578125
-58.10546875,-61.5234375,-48.828125,-104.00390625
-47.8515625,-61.5234375,-44.921875,-174.31640625
-22.94921875,-52.734375,-51.26953125,-89.84375
-4.39453125,-45.41015625,-66.89453125,60.05859375
-3.90625,-37.109375,-59.08203125,70.3125
-41.9921875,-48.33984375,-42.96875,-69.82421875
-69.3359375,-59.5703125,-41.9921875,-164.0625
-50.29296875,-56.640625,-46.38671875,-94.7265625
-10.7421875,-48.33984375,-42.48046875,71.77734375
-16.6015625,-43.45703125,-34.66796875,103.515625
-51.7578125,-56.15234375,-41.9921875,-40.0390625
-66.40625,-72.75390625,-43.9453125,-156.25
-48.33984375,-71.2890625,-43.9453125,-114.74609375
-14.16015625,-51.7578125,-43.45703125,43.9453125
-27.83203125,-46.875,-47.8515625,92.28515625
-70.3125,-52.24609375,-50.78125,-33.69140625
-90.33203125,-56.15234375,-46.875,-159.66796875
-71.77734375,-58.10546875,-50.78125,-134.27734375
-34.66796875,-52.24609375,-46.875,20.01953125
-29.296875,-48.33984375,-44.921875,85.9375
-55.17578125,-48.828125,-54.19921875,-23.92578125
-82.51953125,-61.5234375,-57.6171875,-164.55078125
-72.75390625,-73.73046875,-52.24609375,-167.96875
-38.0859375,-62.5,-42.96875,-22.94921875
-32.2265625,-38.0859375,-36.1328125,71.2890625
-61.5234375,-36.62109375,-40.52734375,-16.11328125
-93.75,-56.15234375,-50.29296875,-164.0625
-84.9609375,-58.10546875,-48.33984375,-179.19921875
-50.29296875,-38.57421875,-43.45703125,-37.109375
-33.69140625,-33.203125,-39.55078125,70.80078125
-49.31640625,-44.43359375,-39.55078125,0.9765625
-80.56640625,-62.98828125,-44.921875,-137.20703125
-60.546875,-62.98828125,-62.5,-156.73828125
-35.15625,-44.43359375,-68.84765625,-43.9453125
-35.64453125,-44.921875,-53.22265625,54.19921875
-39.0625,-46.875,-47.8515625,6.8359375
-69.3359375,-46.38671875,-53.22265625,-132.32421875
-78.61328125,-48.828125,-57.6171875,-187.5
-50.78125,-41.015625,-50.78125,-81.54296875
-21.97265625,-32.2265625,-56.640625,55.6640625
-32.2265625,-28.80859375,-63.4765625,31.25
-67.87109375,-41.9921875,-59.5703125,-114.2578125
-75.1953125,-56.15234375,-68.359375,-189.453125
-42.48046875,-55.17578125,-63.4765625,-97.65625
-12.20703125,-44.921875,-43.9453125,63.4765625
-18.5546875,-29.78515625,-42.48046875,68.84765625
-46.875,-35.15625,-44.43359375,-69.82421875
-65.91796875,-52.24609375,-41.50390625,-154.296875
-43.9453125,-55.17578125,-43.45703125,-81.0546875
-7.32421875,-45.41015625,-49.8046875,77.63671875
-11.23046875,-36.1328125,-53.7109375,96.6796875
-44.43359375,-49.8046875,-62.01171875,-33.69140625
-65.4296875,-57.6171875,-70.3125,-128.90625
-55.17578125,-49.31640625,-59.08203125,-75.68359375
-13.671875,-29.78515625,-41.015625,88.37890625
-3.41796875,-26.3671875,-28.80859375,135.25390625
-34.1796875,-38.0859375,-28.3203125,8.7890625
-60.546875,-36.1328125,-49.8046875,-113.28125
-49.31640625,-46.875,-57.12890625,-82.51953125
-13.18359375,-46.875,-47.36328125,68.84765625
-6.8359375,-24.4140625,-40.0390625,134.27734375
-37.59765625,-23.4375,-41.015625,19.53125
-69.3359375,-40.52734375,-46.38671875,-124.51171875
-61.5234375,-56.640625,-49.8046875,-114.74609375
-20.99609375,-49.8046875,-40.0390625,42.96875
-0.9765625,-32.71484375,-31.73828125,134.765625
-36.62109375,-24.90234375,-41.015625,27.83203125
-77.1484375,-25.390625,-41.9921875,-126.46484375
-59.5703125,-29.296875,-43.9453125,-131.34765625
-20.5078125,-26.85546875,-40.0390625,19.53125
-6.8359375,-18.06640625,-31.73828125,129.8828125
-41.015625,-38.0859375,-40.0390625,30.76171875
-96.19140625,-64.453125,-48.33984375,-147.4609375
-93.75,-56.640625,-50.78125,-174.8046875
-53.7109375,-53.7109375,-48.33984375,-27.34375
-26.3671875,-42.96875,-39.0625,109.375
-41.50390625,-27.34375,-36.1328125,49.31640625
-89.84375,-44.921875,-42.96875,-125.48828125
-95.703125,-60.05859375,-42.96875,-175.29296875
-50.78125,-53.22265625,-51.7578125,-41.50390625
-16.6015625,-38.0859375,-50.29296875,102.5390625
-33.69140625,-31.25,-38.57421875,55.17578125
-88.37890625,-56.15234375,-45.41015625,-120.60546875
-104.98046875,-72.265625,-53.22265625,-196.2890625
-71.77734375,-53.22265625,-51.7578125,-82.03125
-39.0625,-33.69140625,-41.50390625,75.68359375
-51.7578125,-32.2265625,-33.203125,51.7578125
-95.21484375,-46.875,-36.62109375,-112.79296875
-108.88671875,-67.3828125,-38.0859375,-198.73046875
-84.9609375,-67.3828125,-32.71484375,-110.3515625
-51.7578125,-43.9453125,-31.25,60.546875
-57.6171875,-41.015625,-42.96875,63.4765625
-93.75,-62.5,-51.26953125,-103.515625
-115.72265625,-69.3359375,-53.7109375,-214.84375
-93.26171875,-62.01171875,-61.5234375,-144.53125
-49.8046875,-56.15234375,-62.5,26.3671875
-47.36328125,-54.6875,-45.41015625,53.22265625
-89.35546875,-63.96484375,-43.9453125,-103.02734375
-114.74609375,-71.2890625,-52.734375,-219.7265625
-77.1484375,-58.59375,-47.36328125,-150.390625
-21.97265625,-40.0390625,-33.69140625,24.90234375
-22.4609375,-40.52734375,-34.66796875,77.63671875
-63.96484375,-47.8515625,-54.19921875,-62.01171875
-99.12109375,-54.6875,-64.453125,-212.40234375
-80.078125,-60.546875,-46.875,-176.26953125
-30.2734375,-47.8515625,-23.4375,9.765625
-18.5546875,-40.0390625,-31.25,93.75
-42.48046875,-48.828125,-39.0625,-31.25
-74.21875,-54.6875,-44.43359375,-186.5234375
-77.1484375,-56.15234375,-49.31640625,-173.828125
-32.71484375,-45.41015625,-38.57421875,-4.39453125
-3.90625,-35.64453125,-32.71484375,100.5859375
-35.15625,-45.8984375,-44.43359375,0.48828125
-87.40234375,-68.359375,-51.26953125,-163.57421875
-89.35546875,-65.91796875,-43.9453125,-176.26953125
-46.38671875,-54.19921875,-41.015625,-23.92578125
-18.06640625,-49.31640625,-41.50390625,95.21484375
-48.828125,-30.2734375,-32.71484375,17.578125
-109.86328125,-41.50390625,-51.7578125,-157.2265625
-113.76953125,-75.68359375,-69.82421875,-202.1484375
-70.80078125,-78.125,-60.546875,-62.5
-38.57421875,-56.640625,-54.19921875,76.171875
-50.78125,-50.78125,-49.31640625,20.5078125
-100.5859375,-64.94140625,-52.24609375,-151.3671875
-111.328125,-69.82421875,-49.8046875,-213.8671875
-69.82421875,-62.5,-44.921875,-87.890625
-35.64453125,-59.5703125,-52.24609375,63.96484375
-37.59765625,-50.78125,-61.03515625,30.2734375
-74.21875,-43.9453125,-59.5703125,-134.765625
-92.7734375,-55.17578125,-57.12890625,-214.84375
-63.96484375,-62.5,-65.4296875,-107.91015625
-18.5546875,-55.6640625,-59.08203125,68.359375
-31.25,-45.8984375,-57.12890625,54.6875
-81.0546875,-47.36328125,-55.6640625,-125.0
-91.796875,-57.6171875,-43.9453125,-214.84375
-50.78125,-47.36328125,-48.828125,-117.1875
-9.27734375,-31.25,-46.875,55.17578125
-16.6015625,-27.83203125,-41.9921875,72.265625
-57.6171875,-37.109375,-41.50390625,-83.0078125
-96.19140625,-61.5234375,-50.29296875,-209.47265625
-74.21875,-66.89453125,-59.08203125,-138.671875
-14.6484375,-41.9921875,-47.8515625,60.546875
-18.5546875,-33.203125,-50.78125,102.05078125
-68.84765625,-47.8515625,-54.6875,-62.5
-89.84375,-58.10546875,-46.38671875,-196.2890625
-76.66015625,-62.98828125,-45.8984375,-147.4609375
-29.296875,-51.26953125,-49.8046875,33.203125
-4.8828125,-39.0625,-48.828125,107.421875
-43.45703125,-47.8515625,-49.8046875,-29.296875
-81.0546875,-53.7109375,-48.828125,-175.78125
-58.59375,-46.38671875,-44.921875,-145.5078125
-20.5078125,-43.45703125,-44.921875,18.5546875
-12.6953125,-47.8515625,-47.8515625,100.5859375
-33.69140625,-43.9453125,-44.921875,-3.90625
-71.77734375,-40.52734375,-35.64453125,-153.80859375
-77.1484375,-48.33984375,-54.6875,-165.0390625
-41.50390625,-46.38671875,-65.91796875,-11.71875
-23.92578125,-34.66796875,-46.875,101.5625
-56.15234375,-35.64453125,-44.921875,1.953125
-96.19140625,-51.7578125,-50.29296875,-165.52734375
-83.0078125,-59.08203125,-53.22265625,-185.546875
-39.0625,-52.734375,-57.12890625,-39.0625
-11.23046875,-43.9453125,-60.05859375,91.30859375
-27.34375,-39.0625,-47.8515625,21.97265625
-79.1015625,-49.31640625,-48.828125,-147.94921875
-90.33203125,-51.7578125,-57.6171875,-196.2890625
-44.43359375,-44.43359375,-42.48046875,-62.5
-12.6953125,-35.64453125,-36.1328125,82.03125
-28.3203125,-35.15625,-44.43359375,36.62109375
-67.3828125,-48.828125,-51.7578125,-125.9765625
-80.56640625,-54.6875,-55.6640625,-191.89453125
-50.29296875,-47.8515625,-52.734375,-77.63671875
-10.7421875,-40.52734375,-54.19921875,86.42578125
-26.3671875,-49.31640625,-57.6171875,65.4296875
-71.77734375,-51.26953125,-54.19921875,-102.05078125
-86.9140625,-55.6640625,-42.48046875,-187.5
-60.546875,-59.08203125,-40.52734375,-96.19140625
-17.578125,-31.73828125,-45.8984375,75.1953125
-21.484375,-21.484375,-42.96875,77.1484375
-66.89453125,-42.96875,-49.31640625,-90.8203125
-92.28515625,-61.5234375,-59.08203125,-193.359375
-66.89453125,-50.29296875,-58.59375,-111.328125
-20.5078125,-33.69140625,-51.26953125,60.546875
-16.6015625,-31.25,-47.36328125,86.42578125
-60.05859375,-46.38671875,-53.7109375,-78.125
-93.75,-62.5,-59.5703125,-214.35546875
-69.3359375,-48.828125,-57.12890625,-151.3671875
-15.625,-31.25,-47.8515625,35.64453125
-4.8828125,-30.76171875,-42.48046875,90.33203125
-45.41015625,-32.2265625,-45.8984375,-56.15234375
-83.984375,-45.8984375,-56.15234375,-196.77734375
-77.1484375,-60.546875,-56.640625,-162.109375
-33.69140625,-47.8515625,-44.921875,10.25390625
-14.6484375,-28.3203125,-39.0625,90.33203125
-47.36328125,-42.96875,-47.8515625,-43.45703125
-91.30859375,-67.3828125,-59.08203125,-199.70703125
-91.796875,-62.01171875,-51.7578125,-187.01171875
-46.38671875,-51.7578125,-40.0390625,-18.06640625
-28.3203125,-48.33984375,-42.48046875,82.51953125
-61.03515625,-46.38671875,-48.828125,-25.87890625
-98.14453125,-50.78125,-51.26953125,-185.05859375
-88.37890625,-51.7578125,-46.38671875,-191.89453125
-50.29296875,-51.7578125,-54.19921875,-40.52734375
-25.390625,-52.734375,-55.6640625,72.75390625
-41.015625,-51.26953125,-50.78125,-3.41796875
-89.84375,-57.6171875,-60.05859375,-171.875
-88.8671875,-60.546875,-52.24609375,-202.63671875
-50.78125,-50.29296875,-40.0390625,-66.89453125
-21.484375,-34.66796875,-40.0390625,67.3828125
-36.1328125,-30.2734375,-51.26953125,11.71875
-78.61328125,-37.109375,-56.15234375,-150.390625
-89.84375,-53.7109375,-56.15234375,-203.125
-56.15234375,-60.546875,-55.6640625,-87.890625
-26.3671875,-51.26953125,-52.24609375,62.01171875
-34.66796875,-43.9453125,-48.33984375,38.0859375
-62.98828125,-50.29296875,-39.55078125,-116.2109375
-77.63671875,-51.7578125,-37.59765625,-193.359375
-51.26953125,-49.8046875,-38.57421875,-98.6328125
-16.11328125,-48.828125,-42.48046875,55.6640625
-19.53125,-31.25,-50.29296875,47.8515625
-48.828125,-35.64453125,-50.78125,-97.16796875
-70.80078125,-58.10546875,-56.640625,-182.6171875
-65.91796875,-58.59375,-60.05859375,-112.79296875
-32.71484375,-55.17578125,-55.17578125,37.59765625
-28.3203125,-54.6875,-53.22265625,59.08203125
-57.6171875,-52.734375,-48.828125,-68.359375
-77.63671875,-58.10546875,-39.55078125,-173.33984375
-76.66015625,-67.3828125,-41.9921875,-128.41796875
-38.0859375,-55.17578125,-47.36328125,27.34375
-26.3671875,-37.109375,-46.875,73.73046875
-57.6171875,-41.50390625,-45.41015625,-49.8046875
-80.078125,-49.31640625,-49.8046875,-168.9453125
-73.2421875,-51.7578125,-47.36328125,-142.08984375
-45.41015625,-46.875,-44.43359375,1.953125
-32.71484375,-40.0390625,-47.36328125,63.4765625
-48.828125,-45.8984375,-50.78125,-36.62109375
-82.03125,-59.08203125,-50.78125,-155.2734375
-75.68359375,-60.546875,-48.33984375,-145.5078125
-43.45703125,-56.15234375,-54.6875,-17.578125
-28.3203125,-47.36328125,-55.6640625,57.6171875
-36.1328125,-41.9921875,-52.734375,-22.94921875
-62.98828125,-54.19921875,-61.5234375,-144.04296875
-62.98828125,-63.4765625,-54.19921875,-149.90234375
-41.015625,-58.10546875,-53.7109375,-35.15625
-25.87890625,-38.57421875,-61.03515625,54.6875
-34.1796875,-31.25,-53.7109375,5.37109375
-63.96484375,-45.8984375,-48.33984375,-119.140625
-68.84765625,-51.26953125,-51.26953125,-152.83203125
-46.38671875,-42.96875,-54.6875,-48.828125
-26.85546875,-34.66796875,-46.875,56.640625
-26.3671875,-32.2265625,-46.875,17.578125
-54.6875,-47.8515625,-51.26953125,-107.421875
-70.3125,-68.84765625,-55.6640625,-163.0859375
-54.19921875,-55.17578125,-55.17578125,-80.078125
-33.203125,-40.0390625,-45.8984375,41.50390625
-33.69140625,-42.48046875,-46.875,26.3671875
-59.08203125,-44.43359375,-46.875,-89.84375
-67.87109375,-42.96875,-43.45703125,-149.4140625
-57.12890625,-41.50390625,-49.8046875,-87.40234375
-36.62109375,-40.0390625,-51.26953125,20.99609375
-30.2734375,-33.69140625,-42.96875,23.4375
-50.78125,-30.76171875,-39.55078125,-83.984375
-67.3828125,-47.36328125,-40.0390625,-159.1796875
-62.01171875,-61.5234375,-39.55078125,-105.95703125
-37.109375,-51.26953125,-41.9921875,21.484375
-27.34375,-46.38671875,-37.59765625,43.9453125
-35.15625,-47.36328125,-33.203125,-48.828125
-37.109375,-42.96875,-35.15625,-124.0234375
-36.62109375,-40.52734375,-34.66796875,-91.30859375
-20.99609375,-40.0390625,-40.0390625,23.4375
-15.13671875,-31.25,-44.43359375,54.19921875
-34.1796875,-45.8984375,-51.26953125,-43.45703125
-48.828125,-60.05859375,-52.734375,-131.8359375
-46.875,-47.36328125,-48.33984375,-113.28125
-30.76171875,-33.203125,-42.48046875,-3.41796875
-24.4140625,-26.3671875,-44.921875,45.41015625
-35.64453125,-36.62109375,-45.41015625,-31.73828125
-54.19921875,-51.26953125,-45.41015625,-125.9765625
-54.19921875,-49.8046875,-54.6875,-125.9765625
-39.55078125,-41.015625,-52.734375,-18.06640625
-35.64453125,-39.0625,-45.8984375,54.6875
-45.8984375,-39.55078125,-47.36328125,-11.23046875
-70.3125,-47.8515625,-49.8046875,-117.1875
-74.21875,-61.5234375,-43.45703125,-130.859375
-58.59375,-58.59375,-39.0625,-33.203125
-41.015625,-37.59765625,-42.96875,49.8046875
-47.36328125,-29.78515625,-53.7109375,-0.9765625
-73.73046875,-43.9453125,-52.734375,-111.328125
-70.3125,-55.17578125,-50.78125,-136.23046875
-46.875,-56.640625,-55.6640625,-41.9921875
-33.69140625,-56.15234375,-45.41015625,46.875
-35.64453125,-49.31640625,-41.50390625,5.37109375
-58.10546875,-53.7109375,-50.78125,-103.515625
-70.80078125,-67.87109375,-54.19921875,-143.5546875
-55.17578125,-65.91796875,-53.22265625,-69.82421875
-34.66796875,-66.89453125,-52.24609375,29.78515625
-33.69140625,-59.5703125,-48.828125,17.08984375
-57.12890625,-42.48046875,-50.29296875,-84.9609375
-74.21875,-48.33984375,-57.6171875,-144.04296875
-70.80078125,-64.94140625,-52.24609375,-90.8203125
-50.29296875,-57.6171875,-44.921875,17.08984375
-39.0625,-50.29296875,-53.7109375,18.5546875
-53.22265625,-54.19921875,-58.10546875,-76.66015625
-63.4765625,-55.17578125,-52.24609375,-137.20703125
-58.59375,-55.6640625,-56.640625,-90.8203125
-43.45703125,-54.19921875,-63.4765625,22.4609375
-37.59765625,-51.26953125,-54.6875,45.41015625
-55.17578125,-50.29296875,-55.6640625,-48.828125
-64.453125,-43.45703125,-58.10546875,-124.0234375
-54.6875,-39.0625,-45.8984375,-84.9609375
-41.9921875,-41.50390625,-51.26953125,17.578125
-30.2734375,-40.52734375,-49.8046875,44.43359375
-42.48046875,-37.109375,-46.38671875,-40.0390625
-52.24609375,-43.45703125,-53.22265625,-118.65234375
-43.9453125,-45.8984375,-51.7578125,-94.23828125
-30.2734375,-47.8515625,-44.43359375,7.8125
-24.4140625,-57.12890625,-36.1328125,52.734375
-35.64453125,-51.26953125,-43.9453125,-15.625
-54.19921875,-37.59765625,-53.7109375,-108.88671875
-61.03515625,-40.0390625,-51.7578125,-115.72265625
-40.0390625,-41.9921875,-38.57421875,-10.25390625
-23.4375,-35.15625,-35.64453125,54.19921875
-31.73828125,-37.109375,-44.43359375,-7.8125
-49.8046875,-45.8984375,-46.875,-106.4453125
-54.6875,-49.31640625,-46.38671875,-121.58203125
-49.31640625,-50.29296875,-44.921875,-36.62109375
-36.1328125,-46.38671875,-43.45703125,42.96875
-31.25,-40.52734375,-43.9453125,1.46484375
-58.10546875,-40.0390625,-59.08203125,-112.79296875
-68.359375,-41.50390625,-52.24609375,-137.6953125
-53.22265625,-46.38671875,-36.62109375,-44.43359375
-43.45703125,-49.8046875,-43.9453125,38.57421875
-51.7578125,-39.55078125,-41.9921875,5.37109375
-67.87109375,-28.80859375,-43.9453125,-92.28515625
-71.77734375,-41.50390625,-55.17578125,-133.7890625
-68.84765625,-54.19921875,-52.734375,-64.94140625
-56.15234375,-42.48046875,-49.8046875,25.87890625
-54.19921875,-29.296875,-53.7109375,4.39453125
-80.56640625,-36.62109375,-63.4765625,-104.00390625
-83.984375,-42.96875,-54.6875,-148.4375
-69.82421875,-55.17578125,-40.52734375,-79.1015625
-51.7578125,-56.640625,-41.9921875,16.11328125
-50.78125,-40.0390625,-41.50390625,9.27734375
-70.3125,-42.96875,-48.33984375,-90.8203125
-67.3828125,-50.29296875,-51.7578125,-147.94921875
-57.12890625,-51.7578125,-42.48046875,-83.984375
-35.64453125,-53.22265625,-34.1796875,36.1328125
-28.80859375,-48.33984375,-37.109375,35.15625
-62.5,-46.38671875,-50.29296875,-88.37890625
-78.61328125,-50.78125,-59.5703125,-162.109375
-53.22265625,-44.921875,-56.15234375,-104.98046875
-31.25,-38.0859375,-52.734375,7.8125
-25.390625,-31.73828125,-42.48046875,29.296875
-42.96875,-32.2265625,-41.50390625,-58.59375
-66.89453125,-36.62109375,-58.10546875,-149.90234375
-57.6171875,-41.9921875,-55.17578125,-122.55859375
-28.80859375,-39.55078125,-56.640625,-0.9765625
-14.16015625,-16.11328125,-60.546875,41.015625
-31.73828125,-13.18359375,-62.01171875,-42.48046875
-44.43359375,-21.484375,-70.80078125,-127.44140625
-36.62109375,-33.69140625,-68.84765625,-110.83984375
-13.671875,-41.9921875,-61.5234375,0.48828125
0.48828125,-24.4140625,-64.94140625,55.17578125
-12.6953125,-15.625,-67.87109375,-16.6015625
-28.3203125,-19.53125,-62.01171875,-110.83984375
-23.4375,-14.6484375,-57.6171875,-112.79296875
11.71875,-0.9765625,-54.19921875,8.7890625
28.80859375,6.8359375,-60.05859375,87.40234375
23.92578125,0.9765625,-72.265625,23.4375
20.99609375,-2.44140625,-72.265625,-68.84765625
22.4609375,-0.48828125,-60.05859375,-81.0546875
37.59765625,1.953125,-60.05859375,18.06640625
59.08203125,6.34765625,-69.3359375,110.3515625
57.12890625,8.30078125,-70.80078125,66.40625
30.76171875,0.9765625,-62.01171875,-37.59765625
22.4609375,-6.8359375,-56.640625,-66.40625
40.0390625,-8.7890625,-66.89453125,19.04296875
59.08203125,2.44140625,-78.125,112.79296875
53.7109375,14.16015625,-63.96484375,75.1953125
31.73828125,-4.8828125,-50.78125,-31.73828125
19.53125,-27.83203125,-62.5,-76.171875
31.73828125,-9.27734375,-58.10546875,3.41796875
43.9453125,8.7890625,-57.6171875,99.609375
29.78515625,3.90625,-59.08203125,73.2421875
-2.44140625,0.48828125,-54.6875,-32.71484375
-12.20703125,-17.08984375,-62.5,-93.75
11.71875,-29.296875,-66.89453125,-28.80859375
35.64453125,-24.4140625,-59.5703125,81.54296875
22.4609375,-28.80859375,-49.8046875,69.3359375
-13.18359375,-36.1328125,-42.96875,-46.38671875
-29.296875,-27.34375,-44.921875,-115.234375
-21.484375,-24.90234375,-49.31640625,-62.5
-5.37109375,-24.4140625,-42.96875,52.734375
-6.34765625,-18.06640625,-45.41015625,63.4765625
-28.80859375,-32.2265625,-55.17578125,-40.0390625
-38.0859375,-56.15234375,-52.734375,-117.67578125
-20.99609375,-51.26953125,-45.41015625,-79.58984375
-2.9296875,-37.109375,-42.48046875,31.25
-3.90625,-34.1796875,-36.62109375,62.5
-25.390625,-42.48046875,-52.734375,-29.296875
-36.62109375,-54.6875,-53.7109375,-120.1171875
-27.83203125,-46.38671875,-41.50390625,-95.21484375
-3.41796875,-28.80859375,-40.0390625,17.08984375
-7.32421875,-25.87890625,-41.50390625,57.6171875
-37.59765625,-29.78515625,-39.55078125,-30.2734375
-56.15234375,-34.1796875,-40.52734375,-124.0234375
-45.8984375,-52.24609375,-42.48046875,-110.3515625
-11.23046875,-49.31640625,-37.109375,0.9765625
-9.27734375,-33.69140625,-44.43359375,60.546875
-51.26953125,-46.38671875,-59.5703125,-17.578125
-76.66015625,-53.7109375,-44.43359375,-118.65234375
-61.03515625,-54.6875,-34.66796875,-125.0
-34.1796875,-51.7578125,-29.296875,-17.578125
-24.90234375,-48.828125,-24.4140625,61.5234375
-49.31640625,-52.24609375,-40.0390625,-10.25390625
-90.8203125,-62.5,-54.6875,-129.8828125
-85.9375,-66.89453125,-53.22265625,-147.94921875
-49.8046875,-53.7109375,-49.8046875,-42.48046875
-26.3671875,-52.734375,-51.7578125,52.24609375
-36.1328125,-58.59375,-41.9921875,7.8125
-68.359375,-61.03515625,-34.1796875,-107.421875
-72.265625,-63.4765625,-35.15625,-143.5546875
-46.875,-60.05859375,-36.1328125,-51.7578125
-26.85546875,-44.921875,-31.25,47.8515625
-41.015625,-41.50390625,-28.3203125,14.6484375
-71.2890625,-49.8046875,-28.80859375,-96.6796875
-65.4296875,-53.7109375,-32.2265625,-147.4609375
-41.015625,-47.36328125,-40.52734375,-67.87109375
-19.53125,-41.50390625,-43.9453125,44.921875
-25.87890625,-43.45703125,-46.875,39.55078125
-67.3828125,-48.33984375,-39.0625,-71.2890625
-74.70703125,-49.31640625,-36.62109375,-136.23046875
-45.8984375,-47.8515625,-42.48046875,-69.3359375
-21.484375,-46.38671875,-32.71484375,40.52734375
-24.4140625,-47.36328125,-31.73828125,43.45703125
-60.546875,-58.59375,-41.50390625,-66.40625
-81.54296875,-67.3828125,-39.0625,-144.04296875
-68.84765625,-67.3828125,-37.59765625,-92.7734375
-47.36328125,-60.546875,-33.69140625,28.3203125
-42.48046875,-50.29296875,-29.78515625,57.12890625
-65.91796875,-46.875,-36.1328125,-42.96875
-81.0546875,-45.41015625,-39.0625,-127.9296875
-59.5703125,-51.7578125,-42.48046875,-95.21484375
-27.83203125,-50.78125,-44.921875,12.20703125
-24.90234375,-43.45703125,-45.41015625,53.22265625
-58.59375,-55.6640625,-59.08203125,-41.50390625
-79.58984375,-59.5703125,-51.7578125,-139.16015625
-68.84765625,-59.5703125,-43.9453125,-120.60546875
-43.9453125,-59.08203125,-46.875,-7.8125
-39.55078125,-58.10546875,-41.015625,47.36328125
-63.96484375,-61.03515625,-33.69140625,-30.2734375
-83.0078125,-59.5703125,-34.1796875,-128.41796875
-69.82421875,-48.33984375,-41.015625,-121.58203125
-37.59765625,-42.96875,-44.43359375,-19.04296875
-33.203125,-47.8515625,-39.55078125,53.7109375
-55.6640625,-51.26953125,-41.9921875,-2.44140625
-74.70703125,-55.6640625,-46.875,-106.4453125
-66.40625,-54.19921875,-49.31640625,-119.140625
-37.59765625,-52.24609375,-44.921875,-20.99609375
-24.4140625,-51.26953125,-38.57421875,58.59375
-45.41015625,-45.8984375,-44.921875,8.30078125
-79.58984375,-49.31640625,-50.29296875,-104.4921875
-72.75390625,-58.10546875,-52.24609375,-138.671875
-35.15625,-56.15234375,-52.734375,-48.828125
-25.390625,-44.43359375,-52.734375,37.109375
-45.8984375,-30.76171875,-46.875,-0.48828125
-74.70703125,-40.52734375,-48.33984375,-110.83984375
-73.2421875,-60.05859375,-50.78125,-152.34375
-41.015625,-57.12890625,-48.828125,-68.84765625
-20.01953125,-43.9453125,-47.36328125,37.109375
-29.296875,-46.38671875,-49.8046875,19.04296875
-61.5234375,-60.05859375,-53.22265625,-91.796875
-68.84765625,-62.98828125,-54.19921875,-146.97265625
-40.52734375,-55.6640625,-40.0390625,-73.2421875
-25.390625,-46.38671875,-30.76171875,37.59765625
-38.57421875,-44.921875,-43.45703125,32.2265625
-68.359375,-52.734375,-54.6875,-75.68359375
-80.078125,-53.7109375,-58.10546875,-143.5546875
-64.453125,-61.5234375,-54.6875,-91.30859375
-41.9921875,-62.01171875,-40.52734375,17.08984375
-43.45703125,-48.828125,-33.69140625,33.203125
-72.75390625,-44.921875,-36.1328125,-61.03515625
-77.1484375,-46.875,-35.15625,-140.625
-56.640625,-46.875,-38.57421875,-103.02734375
-35.15625,-47.8515625,-44.921875,5.37109375
-43.45703125,-46.38671875,-50.78125,32.2265625
-75.1953125,-44.43359375,-43.45703125,-55.17578125
-83.49609375,-51.26953125,-40.52734375,-136.71875
-62.5,-54.19921875,-49.31640625,-105.95703125
-23.4375,-42.48046875,-41.015625,12.20703125
-13.18359375,-41.9921875,-34.1796875,62.98828125
-39.55078125,-52.24609375,-37.59765625,-23.92578125
-59.08203125,-52.734375,-45.8984375,-127.44140625
-49.31640625,-45.8984375,-41.9921875,-119.62890625
-17.578125,-41.015625,-31.73828125,-4.39453125
-12.20703125,-37.109375,-37.59765625,59.5703125
-43.45703125,-38.0859375,-41.015625,-11.23046875
-68.84765625,-46.875,-40.0390625,-108.88671875
-56.15234375,-52.24609375,-47.8515625,-120.60546875
-25.87890625,-48.33984375,-47.36328125,-24.4140625
-30.2734375,-43.45703125,-53.22265625,48.33984375
-60.05859375,-36.62109375,-57.6171875,-12.6953125
-96.19140625,-45.8984375,-55.6640625,-123.53515625
-89.84375,-56.15234375,-48.828125,-148.92578125
-46.875,-47.8515625,-43.9453125,-49.8046875
-37.109375,-46.875,-49.31640625,41.50390625
-57.6171875,-52.734375,-52.734375,-3.90625
-83.49609375,-53.7109375,-53.22265625,-108.3984375
-85.44921875,-60.05859375,-52.734375,-146.484375
-60.05859375,-56.15234375,-50.78125,-65.4296875
-40.52734375,-42.96875,-44.43359375,33.69140625
-57.12890625,-37.59765625,-45.41015625,2.44140625
-82.51953125,-47.8515625,-57.12890625,-100.5859375
-71.77734375,-54.6875,-59.08203125,-143.5546875
-49.8046875,-50.29296875,-57.6171875,-77.1484375
-32.2265625,-42.48046875,-55.6640625,20.99609375
-33.69140625,-32.2265625,-53.7109375,14.16015625
-63.96484375,-38.0859375,-53.22265625,-92.28515625
-76.66015625,-55.17578125,-50.29296875,-156.25
-50.29296875,-53.22265625,-51.7578125,-93.75
-31.73828125,-48.828125,-48.828125,12.6953125
-45.41015625,-51.26953125,-48.828125,17.08984375
-65.4296875,-51.26953125,-50.78125,-83.0078125
-80.56640625,-60.546875,-53.7109375,-158.69140625
-55.6640625,-56.15234375,-59.5703125,-101.5625
-20.99609375,-41.9921875,-55.17578125,19.53125
-33.203125,-45.41015625,-54.19921875,35.64453125
-62.98828125,-49.8046875,-60.05859375,-62.5
-73.2421875,-49.8046875,-64.94140625,-140.625
-54.6875,-51.7578125,-54.19921875,-106.93359375
-27.83203125,-50.29296875,-48.828125,5.859375
-26.3671875,-47.36328125,-44.43359375,47.36328125
-55.6640625,-50.78125,-45.8984375,-45.8984375
-72.265625,-53.22265625,-58.10546875,-138.18359375
-57.12890625,-46.38671875,-55.17578125,-116.2109375
-32.71484375,-41.50390625,-47.36328125,-9.27734375
-28.80859375,-42.96875,-47.36328125,49.8046875
-50.29296875,-40.0390625,-48.828125,-19.04296875
-61.03515625,-51.26953125,-56.640625,-125.9765625
-20.01953125,-55.6640625,-58.10546875,-100.09765625
-2.9296875,-53.7109375,-41.9921875,12.20703125
-32.2265625,-58.59375,-35.64453125,45.41015625
-69.82421875,-62.01171875,-37.59765625,-35.64453125
-113.28125,-67.87109375,-42.48046875,-148.92578125
-110.3515625,-62.5,-43.45703125,-170.8984375
-96.6796875,-61.03515625,-40.52734375,-83.49609375
-115.72265625,-68.359375,-45.8984375,-20.5078125
-158.69140625,-78.61328125,-43.45703125,-95.21484375
-213.37890625,-98.6328125,-51.26953125,-223.6328125
-207.51953125,-96.6796875,-54.6875,-244.140625
-181.640625,-87.40234375,-39.0625,-158.69140625
-213.37890625,-112.79296875,-32.71484375,-103.02734375
-252.44140625,-124.0234375,-24.4140625,-150.390625
-281.25,-126.953125,-26.3671875,-265.625
-283.203125,-129.8828125,-20.99609375,-315.4296875
-256.34765625,-124.51171875,-10.7421875,-228.02734375
-245.60546875,-114.74609375,-11.23046875,-125.48828125
-267.08984375,-113.28125,-14.16015625,-164.55078125
-294.43359375,-119.62890625,-8.30078125,-269.53125
-284.66796875,-128.41796875,-13.671875,-308.10546875
-249.0234375,-132.32421875,-22.4609375,-238.76953125
-225.09765625,-112.79296875,-10.25390625,-118.1640625
-240.72265625,-110.83984375,-19.53125,-116.2109375
-260.25390625,-131.8359375,-29.296875,-220.703125
-239.74609375,-137.6953125,-5.859375,-270.01953125
-214.84375,-130.37109375,-7.8125,-202.63671875
-184.08203125,-122.0703125,-19.53125,-75.68359375
-171.38671875,-118.1640625,-21.484375,-47.8515625
-184.08203125,-117.67578125,-24.90234375,-135.25390625
-177.734375,-116.69921875,-24.90234375,-206.0546875
-142.578125,-110.83984375,-22.94921875,-158.69140625
-93.75,-110.3515625,-27.34375,-26.3671875
-80.56640625,-114.2578125,-27.34375,21.484375
-108.88671875,-110.83984375,-34.66796875,-72.265625
-120.60546875,-110.83984375,-40.52734375,-160.64453125
-102.05078125,-114.2578125,-30.2734375,-128.41796875
-67.87109375,-95.21484375,-21.97265625,-15.13671875
-56.640625,-80.56640625,-28.80859375,37.109375
-79.58984375,-88.37890625,-39.55078125,-38.0859375
-85.9375,-83.49609375,-41.015625,-125.48828125
-58.59375,-73.73046875,-36.62109375,-104.4921875
-29.296875,-69.82421875,-38.57421875,1.953125
-22.94921875,-64.94140625,-48.33984375,61.5234375
-35.64453125,-63.4765625,-51.7578125,-3.90625
-48.33984375,-70.80078125,-52.24609375,-101.5625
-28.3203125,-61.5234375,-57.6171875,-97.65625
-1.46484375,-44.921875,-65.4296875,7.32421875
9.27734375,-41.9921875,-61.03515625,79.58984375
-0.9765625,-40.0390625,-59.08203125,25.390625
-14.6484375,-41.9921875,-61.03515625,-71.2890625
-12.6953125,-44.921875,-60.546875,-95.21484375
3.41796875,-40.52734375,-62.5,-3.90625
22.4609375,-28.80859375,-58.59375,92.7734375
5.37109375,-29.296875,-64.94140625,45.8984375
-22.4609375,-36.62109375,-61.03515625,-64.94140625
-14.16015625,-40.0390625,-50.78125,-94.23828125
8.7890625,-38.57421875,-57.6171875,-14.6484375
17.578125,-25.87890625,-63.4765625,76.171875
14.16015625,-24.90234375,-63.96484375,47.8515625
-7.32421875,-33.203125,-58.59375,-53.7109375
-9.765625,-38.57421875,-64.453125,-100.5859375
12.6953125,-41.015625,-60.546875,-27.34375
23.4375,-29.78515625,-43.9453125,82.03125
11.23046875,-22.94921875,-45.41015625,65.91796875
-17.578125,-35.15625,-50.29296875,-47.36328125
-30.2734375,-39.0625,-54.19921875,-111.81640625
-11.23046875,-27.34375,-55.6640625,-41.50390625
13.18359375,-24.4140625,-46.38671875,77.1484375
4.39453125,-28.80859375,-45.41015625,83.0078125
-27.34375,-27.83203125,-57.12890625,-20.01953125
-45.41015625,-42.96875,-67.3828125,-103.02734375
-28.80859375,-60.546875,-61.5234375,-58.59375
5.859375,-48.33984375,-52.734375,63.96484375
8.7890625,-31.73828125,-53.22265625,83.0078125
-27.34375,-34.1796875,-53.7109375,-23.92578125
-38.57421875,-38.0859375,-66.40625,-104.00390625
-12.20703125,-37.109375,-69.82421875,-59.08203125
-0.48828125,-29.78515625,-49.8046875,52.734375
-8.30078125,-26.85546875,-46.875,78.125
-20.01953125,-30.76171875,-49.8046875,-7.8125
-50.29296875,-41.015625,-50.78125,-111.81640625
-55.6640625,-44.921875,-48.828125,-108.3984375
-24.4140625,-44.921875,-53.22265625,6.34765625
-25.390625,-40.0390625,-52.734375,58.59375
-55.17578125,-34.1796875,-54.6875,-28.3203125
-79.58984375,-48.33984375,-62.98828125,-130.859375
-62.98828125,-55.17578125,-59.5703125,-124.0234375
-26.85546875,-45.8984375,-52.734375,-12.6953125
-20.99609375,-43.9453125,-51.7578125,52.24609375
-35.15625,-42.48046875,-48.828125,-13.671875
-57.6171875,-48.33984375,-55.17578125,-113.76953125
-50.78125,-62.5,-77.63671875,-127.9296875
-21.484375,-56.640625,-69.82421875,-24.90234375
-8.30078125,-36.1328125,-45.41015625,62.98828125
-26.85546875,-30.2734375,-47.36328125,0.0
-54.19921875,-41.9921875,-53.7109375,-113.76953125
-47.8515625,-47.8515625,-50.29296875,-126.953125
-13.18359375,-45.8984375,-44.921875,-24.90234375
-5.859375,-40.0390625,-50.29296875,67.3828125
-23.4375,-39.0625,-52.734375,29.78515625
-48.828125,-53.22265625,-62.01171875,-84.47265625
-57.6171875,-56.15234375,-80.078125,-130.37109375
-34.66796875,-47.8515625,-60.546875,-43.9453125
-18.5546875,-46.38671875,-42.48046875,58.10546875
-30.76171875,-37.109375,-45.8984375,33.203125
-59.08203125,-29.296875,-48.33984375,-81.0546875
-62.5,-40.52734375,-55.6640625,-142.08984375
-30.2734375,-41.9921875,-54.19921875,-64.453125
-14.6484375,-32.71484375,-50.78125,49.8046875
-27.83203125,-34.1796875,-48.33984375,41.015625
-63.96484375,-43.9453125,-53.7109375,-72.75390625
-74.70703125,-45.41015625,-56.15234375,-139.6484375
-51.26953125,-45.41015625,-55.6640625,-77.63671875
-21.97265625,-44.43359375,-55.17578125,38.57421875
-14.16015625,-46.875,-48.33984375,52.24609375
-37.59765625,-45.8984375,-44.43359375,-43.9453125
-54.19921875,-40.52734375,-50.29296875,-128.41796875
-49.8046875,-31.25,-51.7578125,-96.6796875
-25.87890625,-27.83203125,-47.36328125,16.11328125
-34.1796875,-42.48046875,-50.78125,38.57421875
-64.453125,-47.8515625,-50.78125,-60.546875
-66.40625,-44.43359375,-50.78125,-145.99609375
-53.22265625,-44.43359375,-55.6640625,-114.2578125
-27.83203125,-39.0625,-49.31640625,5.859375
-22.4609375,-40.52734375,-49.8046875,56.640625
-34.1796875,-39.0625,-42.48046875,-20.01953125
-45.41015625,-39.55078125,-41.50390625,-118.1640625
-50.29296875,-49.31640625,-44.921875,-116.2109375
-36.1328125,-53.7109375,-43.9453125,-11.23046875
-34.66796875,-41.015625,-56.15234375,41.50390625
-48.33984375,-25.87890625,-47.8515625,-25.87890625
-73.2421875,-40.52734375,-58.10546875,-133.30078125
-70.80078125,-48.828125,-61.5234375,-142.08984375
-31.73828125,-39.0625,-39.55078125,-19.53125
-23.92578125,-41.015625,-41.015625,55.6640625
-48.828125,-41.50390625,-45.8984375,-10.7421875
-68.84765625,-42.48046875,-47.36328125,-118.65234375
-53.7109375,-51.7578125,-57.12890625,-134.27734375
-23.92578125,-53.22265625,-57.6171875,-31.73828125
-19.04296875,-42.96875,-47.8515625,43.45703125
-40.52734375,-40.0390625,-55.6640625,-12.6953125
-63.4765625,-47.36328125,-55.6640625,-115.234375
-51.26953125,-47.8515625,-43.9453125,-139.16015625
-27.34375,-47.36328125,-48.33984375,-46.38671875
-23.4375,-38.0859375,-51.26953125,41.015625
-42.48046875,-31.25,-52.24609375,1.46484375
-69.82421875,-52.734375,-51.26953125,-105.95703125
-81.0546875,-72.265625,-48.33984375,-154.78515625
-58.10546875,-61.5234375,-45.8984375,-73.2421875
-29.296875,-37.109375,-42.48046875,42.96875
-40.0390625,-31.73828125,-50.29296875,26.85546875
-68.359375,-43.45703125,-50.78125,-80.078125
-67.87109375,-59.5703125,-47.8515625,-137.20703125
-37.59765625,-57.12890625,-43.9453125,-70.3125
-18.06640625,-42.96875,-51.26953125,37.59765625
-18.06640625,-41.50390625,-57.12890625,36.62109375
-50.78125,-46.38671875,-53.7109375,-69.82421875
-69.3359375,-58.10546875,-53.7109375,-146.97265625
-42.48046875,-59.5703125,-41.9921875,-83.0078125
-25.390625,-56.15234375,-38.57421875,40.52734375
-30.76171875,-50.29296875,-42.96875,59.08203125
-58.10546875,-53.7109375,-51.26953125,-43.9453125
-79.1015625,-60.05859375,-54.19921875,-135.7421875
-60.05859375,-48.828125,-43.45703125,-101.5625
-35.64453125,-49.8046875,-37.59765625,3.41796875
-34.1796875,-39.55078125,-34.1796875,41.015625
-61.03515625,-38.0859375,-41.50390625,-45.8984375
-80.078125,-55.6640625,-49.8046875,-141.11328125
-70.3125,-61.5234375,-60.546875,-121.09375
-43.45703125,-65.4296875,-65.4296875,-1.46484375
-30.76171875,-61.03515625,-52.24609375,53.7109375
-57.6171875,-56.640625,-44.921875,-35.64453125
-79.1015625,-56.640625,-47.36328125,-138.18359375
-71.77734375,-45.8984375,-46.38671875,-132.32421875
-51.7578125,-32.71484375,-36.1328125,-15.625
-38.57421875,-33.69140625,-38.0859375,47.8515625
-53.22265625,-41.015625,-42.48046875,-25.390625
-70.3125,-45.8984375,-42.48046875,-129.8828125
-65.4296875,-56.15234375,-56.15234375,-146.97265625
-37.109375,-62.5,-60.546875,-39.55078125
-22.4609375,-49.8046875,-51.26953125,49.8046875
-40.52734375,-47.36328125,-47.8515625,-6.8359375
-65.91796875,-62.5,-41.50390625,-119.140625
-64.453125,-65.91796875,-41.50390625,-139.6484375
-41.50390625,-45.41015625,-41.9921875,-38.57421875
-27.83203125,-33.203125,-39.0625,45.41015625
-34.1796875,-27.83203125,-43.9453125,4.39453125
-55.17578125,-32.71484375,-53.22265625,-105.95703125
-65.91796875,-48.828125,-55.17578125,-151.3671875
-38.0859375,-45.41015625,-44.43359375,-56.640625
-14.6484375,-35.15625,-31.73828125,53.7109375
-34.66796875,-41.9921875,-30.2734375,25.390625
-64.453125,-50.29296875,-46.875,-89.35546875
-65.4296875,-54.6875,-59.5703125,-149.90234375
-40.0390625,-58.59375,-53.22265625,-75.68359375
-19.53125,-52.734375,-38.0859375,39.55078125
-31.25,-38.57421875,-35.15625,34.66796875
-65.4296875,-37.109375,-49.8046875,-77.1484375
-71.77734375,-50.78125,-53.7109375,-150.390625
-50.29296875,-62.01171875,-50.29296875,-94.23828125
-26.85546875,-59.5703125,-46.38671875,21.484375
-29.296875,-49.8046875,-36.62109375,33.69140625
-63.4765625,-55.17578125,-48.828125,-76.171875
-77.63671875,-60.05859375,-66.40625,-152.83203125
-54.6875,-54.6875,-59.08203125,-94.7265625
-27.83203125,-52.24609375,-51.26953125,23.92578125
-40.0390625,-48.828125,-49.31640625,39.55078125
-71.2890625,-54.6875,-50.29296875,-60.546875
-75.68359375,-62.5,-49.31640625,-146.97265625
-60.546875,-53.7109375,-52.734375,-116.2109375
-30.2734375,-41.015625,-56.15234375,7.32421875
-20.01953125,-37.109375,-50.78125,53.7109375
-45.41015625,-41.9921875,-50.78125,-41.015625
-65.4296875,-47.36328125,-46.38671875,-134.765625
-53.22265625,-51.26953125,-47.8515625,-115.234375
-22.94921875,-45.41015625,-58.59375,-3.41796875
-19.53125,-32.2265625,-54.6875,60.546875
-38.57421875,-32.71484375,-46.875,-18.5546875
-56.640625,-39.55078125,-48.828125,-122.55859375
-50.78125,-45.41015625,-42.96875,-118.1640625
-16.11328125,-38.57421875,-34.66796875,-8.30078125
-8.30078125,-36.62109375,-41.9921875,62.01171875
-41.9921875,-51.7578125,-49.31640625,-11.23046875
-68.84765625,-58.10546875,-49.31640625,-123.53515625
-53.22265625,-59.5703125,-50.29296875,-134.765625
-23.92578125,-51.26953125,-49.31640625,-32.2265625
-17.578125,-35.15625,-46.38671875,45.41015625
-32.71484375,-36.1328125,-54.19921875,-10.25390625
-54.6875,-43.45703125,-54.6875,-116.69921875
-51.7578125,-38.57421875,-46.38671875,-138.671875
-26.3671875,-37.59765625,-49.31640625,-48.33984375
-21.97265625,-40.52734375,-59.5703125,40.0390625
-40.52734375,-44.43359375,-57.12890625,6.8359375
-56.640625,-59.5703125,-47.8515625,-94.7265625
-56.15234375,-63.4765625,-46.38671875,-133.30078125
-32.71484375,-49.31640625,-42.96875,-55.6640625
-10.25390625,-31.25,-31.73828125,46.38671875
-23.92578125,-26.85546875,-32.2265625,29.78515625
-60.05859375,-43.9453125,-43.9453125,-80.56640625
-65.91796875,-53.7109375,-45.8984375,-138.18359375
-41.015625,-45.41015625,-43.45703125,-70.80078125
-21.484375,-37.109375,-44.43359375,35.15625
-29.78515625,-36.62109375,-48.828125,31.73828125
-57.6171875,-54.19921875,-51.26953125,-81.54296875
-70.3125,-69.3359375,-52.24609375,-152.83203125
-54.6875,-62.5,-49.31640625,-92.7734375
-25.87890625,-40.52734375,-33.203125,25.390625
-27.83203125,-30.76171875,-31.25,42.96875
-55.17578125,-41.9921875,-41.9921875,-59.08203125
-68.359375,-47.8515625,-47.36328125,-142.578125
-54.19921875,-38.57421875,-45.8984375,-102.5390625
-38.57421875,-41.50390625,-43.45703125,7.32421875
-44.43359375,-46.875,-38.0859375,44.43359375
-67.87109375,-49.31640625,-39.0625,-44.921875
-81.54296875,-58.59375,-49.31640625,-141.11328125
-67.3828125,-67.3828125,-50.29296875,-113.76953125
-35.64453125,-59.08203125,-35.15625,6.34765625
-32.71484375,-53.22265625,-30.76171875,53.7109375
-44.43359375,-59.5703125,-31.73828125,-17.578125
-60.05859375,-55.6640625,-42.48046875,-117.67578125
-75.68359375,-48.33984375,-54.19921875,-135.25390625
-51.26953125,-39.0625,-49.31640625,-25.87890625
-29.296875,-32.71484375,-41.015625,54.6875
-42.48046875,-33.69140625,-43.45703125,-18.06640625
-70.3125,-34.66796875,-49.31640625,-135.7421875
-74.21875,-37.109375,-51.26953125,-152.34375
-41.015625,-32.71484375,-47.8515625,-46.875
-16.6015625,-18.5546875,-46.38671875,36.1328125
-46.38671875,-24.90234375,-55.17578125,-41.50390625
-72.265625,-31.73828125,-60.05859375,-156.73828125
-63.4765625,-25.87890625,-62.01171875,-170.41015625
-36.1328125,-20.01953125,-68.359375,-77.1484375
-11.71875,-11.23046875,-65.91796875,22.4609375
-21.97265625,-2.9296875,-58.10546875,-11.23046875
-57.6171875,-3.90625,-58.10546875,-128.41796875
-53.22265625,-9.765625,-60.05859375,-158.69140625
-1.953125,-4.8828125,-56.640625,-52.734375
8.30078125,2.9296875,-58.59375,41.015625
-2.9296875,5.37109375,-60.546875,17.08984375
-16.11328125,5.37109375,-56.640625,-75.68359375
-15.13671875,-12.20703125,-61.03515625,-125.48828125
21.97265625,-17.578125,-83.0078125,-45.8984375
49.8046875,4.8828125,-84.9609375,66.89453125
39.0625,18.06640625,-72.265625,52.734375
20.01953125,18.06640625,-62.01171875,-37.109375
16.11328125,10.25390625,-62.01171875,-87.890625
40.52734375,6.8359375,-60.546875,-26.85546875
65.4296875,4.8828125,-49.31640625,83.0078125
51.26953125,-0.9765625,-50.78125,85.9375
24.90234375,-6.8359375,-60.546875,-17.08984375
16.6015625,-3.90625,-67.87109375,-89.84375
35.15625,0.48828125,-62.01171875,-43.9453125
56.15234375,7.32421875,-52.24609375,75.1953125
49.8046875,7.8125,-47.8515625,105.95703125
16.11328125,-1.46484375,-50.78125,4.39453125
-10.25390625,-11.71875,-53.7109375,-91.30859375
3.90625,-15.13671875,-49.31640625,-62.01171875
32.2265625,-8.30078125,-47.8515625,52.734375
41.50390625,-0.48828125,-44.43359375,95.703125
14.6484375,-13.18359375,-50.29296875,5.859375
-15.13671875,-25.87890625,-60.05859375,-92.28515625
-8.7890625,-27.83203125,-57.6171875,-77.1484375
21.97265625,-18.06640625,-52.24609375,33.69140625
19.04296875,-7.8125,-47.36328125,89.84375
-13.671875,-27.34375,-49.31640625,7.32421875
-31.25,-38.57421875,-50.78125,-93.26171875
-26.85546875,-36.62109375,-47.36328125,-90.8203125
-4.8828125,-36.1328125,-39.0625,9.27734375
5.859375,-32.71484375,-38.57421875,77.63671875
-15.625,-30.2734375,-59.08203125,9.27734375
-41.50390625,-33.69140625,-63.96484375,-92.28515625
-38.57421875,-48.33984375,-49.8046875,-101.5625
-14.16015625,-49.31640625,-46.38671875,-5.37109375
2.9296875,-38.0859375,-41.015625,76.66015625
-14.16015625,-34.1796875,-45.8984375,27.34375
-42.48046875,-38.57421875,-52.24609375,-84.9609375
-39.0625,-44.43359375,-48.828125,-121.58203125
-19.53125,-39.0625,-48.828125,-32.71484375
-8.30078125,-24.90234375,-49.31640625,59.5703125
-21.484375,-26.85546875,-46.875,21.97265625
-44.921875,-44.43359375,-47.36328125,-85.9375
-41.9921875,-42.96875,-47.36328125,-125.0
-19.04296875,-39.55078125,-46.875,-46.38671875
-7.32421875,-42.48046875,-48.828125,56.640625
-21.97265625,-31.73828125,-44.921875,42.48046875
-61.03515625,-40.52734375,-51.7578125,-74.21875
-70.80078125,-49.8046875,-50.78125,-134.765625
-42.48046875,-48.33984375,-37.109375,-64.94140625
-18.06640625,-43.9453125,-31.25,46.38671875
-23.4375,-34.66796875,-32.2265625,46.875
-47.8515625,-33.69140625,-37.109375,-58.10546875
-54.19921875,-42.48046875,-41.9921875,-127.9296875
-30.2734375,-50.78125,-45.8984375,-74.21875
2.9296875,-34.66796875,-34.1796875,49.8046875
-2.9296875,-27.83203125,-32.2265625,65.4296875
-44.43359375,-48.33984375,-43.45703125,-43.9453125
-65.91796875,-56.15234375,-40.0390625,-128.90625
-54.19921875,-46.875,-34.66796875,-89.84375
-26.3671875,-36.62109375,-28.80859375,26.85546875
-23.4375,-29.78515625,-26.3671875,55.17578125
-47.8515625,-35.15625,-38.57421875,-42.96875
-70.3125,-49.8046875,-45.41015625,-132.8125
-55.17578125,-49.31640625,-47.8515625,-108.88671875
-13.671875,-36.1328125,-45.41015625,8.30078125
-14.16015625,-33.69140625,-44.921875,57.12890625
-46.875,-34.66796875,-54.19921875,-34.1796875
-69.3359375,-41.015625,-60.05859375,-136.23046875
-62.98828125,-46.875,-52.734375,-125.0
-32.71484375,-39.55078125,-50.78125,-14.16015625
-25.390625,-39.0625,-55.6640625,51.7578125
-47.36328125,-49.8046875,-54.19921875,-18.5546875
-71.77734375,-54.19921875,-51.26953125,-123.046875
-70.3125,-59.08203125,-48.828125,-133.7890625
-44.921875,-61.5234375,-42.96875,-29.78515625
-35.15625,-46.875,-42.48046875,50.29296875
-56.640625,-44.921875,-48.828125,-6.34765625
-89.35546875,-54.6875,-55.17578125,-128.90625
-73.2421875,-56.640625,-55.17578125,-114.2578125
-52.24609375,-62.01171875,-53.7109375,-16.6015625
-77.63671875,-61.5234375,-48.828125,-92.7734375
-77.63671875,-57.12890625,-48.828125,-144.53125
-47.8515625,-57.12890625,-49.31640625,-50.29296875
-25.87890625,-47.8515625,-44.43359375,52.734375
-36.62109375,-41.50390625,-46.875,24.90234375
-65.91796875,-47.36328125,-45.41015625,-83.49609375
-68.359375,-62.98828125,-43.45703125,-138.18359375
-40.0390625,-58.59375,-47.36328125,-71.2890625
-25.390625,-41.50390625,-44.921875,30.76171875
-39.55078125,-41.015625,-48.33984375,18.06640625
-61.03515625,-38.0859375,-52.734375,-84.47265625
-65.4296875,-46.875,-49.31640625,-145.5078125
-47.8515625,-69.3359375,-53.22265625,-87.890625
-24.4140625,-58.10546875,-57.12890625,16.11328125
-25.390625,-42.48046875,-50.78125,26.85546875
-54.6875,-48.33984375,-48.33984375,-68.84765625
-64.453125,-48.828125,-50.78125,-142.578125
-48.828125,-51.26953125,-55.17578125,-97.65625
-28.80859375,-49.31640625,-47.8515625,16.6015625
-20.01953125,-40.0390625,-43.45703125,49.31640625
-47.8515625,-43.45703125,-49.31640625,-47.8515625
-71.2890625,-54.19921875,-45.8984375,-141.6015625
-52.24609375,-50.29296875,-41.50390625,-99.12109375
-17.578125,-43.45703125,-43.45703125,21.97265625
-15.13671875,-43.9453125,-41.50390625,58.59375
-44.43359375,-46.875,-43.45703125,-37.59765625
-64.94140625,-48.33984375,-48.33984375,-138.18359375
-55.17578125,-47.36328125,-48.828125,-117.67578125
-22.4609375,-44.921875,-40.52734375,-1.953125
-15.625,-37.59765625,-35.64453125,54.6875
-43.45703125,-43.9453125,-41.015625,-21.484375
-61.5234375,-55.6640625,-41.50390625,-117.1875
-43.9453125,-58.59375,-38.57421875,-109.86328125
-14.16015625,-48.828125,-43.9453125,-0.48828125
-9.765625,-37.59765625,-52.734375,65.91796875
-33.203125,-49.31640625,-54.19921875,-6.34765625
-67.87109375,-67.87109375,-48.828125,-115.72265625
-65.91796875,-62.98828125,-46.38671875,-133.7890625
-34.66796875,-44.43359375,-44.43359375,-35.64453125
-24.4140625,-35.64453125,-40.0390625,54.6875
-44.921875,-36.62109375,-43.45703125,0.9765625
-75.68359375,-48.828125,-49.8046875,-112.3046875
-71.2890625,-53.22265625,-51.26953125,-135.7421875
-32.2265625,-54.6875,-44.43359375,-37.109375
-19.53125,-58.59375,-41.50390625,53.7109375
-45.41015625,-57.6171875,-45.8984375,8.30078125
-69.82421875,-47.36328125,-58.10546875,-104.98046875
-66.40625,-48.33984375,-63.96484375,-149.90234375
-48.828125,-57.12890625,-54.6875,-68.359375
-32.71484375,-47.36328125,-53.7109375,35.64453125
-42.48046875,-43.45703125,-56.15234375,16.6015625
-68.84765625,-52.24609375,-50.29296875,-89.35546875
-71.77734375,-63.96484375,-48.33984375,-146.484375
-45.8984375,-61.5234375,-48.33984375,-75.68359375
-23.4375,-51.26953125,-48.33984375,33.69140625
-34.66796875,-49.31640625,-47.36328125,30.2734375
-66.89453125,-50.29296875,-48.33984375,-71.2890625
-65.91796875,-47.36328125,-46.875,-136.23046875
-41.50390625,-43.45703125,-39.55078125,-76.66015625
-25.390625,-42.96875,-43.45703125,32.71484375
-28.3203125,-42.48046875,-47.8515625,40.52734375
-53.22265625,-45.8984375,-49.31640625,-59.5703125
-66.40625,-48.33984375,-47.8515625,-142.08984375
-48.828125,-56.15234375,-52.734375,-109.375
-17.578125,-55.6640625,-56.640625,11.71875
-20.01953125,-35.64453125,-47.8515625,47.36328125
-50.29296875,-36.62109375,-43.45703125,-50.78125
-65.91796875,-52.24609375,-43.45703125,-140.13671875
-47.36328125,-44.921875,-38.57421875,-107.91015625
-25.87890625,-34.1796875,-38.57421875,2.9296875
-32.71484375,-35.64453125,-41.015625,47.36328125
-56.640625,-41.015625,-40.0390625,-30.2734375
-72.265625,-48.828125,-46.38671875,-125.0
-61.5234375,-61.5234375,-48.828125,-112.3046875
-36.1328125,-60.546875,-48.828125,-1.953125
-34.66796875,-44.921875,-53.22265625,58.10546875
-58.59375,-38.57421875,-45.8984375,-18.06640625
-82.51953125,-49.31640625,-41.9921875,-120.1171875
-72.75390625,-56.640625,-45.41015625,-126.46484375
-35.64453125,-46.38671875,-45.8984375,-27.34375
-18.06640625,-36.62109375,-41.50390625,54.19921875
-34.66796875,-39.0625,-41.015625,-0.48828125
-63.96484375,-37.59765625,-45.8984375,-109.375
-57.12890625,-33.69140625,-44.43359375,-129.39453125
-25.87890625,-38.57421875,-42.48046875,-33.203125
-14.16015625,-45.8984375,-44.921875,51.26953125
-30.2734375,-47.8515625,-48.33984375,4.39453125
-63.4765625,-53.7109375,-49.31640625,-107.91015625
-60.05859375,-58.10546875,-47.36328125,-144.53125
-26.85546875,-41.9921875,-43.9453125,-45.8984375
-10.7421875,-28.3203125,-41.9921875,56.15234375
-25.87890625,-28.3203125,-41.9921875,16.11328125
-58.10546875,-39.55078125,-49.31640625,-99.609375
-59.5703125,-48.828125,-44.921875,-141.6015625
-40.0390625,-42.96875,-41.9921875,-66.89453125
-25.87890625,-39.55078125,-47.8515625,36.62109375
-42.48046875,-47.8515625,-44.921875,20.99609375
-79.58984375,-54.19921875,-43.9453125,-92.7734375
-79.1015625,-52.24609375,-43.9453125,-148.4375
-51.7578125,-49.8046875,-39.55078125,-79.58984375
-27.34375,-50.29296875,-40.52734375,29.78515625
-32.2265625,-61.03515625,-46.38671875,32.71484375
-63.4765625,-68.84765625,-47.8515625,-66.40625
-83.0078125,-59.5703125,-55.6640625,-141.6015625
-61.5234375,-54.19921875,-52.24609375,-96.6796875
-30.76171875,-39.55078125,-41.015625,19.53125
-44.43359375,-27.83203125,-38.57421875,38.57421875
-67.3828125,-34.66796875,-34.1796875,-59.5703125
-77.1484375,-55.17578125,-36.62109375,-144.04296875
-63.96484375,-59.08203125,-45.8984375,-113.76953125
-33.203125,-48.828125,-47.8515625,-1.953125
-31.73828125,-45.8984375,-42.48046875,39.0625
-66.40625,-48.828125,-47.36328125,-56.640625
-84.47265625,-53.7109375,-46.38671875,-148.4375
-68.84765625,-57.12890625,-47.8515625,-125.0
-43.45703125,-56.640625,-55.17578125,-17.08984375
-34.66796875,-48.33984375,-57.6171875,36.62109375
-68.359375,-47.36328125,-63.4765625,-40.52734375
-98.14453125,-61.03515625,-67.3828125,-136.71875
-70.3125,-63.4765625,-62.98828125,-128.90625
-34.66796875,-57.6171875,-45.8984375,-24.90234375
-34.1796875,-58.10546875,-42.96875,40.52734375
-61.5234375,-57.12890625,-43.45703125,-29.296875
-97.65625,-57.12890625,-38.57421875,-134.27734375
-98.6328125,-54.19921875,-40.52734375,-137.20703125
-62.01171875,-48.828125,-38.0859375,-33.203125
-44.43359375,-48.828125,-40.52734375,38.57421875
-63.4765625,-47.8515625,-47.8515625,-17.08984375
-87.40234375,-51.26953125,-48.828125,-123.046875
-75.1953125,-60.05859375,-47.8515625,-142.578125
-44.921875,-48.33984375,-47.36328125,-44.43359375
-30.76171875,-37.109375,-48.828125,41.50390625
-50.78125,-43.45703125,-55.17578125,-9.27734375
-82.03125,-48.828125,-54.6875,-123.53515625
-71.77734375,-51.26953125,-50.78125,-160.64453125
-38.57421875,-61.5234375,-51.7578125,-73.2421875
-21.97265625,-62.98828125,-51.26953125,32.2265625
-40.52734375,-49.8046875,-56.15234375,2.44140625
-79.58984375,-46.875,-61.03515625,-110.83984375
-76.66015625,-45.41015625,-49.31640625,-152.34375
-47.36328125,-46.875,-37.109375,-77.63671875
-34.1796875,-36.1328125,-37.109375,22.4609375
-37.59765625,-25.390625,-34.1796875,15.13671875
-74.70703125,-43.45703125,-38.0859375,-89.84375
-88.8671875,-57.6171875,-41.50390625,-150.87890625
-61.03515625,-54.6875,-36.62109375,-87.40234375
-44.43359375,-46.875,-39.55078125,20.5078125
-51.7578125,-46.38671875,-46.875,21.97265625
-77.1484375,-54.6875,-51.7578125,-81.54296875
-84.47265625,-56.640625,-55.17578125,-148.4375
-60.546875,-50.78125,-56.640625,-96.19140625
-28.3203125,-35.64453125,-50.29296875,12.20703125
-30.76171875,-29.296875,-47.36328125,26.85546875
-66.89453125,-37.109375,-50.78125,-71.2890625
-81.54296875,-38.0859375,-46.875,-147.94921875
-66.89453125,-48.828125,-48.828125,-119.62890625
-42.48046875,-52.734375,-51.7578125,-18.5546875
-43.45703125,-44.43359375,-53.22265625,12.20703125
-71.77734375,-43.45703125,-58.59375,-68.84765625
-85.9375,-45.41015625,-57.6171875,-156.73828125
-71.2890625,-45.8984375,-54.6875,-139.6484375
-44.43359375,-39.55078125,-56.640625,-30.76171875
-38.0859375,-32.71484375,-51.26953125,19.53125
-63.4765625,-33.69140625,-50.29296875,-56.15234375
-88.8671875,-42.48046875,-59.5703125,-152.83203125
-86.9140625,-45.8984375,-62.01171875,-148.4375
-54.19921875,-39.55078125,-54.19921875,-43.9453125
-36.1328125,-45.41015625,-55.6640625,18.5546875
-66.89453125,-54.19921875,-62.5,-49.8046875
-99.12109375,-49.31640625,-53.22265625,-145.5078125
-84.47265625,-38.57421875,-42.96875,-144.53125
-46.875,-28.3203125,-37.59765625,-45.8984375
-33.69140625,-26.3671875,-38.0859375,33.69140625
-48.33984375,-27.34375,-41.50390625,-11.71875
-86.42578125,-42.48046875,-49.8046875,-123.046875
-93.26171875,-47.8515625,-54.6875,-145.99609375
-59.5703125,-39.55078125,-51.26953125,-54.6875
-40.52734375,-31.73828125,-47.8515625,25.390625
-55.6640625,-24.90234375,-45.8984375,-14.6484375
-80.078125,-27.34375,-49.8046875,-115.234375
-77.63671875,-38.57421875,-51.7578125,-147.94921875
-52.734375,-44.921875,-51.26953125,-74.21875
-32.2265625,-41.50390625,-54.19921875,2.44140625
-26.85546875,-32.2265625,-57.6171875,-16.11328125
-54.6875,-35.64453125,-47.8515625,-89.35546875
-98.6328125,-51.26953125,-38.0859375,-149.4140625
-92.28515625,-59.5703125,-41.50390625,-102.5390625
-69.3359375,-58.10546875,-38.0859375,-1.46484375
-88.37890625,-53.7109375,-34.1796875,-14.6484375
-123.046875,-68.359375,-35.64453125,-122.55859375
-135.25390625,-78.61328125,-33.69140625,-181.15234375
-122.0703125,-79.1015625,-35.15625,-138.671875
-110.83984375,-83.0078125,-34.1796875,-57.6171875
-128.41796875,-85.44921875,-38.0859375,-60.05859375
-160.64453125,-88.8671875,-37.59765625,-146.484375
-184.5703125,-102.05078125,-35.15625,-216.796875
-172.8515625,-104.4921875,-33.203125,-183.59375
-148.4375,-99.12109375,-21.97265625,-82.03125
-144.53125,-99.609375,-23.4375,-63.96484375
-169.43359375,-98.6328125,-20.5078125,-143.5546875
-204.1015625,-107.421875,-17.578125,-219.7265625
-197.265625,-119.62890625,-29.78515625,-204.1015625
-157.2265625,-109.375,-26.3671875,-103.515625
-143.06640625,-101.5625,-18.5546875,-68.84765625
-168.9453125,-110.83984375,-22.4609375,-148.4375
-199.70703125,-111.328125,-32.71484375,-228.02734375
-195.3125,-103.02734375,-34.66796875,-212.890625
-166.015625,-96.6796875,-20.01953125,-115.234375
-161.1328125,-95.703125,-21.484375,-68.84765625
-183.59375,-99.609375,-30.76171875,-125.9765625
-205.078125,-103.515625,-30.76171875,-196.2890625
-199.70703125,-103.02734375,-33.203125,-196.2890625
-166.9921875,-96.6796875,-31.73828125,-110.83984375
-152.34375,-92.7734375,-28.3203125,-47.8515625
-167.48046875,-87.40234375,-30.76171875,-96.19140625
-191.40625,-97.65625,-32.71484375,-178.22265625
-178.7109375,-106.93359375,-34.66796875,-181.15234375
-133.7890625,-90.8203125,-35.64453125,-99.12109375
-118.1640625,-81.0546875,-36.1328125,-36.1328125
-143.06640625,-89.35546875,-37.109375,-78.125
-162.59765625,-96.6796875,-33.203125,-158.203125
-158.203125,-88.8671875,-36.1328125,-178.22265625
-132.32421875,-77.1484375,-41.50390625,-116.69921875
-110.83984375,-69.3359375,-40.0390625,-46.875
-129.8828125,-69.3359375,-41.50390625,-74.21875
-151.85546875,-69.3359375,-47.36328125,-156.25
-144.04296875,-66.89453125,-44.43359375,-182.12890625
-129.8828125,-75.1953125,-44.921875,-127.9296875
-98.6328125,-73.2421875,-50.29296875,-53.22265625
-100.5859375,-63.96484375,-49.31640625,-63.96484375
-139.16015625,-63.96484375,-44.921875,-143.06640625
-135.7421875,-62.98828125,-44.921875,-175.78125
-115.72265625,-66.40625,-36.1328125,-123.046875
-104.98046875,-66.40625,-25.390625,-52.24609375
-104.00390625,-69.82421875,-30.2734375,-47.8515625
-103.515625,-74.21875,-36.1328125,-98.6328125
-110.3515625,-72.265625,-42.48046875,-150.390625
-98.14453125,-62.5,-46.875,-133.30078125
-60.546875,-47.8515625,-47.36328125,-59.08203125
-72.265625,-49.8046875,-47.8515625,-47.8515625
-103.515625,-59.5703125,-45.8984375,-104.4921875
-106.4453125,-59.08203125,-47.36328125,-148.92578125
-92.28515625,-52.734375,-53.22265625,-130.37109375
-66.89453125,-43.45703125,-42.96875,-65.91796875
-65.91796875,-41.015625,-32.2265625,-19.53125
-103.02734375,-48.828125,-34.1796875,-5.859375
-119.62890625,-53.22265625,-40.52734375,-32.2265625
-104.4921875,-54.6875,-41.9921875,-41.9921875
-84.9609375,-53.7109375,-32.71484375,13.18359375
-89.84375,-56.15234375,-25.87890625,38.0859375
-113.28125,-60.546875,-32.71484375,-9.27734375
-121.58203125,-66.40625,-34.66796875,-56.640625
-111.328125,-70.3125,-30.2734375,-53.22265625
-97.16796875,-73.73046875,-30.76171875,-4.39453125
-81.54296875,-74.70703125,-28.80859375,29.296875
-89.35546875,-61.03515625,-33.203125,-14.16015625
-116.69921875,-55.6640625,-37.59765625,-84.9609375
-105.95703125,-54.19921875,-35.64453125,-94.7265625
-71.2890625,-49.31640625,-36.62109375,-45.8984375
-52.24609375,-45.8984375,-32.71484375,-6.34765625
-61.03515625,-40.0390625,-34.1796875,-43.9453125
-85.9375,-39.55078125,-40.0390625,-110.3515625
-83.0078125,-42.48046875,-37.59765625,-119.62890625
-65.91796875,-40.52734375,-37.59765625,-79.1015625
-55.6640625,-38.57421875,-34.66796875,-43.45703125
-70.3125,-41.9921875,-39.55078125,-71.2890625
-95.703125,-49.31640625,-42.48046875,-136.23046875
-89.35546875,-47.36328125,-29.78515625,-159.1796875
-60.546875,-39.55078125,-34.1796875,-123.046875
-42.48046875,-33.69140625,-45.41015625,-85.44921875
-55.6640625,-30.76171875,-39.55078125,-102.5390625
-91.30859375,-41.9921875,-30.2734375,-160.15625
-98.6328125,-46.875,-32.71484375,-185.546875
-75.1953125,-44.43359375,-35.64453125,-143.5546875
-59.08203125,-40.0390625,-35.15625,-90.33203125
-71.2890625,-33.203125,-39.55078125,-103.515625
-105.46875,-38.0859375,-46.38671875,-166.015625
-104.00390625,-44.43359375,-47.8515625,-187.98828125
-75.68359375,-37.109375,-36.62109375,-142.578125
-52.734375,-33.69140625,-30.76171875,-78.125
-62.01171875,-43.9453125,-37.59765625,-79.58984375
-84.47265625,-44.921875,-40.52734375,-139.6484375
-80.078125,-35.15625,-41.015625,-174.8046875
-62.98828125,-33.203125,-42.96875,-151.3671875
-37.109375,-40.0390625,-37.59765625,-93.26171875
-30.2734375,-33.69140625,-33.69140625,-72.75390625
-58.10546875,-26.85546875,-29.78515625,-121.09375
-84.9609375,-35.64453125,-35.64453125,-174.31640625
-81.54296875,-45.8984375,-37.59765625,-159.66796875
-53.7109375,-41.9921875,-34.1796875,-93.75
-50.78125,-31.73828125,-44.43359375,-79.1015625
-66.40625,-30.2734375,-41.9921875,-122.0703125
-84.9609375,-36.62109375,-35.64453125,-187.01171875
-83.984375,-43.9453125,-35.15625,-194.3359375
-47.8515625,-38.57421875,-39.0625,-126.46484375
-42.48046875,-26.85546875,-44.921875,-105.46875
-64.94140625,-26.85546875,-44.43359375,-143.06640625
-78.61328125,-32.71484375,-36.1328125,-175.78125
-74.70703125,-32.71484375,-33.203125,-166.9921875
-47.8515625,-38.0859375,-37.59765625,-106.93359375
-32.2265625,-40.0390625,-43.45703125,-62.01171875
-47.36328125,-33.69140625,-45.41015625,-95.703125
-62.5,-32.2265625,-38.0859375,-145.99609375
-56.15234375,-36.62109375,-35.64453125,-151.85546875
-40.52734375,-41.9921875,-38.57421875,-122.55859375
-21.97265625,-36.1328125,-35.64453125,-106.93359375
-34.1796875,-30.76171875,-34.1796875,-148.92578125
-69.3359375,-38.0859375,-39.55078125,-209.47265625
-64.94140625,-37.59765625,-36.62109375,-215.8203125
-39.55078125,-38.57421875,-34.1796875,-153.80859375
-26.3671875,-37.109375,-33.69140625,-88.37890625
-37.59765625,-39.0625,-31.25,-93.75
-61.03515625,-43.9453125,-38.57421875,-135.7421875
-59.5703125,-36.62109375,-42.48046875,-140.625
-51.7578125,-38.57421875,-46.38671875,-98.14453125
-41.9921875,-40.52734375,-48.33984375,-40.0390625
-47.36328125,-33.203125,-44.921875,-32.71484375
-70.80078125,-29.296875,-43.45703125,-69.82421875
-77.63671875,-34.1796875,-44.43359375,-75.68359375
-68.84765625,-42.96875,-47.36328125,-34.1796875
-48.33984375,-39.55078125,-43.9453125,27.34375
-39.0625,-31.73828125,-41.9921875,45.41015625
-61.5234375,-25.390625,-45.41015625,1.46484375
-84.47265625,-28.3203125,-46.38671875,-35.15625
-69.3359375,-39.0625,-45.8984375,-0.9765625
-37.59765625,-34.66796875,-47.36328125,66.40625
-43.9453125,-27.83203125,-45.8984375,67.3828125
-69.3359375,-26.85546875,-42.96875,12.6953125
-77.1484375,-34.1796875,-48.33984375,-32.2265625
-58.59375,-36.62109375,-44.43359375,-16.6015625
-38.0859375,-30.2734375,-39.55078125,26.3671875
-37.59765625,-32.2265625,-37.59765625,34.1796875
-48.33984375,-33.203125,-39.0625,-6.34765625
-55.6640625,-33.69140625,-36.62109375,-46.875
-41.015625,-32.2265625,-35.15625,-33.203125
-29.78515625,-30.2734375,-40.52734375,14.16015625
-34.66796875,-35.15625,-40.0390625,33.203125
-45.41015625,-35.64453125,-40.52734375,-1.953125
-61.03515625,-32.71484375,-40.52734375,-43.45703125
-56.15234375,-34.66796875,-39.55078125,-38.57421875
-32.2265625,-32.2265625,-34.66796875,22.94921875
-24.4140625,-28.3203125,-33.69140625,62.98828125
-40.0390625,-27.34375,-32.2265625,26.3671875
-59.08203125,-35.15625,-31.73828125,-25.390625
-57.12890625,-37.109375,-38.0859375,-33.69140625
-37.59765625,-31.73828125,-45.41015625,2.44140625
-36.62109375,-27.83203125,-36.1328125,32.2265625
-64.94140625,-32.2265625,-33.69140625,-11.71875
-80.56640625,-34.66796875,-45.41015625,-81.0546875
-80.56640625,-32.71484375,-43.45703125,-99.609375
-60.05859375,-34.66796875,-41.015625,-57.6171875
-36.1328125,-32.71484375,-40.52734375,-12.20703125
-48.33984375,-29.78515625,-43.9453125,-37.59765625
-72.265625,-30.76171875,-45.8984375,-92.28515625
-70.3125,-33.203125,-47.36328125,-113.28125
-47.8515625,-31.73828125,-52.24609375,-86.42578125
-22.4609375,-27.83203125,-51.26953125,-42.96875
-29.296875,-23.92578125,-42.48046875,-54.6875
-63.4765625,-21.97265625,-43.9453125,-117.67578125
-75.1953125,-34.66796875,-51.26953125,-166.015625
-37.59765625,-44.921875,-52.734375,-133.30078125
-10.7421875,-39.55078125,-45.8984375,-70.80078125
-25.390625,-35.15625,-42.48046875,-85.44921875
-47.36328125,-30.76171875,-41.50390625,-147.94921875
-50.78125,-30.76171875,-40.0390625,-173.828125
-31.25,-34.1796875,-42.96875,-138.18359375
-19.04296875,-32.71484375,-38.57421875,-89.84375
-24.90234375,-28.3203125,-39.55078125,-92.28515625
-58.10546875,-26.3671875,-48.828125,-146.97265625
-74.70703125,-30.2734375,-54.6875,-190.91796875
-47.36328125,-35.15625,-51.7578125,-152.83203125
-31.73828125,-35.64453125,-40.52734375,-79.1015625
-49.31640625,-41.9921875,-38.57421875,-73.73046875
-67.87109375,-41.50390625,-42.96875,-125.48828125
-84.47265625,-39.0625,-49.31640625,-171.875
-73.73046875,-42.48046875,-55.17578125,-158.203125
-43.9453125,-35.64453125,-54.19921875,-93.26171875
-47.36328125,-38.0859375,-50.29296875,-78.61328125
-69.3359375,-47.8515625,-51.26953125,-134.765625
-78.125,-50.78125,-50.29296875,-169.43359375
-70.80078125,-47.8515625,-52.734375,-150.390625
-48.33984375,-41.015625,-56.15234375,-94.23828125
-45.8984375,-35.15625,-47.36328125,-59.08203125
-62.5,-42.96875,-47.36328125,-83.0078125
-63.96484375,-53.22265625,-52.24609375,-108.3984375
-52.734375,-51.26953125,-56.15234375,-104.98046875
-29.78515625,-44.921875,-55.6640625,-64.94140625
-18.06640625,-42.96875,-52.24609375,-29.296875
-41.015625,-41.9921875,-58.10546875,-59.08203125
-71.77734375,-44.921875,-65.91796875,-112.3046875
-63.96484375,-43.45703125,-63.4765625,-114.74609375
-41.015625,-36.1328125,-65.4296875,-65.4296875
-33.203125,-33.203125,-62.5,-26.85546875
-57.12890625,-39.0625,-52.24609375,-52.24609375
-98.6328125,-41.50390625,-51.7578125,-105.95703125
-94.23828125,-47.36328125,-46.875,-104.4921875
-67.3828125,-53.7109375,-43.45703125,-48.33984375
-49.8046875,-43.45703125,-46.38671875,-13.18359375
-59.08203125,-38.0859375,-49.8046875,-45.41015625
-71.2890625,-43.9453125,-53.7109375,-91.30859375
-62.98828125,-48.33984375,-49.31640625,-107.91015625
-48.33984375,-45.41015625,-50.29296875,-69.82421875
-33.203125,-40.52734375,-57.12890625,-24.90234375
-40.52734375,-48.33984375,-61.5234375,-51.26953125
-62.5,-51.7578125,-59.5703125,-99.12109375
-61.03515625,-47.8515625,-53.22265625,-102.5390625
-40.0390625,-43.9453125,-52.734375,-54.19921875
-44.921875,-53.7109375,-53.22265625,-10.7421875
-66.40625,-69.82421875,-52.734375,-20.99609375
-83.0078125,-60.05859375,-55.17578125,-64.94140625
-96.6796875,-54.19921875,-59.08203125,-81.54296875
-95.703125,-65.4296875,-64.94140625,-44.43359375
-84.47265625,-70.3125,-57.6171875,55.17578125
-86.42578125,-61.03515625,-43.9453125,140.13671875
-111.81640625,-68.359375,-41.50390625,178.7109375
-116.2109375,-79.58984375,-34.66796875,286.1328125
-96.19140625,-83.49609375,-31.73828125,588.37890625
-71.2890625,-83.0078125,-34.1796875,905.2734375
-68.359375,-77.1484375,-32.71484375,970.703125
-109.375,-92.28515625,-41.015625,957.51953125
-131.34765625,-105.95703125,-56.15234375,966.796875
-130.859375,-111.328125,-68.84765625,965.8203125
-125.9765625,-113.76953125,-75.68359375,965.8203125
-125.9765625,-110.3515625,-80.078125,965.8203125
-154.296875,-120.60546875,-95.21484375,965.8203125
-172.8515625,-133.30078125,-110.83984375,965.8203125
-173.828125,-143.06640625,-108.88671875,965.8203125
-179.19921875,-161.62109375,-108.3984375,965.8203125
-175.78125,-172.36328125,-112.3046875,965.8203125
-192.3828125,-181.640625,-119.140625,965.8203125
-221.6796875,-183.59375,-126.46484375,965.8203125
-217.7734375,-190.91796875,-133.7890625,966.796875
-190.91796875,-215.33203125,-140.625,964.84375
-191.89453125,-234.86328125,-153.3203125,940.4296875
-203.125,-244.62890625,-179.6875,999.51171875
-219.23828125,-266.11328125,-201.171875,602.5390625
-223.6328125,-292.96875,-214.35546875,-190.91796875
-198.73046875,-307.6171875,-225.5859375,-541.50390625
-195.80078125,-325.68359375,-232.91015625,-754.8828125
-224.12109375,-353.02734375,-248.53515625,-960.44921875
-246.58203125,-381.34765625,-263.18359375,-1000.0
-228.515625,-403.3203125,-267.578125,-994.62890625
-191.89453125,-416.9921875,-276.3671875,-1000.0
-136.23046875,-422.8515625,-281.25,-1000.0
-112.79296875,-428.7109375,-288.57421875,-1000.0
-119.62890625,-449.21875,-300.78125,-1000.0
-82.51953125,-467.28515625,-312.98828125,-1000.0
-25.87890625,-479.00390625,-314.453125,-1000.0
31.73828125,-482.91015625,-314.453125,-1000.0
102.5390625,-475.09765625,-306.640625,-1000.0
218.26171875,-461.42578125,-290.52734375,-1000.0
393.5546875,-423.33984375,-263.671875,-1000.0
728.02734375,-371.58203125,-217.28515625,-1000.0
967.28515625,-333.984375,-185.05859375,-1000.0
960.9375,-308.10546875,-155.76171875,-1000.0
960.9375,-273.92578125,-122.55859375,-1000.0
966.796875,-234.86328125,-94.23828125,-1000.0
965.33203125,-203.61328125,-65.4296875,-1000.0
965.8203125,-170.8984375,-41.015625,-1000.0
965.33203125,-140.13671875,-22.4609375,-1000.0
965.33203125,-119.62890625,-20.01953125,-1000.0
965.33203125,-107.421875,-17.578125,-1000.0
965.33203125,-100.09765625,-14.16015625,-1000.0
965.33203125,-91.796875,-13.18359375,-1000.0
965.33203125,-83.984375,-5.859375,-1000.0
965.33203125,-78.61328125,-8.7890625,-997.0703125
965.33203125,-69.82421875,-11.23046875,-997.55859375
965.33203125,-62.01171875,-9.27734375,-1000.0
965.33203125,-52.24609375,-10.25390625,-833.984375
965.33203125,-44.921875,-16.11328125,-704.58984375
965.33203125,-42.48046875,-20.5078125,-812.98828125
965.33203125,-46.38671875,-22.94921875,-888.18359375
965.33203125,-43.45703125,-22.4609375,-830.56640625
965.33203125,-22.4609375,-19.53125,-674.31640625
965.33203125,-10.25390625,-22.94921875,-623.046875
965.33203125,3.41796875,-25.390625,-673.33984375
965.8203125,10.25390625,-27.83203125,-744.140625
965.33203125,9.27734375,-29.296875,-785.15625
964.84375,28.3203125,-23.4375,-640.625
965.33203125,40.52734375,-20.01953125,-535.15625
965.33203125,29.78515625,-25.390625,-652.34375
965.33203125,37.59765625,-26.3671875,-778.3203125
965.33203125,62.5,-25.87890625,-757.8125
965.33203125,79.1015625,-23.92578125,-565.4296875
965.33203125,89.35546875,-8.30078125,-412.109375
965.33203125,110.83984375,12.6953125,-496.09375
965.33203125,133.7890625,15.13671875,-675.78125
965.33203125,132.32421875,8.30078125,-813.96484375
965.33203125,132.32421875,16.11328125,-834.9609375
965.8203125,127.9296875,27.83203125,-876.953125
965.8203125,125.9765625,36.1328125,-997.0703125
965.33203125,117.1875,25.390625,-998.53515625
965.33203125,95.21484375,9.765625,-998.046875
965.8203125,87.890625,4.8828125,-991.2109375
965.33203125,81.0546875,-0.9765625,-841.30859375
965.33203125,69.82421875,-4.39453125,-771.97265625
965.33203125,54.19921875,-2.9296875,-922.36328125
965.33203125,52.24609375,-4.8828125,-1000.0
965.33203125,69.3359375,-0.48828125,-936.5234375
965.33203125,70.3125,10.25390625,-767.578125
965.33203125,58.10546875,10.25390625,-657.2265625
965.33203125,52.734375,-8.30078125,-673.828125
965.33203125,53.22265625,-12.6953125,-705.56640625
965.33203125,41.015625,-21.97265625,-599.609375
965.33203125,30.2734375,-35.15625,-386.23046875
965.33203125,48.33984375,-21.97265625,-227.05078125
965.33203125,39.55078125,-11.71875,-210.44921875
964.84375,11.23046875,-3.90625,-245.60546875
958.984375,7.32421875,-8.7890625,-108.88671875
973.14453125,6.8359375,-19.04296875,129.39453125
863.28125,-0.9765625,-30.2734375,238.28125
634.27734375,-20.01953125,-36.1328125,217.28515625
484.86328125,-30.2734375,-39.0625,181.15234375
379.39453125,-25.390625,-47.8515625,269.53125
272.4609375,-14.6484375,-59.08203125,486.81640625
139.16015625,3.90625,-60.546875,623.046875
-22.94921875,12.6953125,-62.01171875,575.68359375
-143.5546875,19.53125,-89.35546875,514.6484375
-200.68359375,46.38671875,-121.58203125,561.03515625
-265.625,83.0078125,-87.40234375,708.0078125
-375.48828125,113.76953125,-30.76171875,779.78515625
-504.39453125,145.5078125,-28.80859375,698.73046875
-611.81640625,158.203125,-59.5703125,585.44921875
-682.6171875,155.2734375,-84.47265625,556.640625
-751.46484375,166.015625,-92.28515625,689.94140625
-828.61328125,174.31640625,-106.93359375,790.52734375
-933.10546875,170.8984375,-122.0703125,722.16796875
-998.53515625,180.17578125,-103.02734375,610.83984375
-998.046875,181.15234375,-86.9140625,578.125
-999.51171875,167.48046875,-94.7265625,645.01953125
-1000.0,151.3671875,-96.19140625,719.23828125
-1000.0,120.1171875,-91.30859375,654.78515625
-1000.0,94.7265625,-77.63671875,523.4375
-1000.0,93.75,-62.98828125,484.86328125
-1000.0,92.7734375,-53.7109375,566.89453125
-1000.0,79.58984375,-49.31640625,666.015625
-1000.0,61.5234375,-51.7578125,610.83984375
-1000.0,35.15625,-57.6171875,331.54296875
-1000.0,9.765625,-55.17578125,110.3515625
-1000.0,0.48828125,-39.55078125,127.9296875
-1000.0,6.8359375,-25.390625,192.3828125
-1000.0,0.48828125,-13.18359375,135.7421875
-1000.0,-19.04296875,-20.5078125,-31.73828125
-1000.0,-31.73828125,-33.203125,-140.13671875
-1000.0,-32.71484375,-31.73828125,-86.42578125
-1000.0,-31.25,-29.296875,36.1328125
-1000.0,-37.109375,-29.296875,11.71875
-1000.0,-47.8515625,-30.2734375,-141.11328125
-1000.0,-57.6171875,-34.66796875,-234.86328125
-1000.0,-61.03515625,-36.62109375,-205.56640625
-1000.0,-57.6171875,-34.1796875,-80.078125
-996.58203125,-60.546875,-30.2734375,-59.08203125
-1000.0,-69.82421875,-31.73828125,-182.6171875
-978.515625,-73.73046875,-33.69140625,-293.9453125
-850.09765625,-71.2890625,-36.1328125,-275.87890625
-725.5859375,-60.05859375,-40.52734375,-144.53125
-652.34375,-49.31640625,-39.0625,-82.51953125
-611.328125,-54.6875,-31.73828125,-177.734375
-561.03515625,-58.10546875,-27.83203125,-287.59765625
-460.9375,-45.41015625,-26.3671875,-253.90625
-391.11328125,-35.15625,-22.94921875,-116.69921875
-379.8828125,-29.78515625,-23.4375,-57.6171875
-387.20703125,-32.2265625,-25.390625,-148.4375
-400.390625,-38.57421875,-26.85546875,-275.390625
-368.1640625,-45.8984375,-28.3203125,-292.48046875
-307.12890625,-54.6875,-30.76171875,-195.80078125
-281.73828125,-50.78125,-28.80859375,-114.2578125
-304.19921875,-48.828125,-27.83203125,-169.921875
-325.1953125,-62.01171875,-29.78515625,-259.765625
-288.0859375,-64.453125,-28.80859375,-283.69140625
-242.1875,-56.15234375,-28.80859375,-210.9375
-238.76953125,-54.6875,-29.78515625,-130.37109375
-273.92578125,-55.6640625,-31.73828125,-213.37890625
-294.921875,-60.546875,-37.109375,-340.33203125
-271.484375,-64.453125,-36.62109375,-352.05078125
-232.421875,-59.08203125,-34.1796875,-268.06640625
-194.82421875,-53.7109375,-32.71484375,-174.8046875
-199.70703125,-60.05859375,-32.71484375,-207.51953125
-204.1015625,-77.63671875,-37.59765625,-311.03515625
-169.921875,-91.796875,-43.45703125,-348.6328125
-125.0,-93.75,-42.48046875,-263.671875
-113.28125,-84.47265625,-30.2734375,-135.25390625
-148.4375,-78.125,-25.87890625,-148.4375
-188.4765625,-81.54296875,-22.94921875,-267.578125
-208.49609375,-86.9140625,-19.04296875,-304.19921875
-222.16796875,-87.40234375,-17.578125,-215.33203125
-234.86328125,-80.56640625,-13.671875,-95.21484375
-269.53125,-81.54296875,-17.578125,-127.9296875
-312.5,-92.7734375,-26.85546875,-217.28515625
-309.08203125,-95.21484375,-26.85546875,-177.734375
-319.82421875,-88.8671875,-19.53125,-55.6640625
-334.47265625,-86.9140625,-13.18359375,115.234375
-302.734375,-87.40234375,-9.27734375,141.6015625
-305.17578125,-92.7734375,-17.08984375,15.625
-341.796875,-98.14453125,-21.97265625,-52.24609375
-326.66015625,-94.23828125,-20.99609375,-17.08984375
-312.98828125,-84.47265625,-20.5078125,99.609375
-336.42578125,-81.54296875,-16.6015625,151.3671875
-384.27734375,-82.03125,-24.4140625,76.66015625
-392.08984375,-90.33203125,-39.0625,14.16015625
-357.91015625,-95.21484375,-39.55078125,70.80078125
-325.68359375,-85.9375,-36.62109375,196.2890625
-305.6640625,-71.2890625,-35.15625,255.859375
-336.42578125,-66.40625,-25.390625,211.42578125
-358.3984375,-81.0546875,-18.06640625,182.12890625
-321.77734375,-83.0078125,-18.5546875,231.4453125
-271.484375,-67.87109375,-19.53125,333.984375
-259.765625,-60.546875,-17.578125,388.671875
-294.921875,-59.5703125,-13.18359375,315.4296875
-344.23828125,-65.91796875,-15.625,205.56640625
-374.51171875,-74.70703125,-19.04296875,187.98828125
-387.6953125,-69.3359375,-27.34375,264.6484375
-415.0390625,-58.59375,-31.25,302.734375
-459.9609375,-55.17578125,-31.73828125,229.00390625
-515.625,-61.5234375,-37.109375,109.375
-541.015625,-59.5703125,-35.15625,76.171875
-533.69140625,-51.26953125,-26.3671875,156.73828125
-539.0625,-51.26953125,-26.3671875,209.47265625
-572.75390625,-49.31640625,-32.2265625,126.953125
-614.74609375,-52.24609375,-36.62109375,-4.39453125
-615.72265625,-61.5234375,-38.57421875,-39.55078125
-574.70703125,-59.5703125,-38.57421875,30.2734375
-539.0625,-43.45703125,-33.203125,92.28515625
-552.734375,-34.66796875,-31.25,45.41015625
-586.42578125,-44.921875,-39.0625,-65.4296875
-583.0078125,-53.22265625,-42.96875,-114.74609375
-550.78125,-52.24609375,-41.50390625,-48.33984375
-534.66796875,-43.9453125,-35.64453125,44.43359375
-557.6171875,-39.0625,-30.76171875,27.83203125
-599.12109375,-40.52734375,-35.15625,-79.58984375
-613.76953125,-49.31640625,-40.0390625,-128.41796875
-610.83984375,-51.7578125,-39.55078125,-72.75390625
-620.1171875,-44.43359375,-41.9921875,3.90625
-643.06640625,-41.015625,-41.50390625,-12.6953125
-682.12890625,-42.48046875,-39.0625,-125.0
-700.68359375,-55.6640625,-47.36328125,-203.61328125
-671.38671875,-61.5234375,-55.17578125,-158.203125
-635.25390625,-48.828125,-52.24609375,-63.4765625
-645.5078125,-41.9921875,-46.875,-57.6171875
-678.7109375,-45.8984375,-47.36328125,-137.6953125
-680.17578125,-50.29296875,-41.9921875,-187.98828125
-639.16015625,-44.921875,-39.0625,-133.30078125
-600.09765625,-34.66796875,-37.59765625,-8.7890625
-607.421875,-29.296875,-31.25,34.66796875
-639.6484375,-36.62109375,-28.3203125,-35.64453125
-633.7890625,-41.50390625,-24.90234375,-94.7265625
-589.84375,-28.80859375,-26.3671875,-50.78125
-551.26953125,-16.11328125,-28.3203125,55.6640625
-549.31640625,-16.6015625,-15.625,96.6796875
-573.73046875,-19.04296875,-7.32421875,25.390625
-583.0078125,-23.4375,-19.53125,-70.3125
-581.54296875,-26.3671875,-28.3203125,-76.171875
-556.15234375,-17.578125,-17.578125,35.64453125
-549.8046875,-13.671875,-7.32421875,108.88671875
-586.9140625,-28.80859375,-13.18359375,26.3671875
-597.65625,-34.1796875,-26.3671875,-77.1484375
-562.98828125,-35.15625,-29.78515625,-64.94140625
-505.859375,-31.73828125,-23.92578125,41.50390625
-482.91015625,-11.71875,-22.4609375,114.74609375
-511.23046875,-13.671875,-21.97265625,50.29296875
-531.73828125,-32.2265625,-25.390625,-59.5703125
-505.859375,-36.1328125,-30.2734375,-62.98828125
-461.42578125,-34.66796875,-26.85546875,36.62109375
-448.73046875,-25.390625,-32.2265625,110.3515625
-458.0078125,-17.578125,-35.15625,74.21875
-482.91015625,-23.92578125,-47.36328125,-43.9453125
-472.65625,-31.25,-47.36328125,-71.77734375
-437.01171875,-27.83203125,-27.83203125,38.57421875
-429.6875,-14.6484375,-29.296875,117.67578125
-447.265625,-9.765625,-31.25,67.87109375
-464.35546875,-13.671875,-27.83203125,-35.15625
-451.66015625,-15.625,-41.9921875,-83.49609375
-421.875,-17.578125,-50.29296875,-14.6484375
-402.83203125,-11.71875,-44.43359375,95.703125
-418.45703125,-4.8828125,-41.9921875,87.40234375
-448.73046875,-13.671875,-36.1328125,-14.6484375
-449.70703125,-24.4140625,-35.64453125,-69.82421875
-416.50390625,-24.4140625,-41.015625,3.90625
-378.41796875,-16.6015625,-45.41015625,119.140625
-389.16015625,-17.08984375,-39.0625,114.74609375
-407.71484375,-30.2734375,-35.15625,8.7890625
-405.76171875,-41.015625,-50.29296875,-62.98828125
-394.53125,-29.78515625,-52.24609375,-17.578125
-364.2578125,-15.13671875,-44.43359375,94.7265625
-363.28125,-31.25,-41.9921875,106.4453125
-393.06640625,-44.43359375,-46.875,3.41796875
-412.109375,-38.0859375,-48.828125,-72.75390625
-391.6015625,-36.1328125,-39.55078125,-18.06640625
-363.28125,-29.78515625,-39.55078125,102.5390625
-372.0703125,-26.3671875,-31.25,131.34765625
-407.2265625,-29.296875,-27.83203125,25.390625
-429.6875,-39.55078125,-37.109375,-71.2890625
-395.99609375,-39.55078125,-39.0625,-38.0859375
-336.9140625,-21.97265625,-39.55078125,81.0546875
-334.9609375,-12.6953125,-38.0859375,119.140625
-370.1171875,-25.87890625,-36.1328125,12.20703125
-384.765625,-34.66796875,-39.0625,-92.7734375
-365.234375,-32.2265625,-44.43359375,-82.03125
-326.66015625,-25.390625,-42.48046875,44.921875
-316.89453125,-14.6484375,-34.1796875,113.28125
-344.7265625,-18.5546875,-31.73828125,21.484375
-369.62890625,-28.80859375,-36.1328125,-90.33203125
-361.328125,-32.2265625,-37.59765625,-86.9140625
-326.171875,-23.92578125,-33.203125,30.2734375
-310.546875,-16.11328125,-35.64453125,111.81640625
-340.33203125,-16.6015625,-46.38671875,33.69140625
-369.140625,-20.5078125,-46.38671875,-79.58984375
-357.421875,-41.50390625,-34.1796875,-83.0078125
-320.80078125,-45.8984375,-35.15625,24.4140625
-297.36328125,-20.01953125,-39.0625,121.09375
-320.80078125,-28.3203125,-35.64453125,63.96484375
-352.05078125,-38.0859375,-45.41015625,-69.3359375
-340.33203125,-37.109375,-51.26953125,-101.07421875
-301.7578125,-36.1328125,-30.76171875,1.46484375
-289.55078125,-35.64453125,-20.01953125,115.72265625
-300.29296875,-34.1796875,-31.25,72.75390625
-316.89453125,-38.57421875,-31.73828125,-57.6171875
-301.26953125,-44.43359375,-36.62109375,-103.515625
-253.90625,-32.2265625,-39.0625,-15.13671875
-222.65625,-22.94921875,-28.3203125,114.2578125
-247.55859375,-30.76171875,-28.3203125,84.47265625
-283.203125,-34.66796875,-41.015625,-51.7578125
-289.0625,-43.9453125,-49.8046875,-115.72265625
-266.11328125,-47.36328125,-48.33984375,-45.41015625
-220.703125,-28.3203125,-42.48046875,109.86328125
-229.4921875,-22.4609375,-28.80859375,125.0
-288.57421875,-38.57421875,-33.203125,-23.92578125
-300.29296875,-50.29296875,-43.45703125,-104.4921875
-260.7421875,-38.57421875,-39.55078125,-30.2734375
-239.2578125,-32.71484375,-30.2734375,102.05078125
-257.8125,-26.85546875,-32.2265625,112.79296875
-292.48046875,-25.87890625,-32.71484375,-18.5546875
-298.828125,-38.57421875,-31.73828125,-132.32421875
-252.9296875,-43.9453125,-27.34375,-78.61328125
-210.44921875,-40.52734375,-17.578125,72.265625
-217.7734375,-31.73828125,-21.97265625,91.796875
-257.32421875,-36.1328125,-30.2734375,-38.0859375
-284.1796875,-51.26953125,-38.57421875,-154.78515625
-252.44140625,-51.26953125,-38.57421875,-119.62890625
-203.61328125,-41.50390625,-28.3203125,29.296875
-210.9375,-40.0390625,-29.78515625,74.70703125
-250.9765625,-42.96875,-38.0859375,-42.48046875
-268.06640625,-45.8984375,-42.96875,-154.78515625
-240.72265625,-50.29296875,-41.9921875,-130.859375
-192.3828125,-39.55078125,-32.71484375,-4.39453125
-184.5703125,-37.109375,-30.2734375,62.5
-211.42578125,-47.36328125,-29.78515625,-22.94921875
-232.421875,-46.875,-32.71484375,-146.484375
-222.16796875,-52.24609375,-30.2734375,-134.765625
-191.40625,-51.7578125,-15.13671875,7.8125
-187.01171875,-34.1796875,-10.7421875,93.75
-221.19140625,-31.73828125,-24.4140625,-9.27734375
-238.76953125,-48.828125,-21.97265625,-133.7890625
-224.609375,-45.8984375,-5.37109375,-145.01953125
-201.66015625,-31.25,-8.30078125,-39.0625
-187.01171875,-34.66796875,-14.16015625,76.171875
-216.30859375,-40.52734375,-13.671875,0.9765625
-241.69921875,-49.31640625,-13.671875,-132.32421875
-229.98046875,-47.8515625,-16.11328125,-155.76171875
-194.82421875,-39.55078125,-23.4375,-64.453125
-168.45703125,-32.71484375,-20.99609375,56.15234375
-196.77734375,-29.296875,-21.484375,18.06640625
-229.4921875,-33.69140625,-30.2734375,-125.9765625
-220.703125,-37.109375,-31.25,-184.08203125
-166.015625,-36.1328125,-23.92578125,-83.984375
-122.55859375,-26.3671875,-20.01953125,69.3359375
-156.25,-10.25390625,-27.34375,46.875
-204.58984375,-20.01953125,-30.2734375,-98.14453125
-208.0078125,-43.45703125,-35.64453125,-161.62109375
-174.8046875,-44.921875,-36.62109375,-63.96484375
-135.7421875,-34.66796875,-30.76171875,85.9375
-142.08984375,-26.3671875,-34.66796875,80.56640625
-192.3828125,-31.73828125,-37.109375,-57.12890625
-209.47265625,-39.0625,-42.96875,-156.25
-186.5234375,-40.0390625,-55.6640625,-128.90625
-143.06640625,-32.2265625,-53.22265625,-0.9765625
-141.6015625,-24.90234375,-46.38671875,38.0859375
-192.87109375,-31.73828125,-51.26953125,-87.40234375
-212.40234375,-41.50390625,-57.6171875,-195.3125
-182.6171875,-42.96875,-62.01171875,-147.4609375
-145.01953125,-41.9921875,-58.10546875,-3.90625
-149.90234375,-37.109375,-52.24609375,52.734375
-189.453125,-43.45703125,-54.19921875,-43.9453125
-217.7734375,-56.640625,-52.24609375,-154.296875
-202.63671875,-51.26953125,-51.7578125,-136.71875
-155.76171875,-42.96875,-53.22265625,0.9765625
-129.8828125,-41.015625,-49.31640625,88.37890625
-153.3203125,-40.0390625,-47.36328125,6.34765625
-187.01171875,-57.6171875,-54.6875,-114.2578125
-177.734375,-70.80078125,-54.6875,-109.375
-139.6484375,-52.734375,-44.921875,23.92578125
-130.37109375,-41.015625,-35.15625,107.421875
-168.45703125,-49.31640625,-42.48046875,20.99609375
-222.65625,-60.05859375,-51.7578125,-120.1171875
-205.56640625,-67.87109375,-45.8984375,-125.9765625
-142.08984375,-53.22265625,-44.43359375,-3.41796875
-127.9296875,-43.9453125,-38.57421875,91.796875
-162.59765625,-48.828125,-28.3203125,46.38671875
-210.9375,-51.7578125,-36.62109375,-79.58984375
-222.65625,-50.78125,-42.48046875,-108.88671875
-186.03515625,-42.48046875,-39.0625,-14.16015625
-146.484375,-34.66796875,-37.109375,101.5625
-158.203125,-31.73828125,-34.66796875,64.94140625
-188.4765625,-45.41015625,-36.62109375,-73.73046875
-186.5234375,-60.05859375,-37.59765625,-118.65234375
-150.390625,-47.36328125,-35.64453125,-33.69140625
-122.0703125,-41.015625,-31.25,86.42578125
-137.6953125,-37.59765625,-29.78515625,73.2421875
-187.5,-36.62109375,-38.57421875,-54.19921875
-206.0546875,-62.5,-41.015625,-109.375
-158.69140625,-59.5703125,-39.55078125,-24.4140625
-126.953125,-41.015625,-30.2734375,107.91015625
-152.83203125,-34.1796875,-32.2265625,91.796875
-187.01171875,-36.62109375,-44.43359375,-41.50390625
-196.77734375,-42.96875,-48.828125,-115.234375
-165.52734375,-44.43359375,-51.26953125,-52.24609375
-121.09375,-42.96875,-44.43359375,89.35546875
-130.859375,-32.2265625,-42.48046875,99.12109375
-180.17578125,-36.62109375,-47.36328125,-24.4140625
-202.1484375,-52.734375,-46.38671875,-110.83984375
-180.17578125,-54.6875,-44.43359375,-64.94140625
-134.27734375,-43.45703125,-47.36328125,72.75390625
-141.11328125,-40.0390625,-41.50390625,114.2578125
-187.01171875,-44.43359375,-38.0859375,-1.46484375
-208.984375,-55.17578125,-47.36328125,-105.95703125
-187.98828125,-57.6171875,-49.8046875,-65.4296875
-131.8359375,-44.43359375,-43.9453125,63.4765625
-115.234375,-35.64453125,-43.45703125,107.91015625
-161.1328125,-44.921875,-45.8984375,2.44140625
-194.3359375,-59.08203125,-45.41015625,-114.2578125
-172.36328125,-57.6171875,-46.875,-103.02734375
-128.90625,-50.29296875,-46.875,30.2734375
-114.2578125,-38.57421875,-42.96875,119.62890625
-152.34375,-29.78515625,-44.43359375,26.85546875
-197.75390625,-46.38671875,-49.8046875,-107.91015625
-186.5234375,-55.17578125,-52.24609375,-115.72265625
-147.4609375,-41.9921875,-50.78125,9.27734375
-138.18359375,-21.484375,-41.9921875,104.98046875
-164.0625,-20.01953125,-48.828125,26.85546875
-203.61328125,-41.9921875,-61.5234375,-107.421875
-186.5234375,-58.10546875,-53.22265625,-117.67578125
-145.01953125,-60.546875,-48.33984375,-10.25390625
-131.34765625,-48.33984375,-51.26953125,83.0078125
-151.3671875,-43.9453125,-50.29296875,35.15625
-189.94140625,-55.17578125,-55.17578125,-103.02734375
-180.17578125,-58.59375,-56.640625,-142.08984375
-133.7890625,-54.6875,-53.22265625,-37.59765625
-96.6796875,-39.55078125,-46.38671875,87.40234375
-112.3046875,-35.15625,-41.50390625,61.5234375
-157.71484375,-49.31640625,-48.828125,-83.0078125
-154.78515625,-51.7578125,-52.24609375,-136.71875
-108.88671875,-51.7578125,-45.41015625,-40.52734375
-82.03125,-48.33984375,-37.59765625,94.7265625
-107.91015625,-45.41015625,-36.1328125,79.1015625
-154.296875,-50.78125,-42.48046875,-63.4765625
-165.0390625,-56.15234375,-46.875,-137.20703125
-132.32421875,-52.734375,-39.0625,-62.5
-98.6328125,-40.52734375,-36.62109375,70.3125
-123.53515625,-35.64453125,-42.48046875,59.5703125
-175.29296875,-41.015625,-42.96875,-68.84765625
-182.6171875,-43.45703125,-45.41015625,-147.4609375
-153.3203125,-39.0625,-49.31640625,-97.65625
-114.74609375,-22.4609375,-49.31640625,43.9453125
-108.88671875,-15.13671875,-45.8984375,74.70703125
-152.34375,-34.1796875,-49.31640625,-54.19921875
-183.59375,-53.22265625,-56.15234375,-158.69140625
-153.3203125,-52.24609375,-49.31640625,-100.09765625
-118.1640625,-44.921875,-43.9453125,51.7578125
-127.44140625,-38.57421875,-43.9453125,97.16796875
-162.59765625,-34.66796875,-44.921875,-10.7421875
-184.5703125,-50.29296875,-51.7578125,-138.671875
-153.3203125,-52.24609375,-55.6640625,-120.1171875
-98.14453125,-36.62109375,-50.78125,29.296875
-93.75,-30.76171875,-50.29296875,91.796875
-132.32421875,-31.25,-52.734375,-4.8828125
-169.43359375,-41.9921875,-51.7578125,-139.16015625
-155.2734375,-58.10546875,-55.6640625,-137.6953125
-104.98046875,-53.7109375,-52.24609375,9.27734375
-94.7265625,-36.62109375,-41.50390625,97.16796875
-137.20703125,-41.015625,-45.8984375,3.90625
-178.7109375,-62.5,-51.26953125,-132.8125
-161.62109375,-68.84765625,-49.8046875,-139.16015625
-113.76953125,-54.6875,-49.31640625,-18.06640625
-99.12109375,-39.0625,-45.41015625,80.078125
-133.30078125,-43.9453125,-43.45703125,9.27734375
-172.36328125,-61.03515625,-42.48046875,-131.34765625
-152.83203125,-58.59375,-42.48046875,-145.01953125
-101.07421875,-50.29296875,-46.38671875,-31.25
-84.47265625,-42.48046875,-41.9921875,80.078125
-111.328125,-36.62109375,-36.1328125,28.80859375
-161.1328125,-48.33984375,-38.0859375,-118.65234375
-166.9921875,-56.640625,-39.0625,-164.0625
-132.32421875,-53.22265625,-32.2265625,-60.05859375
-119.62890625,-40.52734375,-29.296875,60.05859375
-147.94921875,-37.59765625,-38.0859375,6.8359375
-191.89453125,-48.33984375,-44.921875,-140.625
-202.63671875,-58.59375,-50.29296875,-194.3359375
-167.48046875,-58.59375,-49.8046875,-114.2578125
-138.671875,-41.9921875,-46.38671875,19.53125
-161.1328125,-32.2265625,-44.43359375,12.20703125
-209.9609375,-49.31640625,-44.921875,-120.1171875
-240.72265625,-67.87109375,-50.78125,-196.2890625
-217.7734375,-60.05859375,-49.31640625,-127.9296875
-160.64453125,-41.50390625,-37.109375,25.87890625
-167.48046875,-42.48046875,-31.73828125,35.15625
-213.37890625,-50.29296875,-44.43359375,-104.4921875
-217.7734375,-51.7578125,-54.6875,-183.10546875
-175.29296875,-52.734375,-52.734375,-127.9296875
-129.39453125,-41.50390625,-41.50390625,0.48828125
-149.4140625,-41.9921875,-30.76171875,34.66796875
-199.70703125,-51.26953125,-42.48046875,-80.56640625
-220.21484375,-61.03515625,-58.10546875,-186.03515625
-190.91796875,-65.91796875,-46.875,-140.13671875
-133.30078125,-52.734375,-32.2265625,18.06640625
-137.20703125,-41.015625,-32.2265625,69.3359375
-192.87109375,-43.45703125,-43.45703125,-41.9921875
-226.07421875,-60.05859375,-51.7578125,-164.55078125
-202.63671875,-65.91796875,-51.26953125,-139.16015625
-151.3671875,-50.78125,-40.0390625,12.20703125
-144.04296875,-28.80859375,-31.73828125,83.0078125
-185.05859375,-22.94921875,-43.45703125,-15.13671875
-199.21875,-36.62109375,-43.9453125,-122.55859375
-176.26953125,-48.33984375,-30.2734375,-111.328125
-160.64453125,-43.9453125,-33.203125,-5.37109375
-149.4140625,-35.64453125,-39.0625,84.9609375
-176.26953125,-46.38671875,-37.59765625,11.23046875
-221.6796875,-62.5,-38.57421875,-125.48828125
-189.94140625,-62.01171875,-34.66796875,-118.1640625
-122.0703125,-51.26953125,-26.3671875,0.9765625
-109.375,-43.9453125,-22.4609375,99.12109375
-141.11328125,-48.828125,-34.66796875,32.71484375
-174.8046875,-55.17578125,-44.921875,-106.4453125
-176.26953125,-51.26953125,-47.36328125,-136.23046875
-137.6953125,-41.9921875,-47.36328125,-33.69140625
-98.6328125,-24.90234375,-42.48046875,86.42578125
-118.65234375,-27.34375,-38.57421875,46.875
-174.8046875,-47.36328125,-39.0625,-90.33203125
-188.96484375,-57.12890625,-39.0625,-134.765625
-156.73828125,-56.15234375,-37.109375,-38.57421875
-125.9765625,-44.43359375,-34.1796875,83.49609375
-145.5078125,-35.64453125,-33.203125,56.640625
-184.5703125,-44.43359375,-36.1328125,-69.82421875
-185.546875,-54.6875,-35.15625,-118.65234375
-153.80859375,-57.6171875,-35.15625,-44.921875
-115.72265625,-46.875,-35.15625,92.7734375
-125.0,-44.921875,-29.78515625,95.703125
-171.38671875,-54.19921875,-29.78515625,-41.50390625
-188.96484375,-59.5703125,-41.9921875,-131.8359375
-163.0859375,-62.01171875,-47.36328125,-74.21875
-119.140625,-51.26953125,-33.69140625,71.77734375
-121.09375,-40.0390625,-31.73828125,94.7265625
-170.8984375,-41.015625,-41.50390625,-30.2734375
-192.3828125,-55.17578125,-49.8046875,-134.27734375
-152.83203125,-51.7578125,-43.9453125,-85.44921875
-97.16796875,-36.1328125,-29.296875,68.84765625
-108.3984375,-29.296875,-28.3203125,98.14453125
-160.15625,-29.78515625,-44.43359375,-34.1796875
-183.59375,-46.875,-55.6640625,-144.04296875
-156.73828125,-52.24609375,-45.8984375,-104.4921875
-113.28125,-32.2265625,-45.41015625,40.52734375
-112.3046875,-30.76171875,-51.7578125,93.75
-144.53125,-40.52734375,-54.19921875,-14.16015625
-171.38671875,-52.24609375,-47.8515625,-133.30078125
-151.85546875,-63.96484375,-47.8515625,-114.2578125
-93.26171875,-52.734375,-48.33984375,18.06640625
-71.77734375,-34.66796875,-41.9921875,95.21484375
-111.328125,-34.66796875,-48.33984375,4.8828125
-160.15625,-48.828125,-54.6875,-129.39453125
-138.671875,-46.875,-44.921875,-118.65234375
-89.35546875,-44.43359375,-38.0859375,5.859375
-83.0078125,-35.15625,-43.45703125,82.03125
-126.953125,-38.57421875,-53.7109375,1.46484375
-166.015625,-61.5234375,-52.24609375,-122.55859375
-155.76171875,-63.4765625,-35.64453125,-123.53515625
-126.953125,-54.19921875,-37.109375,-10.7421875
-104.4921875,-39.0625,-43.45703125,85.9375
-128.41796875,-39.0625,-40.0390625,32.2265625
-174.31640625,-54.19921875,-40.52734375,-99.609375
-177.734375,-60.05859375,-51.26953125,-148.4375
-141.11328125,-53.7109375,-53.22265625,-62.98828125
-97.16796875,-33.203125,-42.96875,62.5
-114.2578125,-29.296875,-34.1796875,41.015625
-172.36328125,-45.41015625,-33.203125,-89.84375
-183.59375,-56.15234375,-40.52734375,-147.4609375
-158.203125,-56.15234375,-45.41015625,-83.0078125
-123.046875,-42.48046875,-35.64453125,45.41015625
-139.16015625,-33.69140625,-40.0390625,34.66796875
-181.15234375,-41.9921875,-51.7578125,-89.84375
-184.08203125,-57.12890625,-47.36328125,-146.484375
-148.4375,-55.6640625,-42.48046875,-81.0546875
-98.14453125,-35.64453125,-37.59765625,54.19921875
-99.12109375,-25.87890625,-34.1796875,64.94140625
-142.08984375,-34.66796875,-42.48046875,-68.359375
-163.0859375,-46.875,-44.43359375,-156.25
-133.30078125,-39.0625,-43.9453125,-98.14453125
-97.16796875,-33.69140625,-44.43359375,41.015625
-105.46875,-30.76171875,-41.015625,70.3125
-145.01953125,-33.203125,-39.0625,-41.015625
-174.31640625,-47.8515625,-49.31640625,-143.5546875
-151.3671875,-49.8046875,-56.640625,-112.3046875
-102.5390625,-39.55078125,-44.921875,35.64453125
-102.5390625,-36.1328125,-40.52734375,86.42578125
-148.4375,-43.45703125,-52.24609375,-33.203125
-179.19921875,-48.33984375,-56.640625,-155.2734375
-143.5546875,-44.921875,-56.15234375,-130.859375
-98.14453125,-37.109375,-48.33984375,11.71875
-100.5859375,-27.83203125,-33.69140625,84.47265625
-139.6484375,-35.15625,-36.1328125,0.0
-178.7109375,-55.17578125,-42.48046875,-114.2578125
-167.48046875,-61.5234375,-46.875,-118.1640625
-114.2578125,-52.24609375,-49.31640625,4.8828125
-78.61328125,-36.1328125,-42.48046875,87.40234375
-103.02734375,-33.203125,-42.96875,7.8125
-148.4375,-43.45703125,-47.8515625,-109.86328125
-140.13671875,-53.7109375,-42.48046875,-110.83984375
-101.5625,-46.875,-41.9921875,4.8828125
-83.49609375,-28.80859375,-44.43359375,98.14453125
-112.3046875,-31.25,-42.96875,27.83203125
-157.71484375,-40.0390625,-45.41015625,-96.6796875
-157.71484375,-52.734375,-51.26953125,-124.0234375
-117.1875,-56.15234375,-47.8515625,-24.4140625
-88.8671875,-34.66796875,-45.41015625,97.16796875
-117.67578125,-32.2265625,-47.8515625,48.33984375
-157.71484375,-44.43359375,-48.828125,-80.078125
-153.3203125,-50.78125,-50.78125,-119.62890625
-114.2578125,-45.41015625,-52.24609375,-39.55078125
-81.0546875,-35.64453125,-45.8984375,82.03125
-107.421875,-35.64453125,-42.96875,59.08203125
-156.25,-42.96875,-52.24609375,-78.125
-161.62109375,-49.8046875,-60.05859375,-142.578125
-125.0,-46.38671875,-59.5703125,-57.6171875
-87.890625,-35.15625,-53.7109375,74.21875
-105.46875,-37.59765625,-49.31640625,61.03515625
-152.83203125,-53.22265625,-49.8046875,-54.6875
-168.9453125,-70.3125,-54.19921875,-132.32421875
-135.7421875,-70.3125,-59.5703125,-82.51953125
-79.58984375,-53.22265625,-50.78125,56.640625
-74.21875,-42.96875,-45.41015625,64.94140625
-120.1171875,-51.7578125,-51.26953125,-63.96484375
-141.11328125,-59.5703125,-44.43359375,-154.78515625
-118.1640625,-59.08203125,-42.96875,-109.86328125
-78.125,-49.8046875,-49.31640625,24.4140625
-85.44921875,-38.57421875,-47.8515625,67.87109375
-138.18359375,-39.0625,-43.45703125,-26.3671875
-176.26953125,-55.17578125,-42.96875,-133.30078125
-153.80859375,-60.05859375,-41.015625,-97.16796875
-107.421875,-46.38671875,-36.1328125,41.9921875
-105.46875,-37.109375,-36.62109375,80.078125
-137.20703125,-42.48046875,-41.50390625,-19.53125
-163.0859375,-52.734375,-46.38671875,-128.90625
-141.11328125,-51.7578125,-49.31640625,-113.76953125
-85.44921875,-42.48046875,-37.109375,23.92578125
-72.75390625,-31.73828125,-24.90234375,105.46875
-116.2109375,-34.1796875,-33.69140625,13.671875
-149.4140625,-46.38671875,-41.9921875,-117.67578125
-123.53515625,-47.36328125,-46.38671875,-116.2109375
-82.03125,-43.45703125,-47.8515625,-0.48828125
-68.359375,-36.62109375,-42.48046875,96.6796875
-97.65625,-38.0859375,-38.57421875,31.25
-142.578125,-49.31640625,-42.48046875,-110.83984375
-129.8828125,-52.24609375,-46.38671875,-130.37109375
-89.35546875,-46.38671875,-41.9921875,-12.6953125
-72.265625,-35.64453125,-29.78515625,94.23828125
-93.26171875,-33.203125,-37.59765625,46.38671875
-133.7890625,-45.8984375,-49.8046875,-83.984375
-138.18359375,-56.15234375,-41.015625,-129.8828125
-96.19140625,-43.9453125,-36.1328125,-32.71484375
-71.77734375,-31.25,-35.15625,98.14453125
-104.98046875,-46.38671875,-33.69140625,60.05859375
-139.6484375,-52.24609375,-40.0390625,-69.3359375
-138.671875,-54.19921875,-51.26953125,-120.1171875
-113.28125,-55.6640625,-50.78125,-47.8515625
-76.66015625,-43.45703125,-38.57421875,85.9375
-75.1953125,-34.66796875,-36.1328125,79.1015625
-104.4921875,-37.109375,-39.55078125,-48.828125
-116.69921875,-51.7578125,-47.36328125,-125.9765625
-87.890625,-54.19921875,-50.29296875,-69.3359375
-42.48046875,-42.96875,-43.45703125,62.5
-42.48046875,-36.62109375,-36.62109375,75.68359375
-83.984375,-45.8984375,-40.0390625,-44.921875
-102.5390625,-64.453125,-46.38671875,-131.8359375
-67.3828125,-62.01171875,-42.96875,-83.49609375
-24.4140625,-45.41015625,-37.59765625,50.29296875
-29.78515625,-33.203125,-31.25,76.66015625
-81.54296875,-41.015625,-38.0859375,-45.8984375
-115.72265625,-60.546875,-47.8515625,-145.5078125
-85.9375,-59.5703125,-40.52734375,-97.16796875
-38.57421875,-45.41015625,-37.59765625,36.1328125
-40.52734375,-39.0625,-32.71484375,83.0078125
-83.49609375,-42.48046875,-39.0625,-24.4140625
-110.83984375,-47.36328125,-52.734375,-144.04296875
-95.21484375,-51.7578125,-48.33984375,-120.60546875
-57.12890625,-48.33984375,-38.0859375,12.20703125
-47.8515625,-35.15625,-38.0859375,69.82421875
-81.54296875,-40.0390625,-39.55078125,-16.6015625
-127.9296875,-57.12890625,-41.50390625,-138.18359375
-122.0703125,-55.6640625,-46.875,-140.625
-76.171875,-45.41015625,-41.9921875,-18.06640625
-61.5234375,-32.71484375,-35.15625,56.15234375
-96.6796875,-28.80859375,-40.0390625,-22.94921875
-146.97265625,-49.8046875,-41.9921875,-149.90234375
-144.04296875,-58.10546875,-41.50390625,-162.59765625
-95.703125,-39.55078125,-46.875,-42.48046875
-72.75390625,-26.85546875,-42.96875,62.01171875
-100.5859375,-35.64453125,-42.48046875,1.46484375
-139.6484375,-49.8046875,-44.43359375,-127.44140625
-130.859375,-50.78125,-46.875,-149.4140625
-94.23828125,-44.921875,-40.52734375,-51.26953125
-72.75390625,-41.015625,-25.87890625,55.17578125
-94.7265625,-40.0390625,-31.73828125,17.578125
-142.578125,-50.29296875,-38.0859375,-113.28125
-145.01953125,-59.5703125,-40.52734375,-161.1328125
-104.98046875,-54.19921875,-42.48046875,-62.01171875
-71.2890625,-46.38671875,-40.52734375,65.4296875
-99.12109375,-35.15625,-41.015625,41.015625
-152.34375,-46.875,-44.921875,-85.9375
-154.78515625,-66.89453125,-54.6875,-153.3203125
-114.74609375,-60.546875,-54.6875,-76.171875
-74.21875,-41.50390625,-49.8046875,57.12890625
-87.890625,-37.59765625,-46.38671875,44.921875
-125.48828125,-39.0625,-50.29296875,-77.1484375
-133.7890625,-45.41015625,-48.33984375,-141.11328125
-117.1875,-57.12890625,-37.109375,-75.1953125
-78.125,-47.8515625,-33.69140625,61.5234375
-93.26171875,-33.69140625,-37.109375,62.01171875
-153.3203125,-41.9921875,-43.9453125,-71.77734375
-173.828125,-61.03515625,-42.96875,-160.15625
-134.765625,-63.96484375,-47.36328125,-112.79296875
-84.9609375,-52.24609375,-51.7578125,26.3671875
-91.30859375,-43.9453125,-38.57421875,62.98828125
-129.39453125,-47.8515625,-31.25,-43.45703125
-159.66796875,-55.6640625,-41.9921875,-153.80859375
-135.7421875,-56.640625,-47.8515625,-126.953125
-91.796875,-48.828125,-41.50390625,13.671875
-93.75,-47.36328125,-36.62109375,65.4296875
-129.39453125,-49.8046875,-39.0625,-35.64453125
-169.43359375,-57.6171875,-46.38671875,-161.1328125
-143.06640625,-60.05859375,-53.22265625,-156.73828125
-84.9609375,-38.57421875,-50.29296875,-18.5546875
-78.125,-27.34375,-44.921875,60.05859375
-122.0703125,-41.015625,-46.875,-41.9921875
-161.62109375,-57.6171875,-53.22265625,-164.55078125
-142.08984375,-61.5234375,-47.8515625,-153.80859375
-94.7265625,-55.17578125,-44.43359375,-32.71484375
-73.2421875,-45.8984375,-45.41015625,52.734375
-91.30859375,-39.0625,-39.55078125,-9.765625
-128.90625,-45.8984375,-43.9453125,-134.765625
-130.37109375,-56.15234375,-51.26953125,-148.4375
-81.54296875,-50.29296875,-41.50390625,-21.484375
-51.7578125,-49.8046875,-35.15625,84.9609375
-89.35546875,-48.33984375,-49.8046875,22.94921875
-144.04296875,-51.7578125,-60.05859375,-116.69921875
-137.6953125,-62.98828125,-47.8515625,-139.16015625
-91.30859375,-57.12890625,-41.015625,-38.0859375
-67.3828125,-42.96875,-41.015625,72.75390625
-91.30859375,-38.0859375,-41.50390625,40.52734375
-133.30078125,-50.78125,-44.921875,-91.30859375
-131.34765625,-59.5703125,-47.36328125,-129.39453125
-103.02734375,-51.7578125,-48.33984375,-47.36328125
-66.89453125,-37.109375,-43.45703125,69.82421875
-70.3125,-31.73828125,-39.0625,55.6640625
-113.76953125,-41.50390625,-39.0625,-67.87109375
-132.32421875,-53.22265625,-43.45703125,-136.23046875
-112.3046875,-52.24609375,-47.8515625,-70.80078125
-74.21875,-46.38671875,-36.62109375,73.73046875
-90.8203125,-47.36328125,-21.484375,82.51953125
-131.34765625,-50.29296875,-28.80859375,-39.0625
-142.08984375,-53.22265625,-37.109375,-116.69921875
-125.9765625,-53.7109375,-36.1328125,-72.75390625
-83.49609375,-46.38671875,-43.9453125,49.31640625
-80.56640625,-37.59765625,-49.31640625,69.3359375
-116.69921875,-42.96875,-46.875,-32.2265625
-138.18359375,-55.17578125,-47.36328125,-121.58203125
-118.65234375,-53.7109375,-41.50390625,-86.42578125
-76.66015625,-37.59765625,-34.1796875,56.640625
-80.078125,-34.66796875,-38.57421875,92.7734375
-128.41796875,-46.38671875,-47.8515625,-28.80859375
-155.76171875,-60.05859375,-48.33984375,-149.4140625
-123.046875,-59.08203125,-42.48046875,-120.1171875
-75.68359375,-46.38671875,-38.57421875,15.13671875
-79.1015625,-45.41015625,-41.015625,48.828125
-115.72265625,-46.38671875,-46.875,-52.734375
-141.11328125,-51.26953125,-45.41015625,-163.57421875
-114.2578125,-50.78125,-36.1328125,-148.4375
-59.5703125,-42.48046875,-28.80859375,-10.25390625
-60.546875,-37.59765625,-30.76171875,55.6640625
-103.02734375,-39.0625,-33.203125,-31.25
-138.18359375,-53.22265625,-38.0859375,-144.04296875
-131.34765625,-59.08203125,-40.0390625,-148.4375
-88.37890625,-42.48046875,-32.71484375,-35.64453125
-56.15234375,-28.3203125,-27.34375,57.12890625
-82.51953125,-33.203125,-31.25,-6.8359375
-130.37109375,-47.36328125,-38.0859375,-132.32421875
-123.53515625,-48.828125,-40.52734375,-150.87890625
-81.0546875,-41.50390625,-42.48046875,-48.33984375
-58.10546875,-35.64453125,-37.59765625,60.05859375
-87.40234375,-41.015625,-32.71484375,20.01953125
-129.39453125,-48.33984375,-34.66796875,-101.5625
-129.39453125,-47.8515625,-40.52734375,-135.7421875
-93.75,-46.875,-41.9921875,-55.6640625
-57.12890625,-36.62109375,-38.0859375,55.6640625
-72.265625,-32.2265625,-41.50390625,19.04296875
-119.140625,-44.43359375,-44.43359375,-103.02734375
-126.953125,-53.22265625,-42.48046875,-140.13671875
-88.37890625,-49.31640625,-47.8515625,-72.75390625
-51.26953125,-35.64453125,-48.33984375,44.921875
-69.3359375,-29.296875,-44.43359375,32.2265625
-114.2578125,-35.64453125,-47.36328125,-95.21484375
-127.44140625,-45.8984375,-46.875,-158.69140625
-101.07421875,-53.22265625,-45.8984375,-95.703125
-60.546875,-40.52734375,-45.8984375,35.15625
-73.73046875,-30.2734375,-49.31640625,36.62109375
-124.51171875,-40.52734375,-46.38671875,-90.8203125
-147.4609375,-54.19921875,-45.8984375,-173.33984375
-111.328125,-55.17578125,-51.26953125,-113.28125
-66.40625,-41.015625,-44.43359375,28.3203125
-71.77734375,-32.71484375,-33.69140625,62.5
-117.67578125,-39.0625,-41.015625,-55.6640625
-144.53125,-53.22265625,-51.7578125,-156.25
-102.05078125,-54.19921875,-47.36328125,-109.86328125
-57.12890625,-37.59765625,-44.921875,10.7421875
-60.546875,-26.85546875,-43.9453125,55.6640625
-91.796875,-28.80859375,-41.50390625,-27.34375
-121.09375,-34.1796875,-45.41015625,-139.6484375
-104.00390625,-41.015625,-54.6875,-132.32421875
-55.6640625,-38.57421875,-57.6171875,-2.44140625
-54.6875,-32.2265625,-51.7578125,65.4296875
-100.5859375,-34.66796875,-41.9921875,-20.01953125
-142.578125,-50.78125,-48.33984375,-143.5546875
-128.41796875,-54.6875,-55.6640625,-141.6015625
-81.0546875,-46.38671875,-41.015625,-5.37109375
-69.82421875,-37.59765625,-31.25,79.1015625
-101.07421875,-33.69140625,-38.57421875,4.39453125
-140.13671875,-45.41015625,-50.29296875,-119.62890625
-133.7890625,-50.29296875,-50.78125,-133.7890625
-88.37890625,-45.8984375,-44.921875,-22.4609375
-56.640625,-39.0625,-41.50390625,75.68359375
-85.44921875,-44.43359375,-44.43359375,20.01953125
-138.671875,-51.26953125,-51.7578125,-114.2578125
-139.16015625,-53.7109375,-50.29296875,-151.3671875
-95.703125,-52.24609375,-41.9921875,-47.36328125
-61.5234375,-41.015625,-33.69140625,72.265625
-76.66015625,-37.59765625,-28.3203125,33.69140625
-122.55859375,-43.9453125,-32.2265625,-96.19140625
-130.37109375,-53.22265625,-36.62109375,-146.484375
-84.9609375,-44.921875,-37.59765625,-62.98828125
-38.0859375,-24.90234375,-35.64453125,62.98828125
-54.19921875,-30.2734375,-34.66796875,48.828125
-104.00390625,-55.6640625,-39.0625,-85.9375
-120.60546875,-65.4296875,-49.8046875,-162.109375
-84.9609375,-56.640625,-51.7578125,-90.33203125
-46.38671875,-47.36328125,-39.55078125,43.45703125
-61.03515625,-39.55078125,-37.59765625,41.50390625
-109.86328125,-38.0859375,-38.0859375,-78.61328125
-135.25390625,-56.15234375,-41.9921875,-155.76171875
-103.515625,-61.5234375,-46.38671875,-99.609375
-57.6171875,-42.48046875,-41.9921875,38.0859375
-68.359375,-34.1796875,-44.43359375,48.33984375
-105.46875,-38.0859375,-51.26953125,-64.94140625
-123.046875,-55.17578125,-49.8046875,-146.97265625
-109.375,-67.87109375,-41.50390625,-94.23828125
-65.91796875,-46.875,-37.109375,45.41015625
-64.453125,-33.69140625,-41.50390625,77.63671875
-109.375,-38.0859375,-45.8984375,-35.15625
-141.6015625,-49.31640625,-47.36328125,-144.53125
-123.53515625,-54.6875,-50.78125,-118.65234375
-70.3125,-38.0859375,-46.875,14.6484375
-61.5234375,-22.94921875,-40.52734375,71.2890625
-105.46875,-30.76171875,-46.875,-25.390625
-133.7890625,-45.8984375,-49.8046875,-146.484375
-110.3515625,-42.48046875,-50.78125,-139.6484375
-62.98828125,-35.15625,-49.31640625,-15.625
-51.7578125,-39.0625,-41.015625,57.6171875
-89.35546875,-45.8984375,-40.0390625,-8.30078125
-139.6484375,-53.22265625,-47.36328125,-130.37109375
-137.6953125,-55.17578125,-49.31640625,-141.6015625
-93.75,-47.8515625,-48.33984375,-24.90234375
-62.98828125,-33.203125,-43.9453125,73.2421875
-80.078125,-30.2734375,-43.9453125,11.23046875
-119.140625,-46.875,-48.33984375,-116.2109375
-115.234375,-53.7109375,-53.7109375,-138.18359375
-73.73046875,-44.921875,-53.22265625,-40.0390625
-41.015625,-32.2265625,-50.78125,73.73046875
-65.4296875,-30.76171875,-46.38671875,26.3671875
-112.3046875,-50.78125,-40.0390625,-102.5390625
-123.53515625,-63.4765625,-44.921875,-142.578125
-97.65625,-56.640625,-49.31640625,-63.96484375
-63.96484375,-47.8515625,-39.0625,55.6640625
-73.73046875,-38.57421875,-35.64453125,22.94921875
-121.09375,-41.9921875,-47.36328125,-120.60546875
-133.30078125,-55.17578125,-54.6875,-184.08203125
-97.16796875,-53.22265625,-60.05859375,-109.375
-48.828125,-37.109375,-54.19921875,22.94921875
-52.734375,-34.66796875,-44.43359375,22.4609375
-97.16796875,-44.921875,-44.43359375,-91.30859375
-118.1640625,-56.15234375,-52.734375,-167.48046875
-93.26171875,-58.10546875,-58.10546875,-118.65234375
-49.8046875,-41.9921875,-49.8046875,24.4140625
-65.91796875,-39.0625,-46.875,41.015625
-125.0,-52.734375,-56.640625,-79.1015625
-145.99609375,-60.05859375,-61.03515625,-158.69140625
-114.2578125,-60.546875,-55.6640625,-103.515625
-65.4296875,-48.828125,-48.33984375,35.64453125
-68.84765625,-35.15625,-43.45703125,65.4296875
-118.65234375,-45.8984375,-47.8515625,-54.19921875
-145.5078125,-56.640625,-54.19921875,-157.71484375
-123.046875,-52.734375,-51.7578125,-121.09375
-77.63671875,-49.8046875,-46.875,12.6953125
-71.77734375,-41.015625,-48.828125,59.08203125
-109.86328125,-44.921875,-54.19921875,-50.29296875
-143.06640625,-61.5234375,-54.19921875,-167.96875
-111.328125,-62.5,-51.26953125,-147.94921875
-54.19921875,-48.33984375,-45.41015625,-14.6484375
-42.48046875,-32.71484375,-41.015625,58.59375
-81.0546875,-40.52734375,-43.9453125,-32.71484375
-127.44140625,-54.19921875,-44.921875,-157.71484375
-118.1640625,-56.15234375,-43.9453125,-148.92578125
-61.03515625,-45.41015625,-39.55078125,-13.18359375
-41.9921875,-36.1328125,-31.25,70.80078125
-81.0546875,-43.45703125,-36.1328125,-10.25390625
-127.9296875,-61.03515625,-45.41015625,-136.71875
-120.1171875,-65.4296875,-45.8984375,-154.296875
-66.40625,-54.19921875,-40.0390625,-41.50390625
-46.38671875,-36.62109375,-34.1796875,58.10546875
-79.1015625,-39.0625,-41.50390625,-6.34765625
-115.234375,-52.734375,-44.921875,-133.7890625
-108.3984375,-55.6640625,-45.8984375,-157.71484375
-61.03515625,-52.24609375,-39.0625,-48.828125
-23.4375,-39.55078125,-30.76171875,71.2890625
-53.7109375,-38.57421875,-34.66796875,33.69140625
-108.3984375,-49.8046875,-34.66796875,-95.703125
-113.76953125,-60.546875,-37.109375,-146.484375
-75.1953125,-60.546875,-36.62109375,-60.05859375
-37.109375,-48.33984375,-36.1328125,61.03515625
-59.5703125,-43.9453125,-35.15625,36.1328125
-111.81640625,-55.17578125,-40.52734375,-92.28515625
-126.953125,-62.5,-51.26953125,-156.73828125
-96.6796875,-59.08203125,-44.921875,-94.7265625
-56.640625,-45.8984375,-36.62109375,42.48046875
-64.94140625,-39.55078125,-38.0859375,52.24609375
-114.74609375,-44.43359375,-38.0859375,-73.73046875
-131.34765625,-46.38671875,-44.43359375,-153.80859375
-93.75,-40.52734375,-42.96875,-93.75
-48.828125,-25.87890625,-36.62109375,47.8515625
-56.15234375,-34.1796875,-46.875,56.640625
-97.65625,-52.734375,-47.8515625,-60.546875
-115.234375,-55.6640625,-45.8984375,-140.13671875
-89.35546875,-55.6640625,-51.7578125,-94.23828125
-47.8515625,-50.29296875,-42.96875,28.80859375
-52.734375,-41.015625,-37.59765625,62.01171875
-93.75,-41.9921875,-46.875,-48.828125
-123.53515625,-59.5703125,-50.78125,-158.69140625
-100.5859375,-62.01171875,-49.31640625,-127.44140625
-44.43359375,-50.29296875,-51.26953125,7.32421875
-37.59765625,-33.69140625,-47.36328125,57.6171875
-82.51953125,-35.15625,-44.43359375,-32.71484375
-115.72265625,-51.7578125,-47.36328125,-138.671875
-94.23828125,-56.640625,-42.96875,-119.62890625
-46.38671875,-48.828125,-36.1328125,12.20703125
-40.0390625,-43.45703125,-32.71484375,85.44921875
-78.61328125,-49.8046875,-35.64453125,-4.39453125
-117.1875,-54.6875,-35.64453125,-123.046875
-101.07421875,-52.24609375,-36.62109375,-124.51171875
-54.6875,-42.48046875,-42.96875,-11.23046875
-45.8984375,-32.71484375,-37.109375,82.03125
-83.0078125,-36.1328125,-22.4609375,23.92578125
-134.765625,-36.1328125,-29.296875,-105.46875
-135.25390625,-43.9453125,-46.875,-137.20703125
-88.37890625,-55.17578125,-41.9921875,-26.85546875
-53.22265625,-41.015625,-32.71484375,79.58984375
-77.63671875,-36.1328125,-37.59765625,25.390625
-135.25390625,-47.36328125,-45.41015625,-112.3046875
-129.8828125,-52.24609375,-46.875,-155.2734375
-76.171875,-44.43359375,-47.36328125,-48.828125
-37.109375,-39.55078125,-39.0625,75.1953125
-55.6640625,-44.921875,-32.71484375,38.57421875
-105.95703125,-63.96484375,-38.57421875,-95.703125
-111.81640625,-75.68359375,-41.015625,-137.20703125
-73.2421875,-54.6875,-42.48046875,-54.19921875
-46.38671875,-36.1328125,-46.875,52.734375
-62.98828125,-49.31640625,-42.48046875,25.390625
-93.75,-57.6171875,-42.96875,-99.609375
-103.515625,-53.7109375,-48.828125,-164.55078125
-75.68359375,-48.828125,-46.38671875,-96.19140625
-33.203125,-39.55078125,-43.45703125,52.734375
-49.31640625,-42.96875,-41.9921875,65.91796875
-95.703125,-51.26953125,-38.0859375,-46.875
-117.67578125,-51.7578125,-35.64453125,-116.2109375
-98.6328125,-52.734375,-36.1328125,-73.2421875
-60.546875,-43.9453125,-31.25,61.5234375
-74.70703125,-38.57421875,-28.3203125,100.09765625
-118.65234375,-47.8515625,-32.71484375,-9.765625
-144.04296875,-58.10546875,-38.57421875,-114.2578125
-122.0703125,-59.08203125,-40.52734375,-82.51953125
-75.1953125,-51.7578125,-40.52734375,44.921875
-75.68359375,-40.52734375,-39.55078125,87.890625
-117.1875,-43.45703125,-38.0859375,-9.27734375
-141.6015625,-59.5703125,-39.0625,-126.46484375
-111.328125,-62.5,-40.52734375,-104.98046875
-56.640625,-50.29296875,-38.57421875,32.71484375
-45.8984375,-39.0625,-35.64453125,94.23828125
-93.26171875,-39.0625,-40.52734375,-3.41796875
-136.23046875,-52.24609375,-51.7578125,-138.18359375
-109.86328125,-56.15234375,-53.22265625,-128.90625
-64.94140625,-47.36328125,-49.31640625,0.9765625
-56.640625,-42.96875,-47.36328125,70.3125
-77.1484375,-39.0625,-50.29296875,0.48828125
-121.09375,-46.38671875,-51.7578125,-125.48828125
-123.53515625,-52.24609375,-52.734375,-152.83203125
-82.51953125,-45.41015625,-54.19921875,-46.38671875
-60.05859375,-40.0390625,-49.31640625,57.6171875
-80.078125,-41.50390625,-43.45703125,10.25390625
-123.53515625,-51.7578125,-50.29296875,-130.37109375
-120.60546875,-64.453125,-55.6640625,-160.15625
-80.078125,-57.6171875,-49.8046875,-43.9453125
-61.5234375,-39.55078125,-44.921875,52.734375
-91.30859375,-41.9921875,-49.8046875,-5.37109375
-128.90625,-44.921875,-54.6875,-128.41796875
-125.0,-46.875,-51.7578125,-161.1328125
-87.40234375,-52.24609375,-44.43359375,-62.98828125
-58.10546875,-43.9453125,-39.55078125,62.5
-81.54296875,-42.48046875,-41.50390625,38.0859375
-124.0234375,-48.33984375,-43.45703125,-89.84375
-130.37109375,-54.6875,-47.8515625,-147.94921875
-95.703125,-62.01171875,-55.17578125,-74.21875
-46.875,-49.31640625,-47.8515625,54.19921875
-57.6171875,-32.71484375,-39.55078125,43.45703125
-103.515625,-36.62109375,-46.38671875,-79.58984375
-120.1171875,-55.17578125,-47.8515625,-152.34375
-90.33203125,-56.640625,-44.43359375,-88.37890625
-50.78125,-45.8984375,-37.59765625,55.6640625
-72.75390625,-45.41015625,-38.57421875,66.89453125
-116.2109375,-48.828125,-41.9921875,-54.6875
-128.90625,-53.22265625,-43.9453125,-143.5546875
-104.4921875,-53.22265625,-47.8515625,-104.4921875
-67.3828125,-42.96875,-46.875,29.296875
-71.2890625,-39.55078125,-45.8984375,67.3828125
-109.375,-46.38671875,-48.828125,-44.43359375
-132.32421875,-51.26953125,-50.78125,-153.80859375
-105.46875,-49.8046875,-53.22265625,-127.9296875
-59.5703125,-44.43359375,-49.31640625,3.41796875
-61.03515625,-36.62109375,-42.96875,57.6171875
-103.515625,-42.96875,-47.8515625,-42.96875
-131.8359375,-56.15234375,-55.6640625,-156.73828125
-106.4453125,-55.17578125,-53.22265625,-135.7421875
-65.4296875,-42.96875,-41.50390625,-0.9765625
-57.12890625,-34.66796875,-34.1796875,61.5234375
-90.8203125,-40.0390625,-40.52734375,-32.2265625
-130.859375,-50.29296875,-46.875,-148.4375
-115.72265625,-52.734375,-39.0625,-142.578125
-63.4765625,-41.9921875,-34.66796875,-20.5078125
-40.52734375,-29.296875,-34.1796875,66.89453125
-85.9375,-41.9921875,-36.1328125,-20.5078125
-136.23046875,-58.59375,-44.43359375,-148.92578125
-124.51171875,-61.03515625,-47.36328125,-153.80859375
-79.58984375,-55.17578125,-37.59765625,-40.52734375
-53.22265625,-47.8515625,-32.71484375,56.15234375
-81.0546875,-43.9453125,-35.15625,1.953125
-120.1171875,-45.8984375,-34.66796875,-117.67578125
-112.3046875,-54.19921875,-37.59765625,-152.83203125
-75.1953125,-54.6875,-41.50390625,-68.359375
-47.36328125,-39.0625,-39.0625,46.875
-64.94140625,-32.71484375,-34.1796875,29.78515625
-115.72265625,-53.22265625,-33.69140625,-99.609375
-125.0,-71.77734375,-40.52734375,-164.0625
-83.0078125,-60.546875,-44.921875,-83.0078125
-38.0859375,-42.48046875,-38.0859375,55.17578125
-54.19921875,-38.57421875,-36.1328125,33.69140625
-104.4921875,-44.43359375,-47.36328125,-110.3515625
-105.95703125,-49.8046875,-48.828125,-172.36328125
-68.84765625,-48.33984375,-40.0390625,-93.75
-33.203125,-35.15625,-35.64453125,41.50390625
-47.36328125,-20.01953125,-33.69140625,44.921875
-99.609375,-30.76171875,-40.52734375,-89.35546875
-113.76953125,-43.9453125,-44.921875,-168.9453125
-75.68359375,-43.9453125,-35.64453125,-104.98046875
-39.0625,-40.52734375,-35.15625,23.4375
-49.8046875,-33.69140625,-37.59765625,39.55078125
-93.75,-40.0390625,-37.59765625,-73.2421875
-125.48828125,-57.6171875,-49.31640625,-175.78125
-98.6328125,-57.6171875,-50.29296875,-136.23046875
-39.55078125,-36.62109375,-39.0625,11.71875
-38.57421875,-26.3671875,-37.109375,52.24609375
-86.9140625,-37.109375,-41.50390625,-59.08203125
-119.62890625,-45.8984375,-49.31640625,-164.0625
-103.02734375,-49.8046875,-57.12890625,-145.01953125
-41.50390625,-35.15625,-49.8046875,-10.7421875
-19.04296875,-21.97265625,-41.9921875,63.4765625
-67.3828125,-31.73828125,-46.875,-26.3671875
-118.1640625,-49.31640625,-48.828125,-145.01953125
-101.5625,-56.15234375,-43.9453125,-142.08984375
-50.29296875,-38.0859375,-45.41015625,-18.06640625
-31.25,-27.83203125,-40.0390625,61.5234375
-60.05859375,-27.34375,-34.1796875,-12.6953125
-107.91015625,-38.57421875,-41.50390625,-137.20703125
-105.95703125,-50.78125,-42.96875,-153.80859375
-63.96484375,-41.50390625,-33.69140625,-41.50390625
-42.96875,-31.25,-28.3203125,56.15234375
-61.03515625,-26.85546875,-34.66796875,-2.44140625
-98.6328125,-36.1328125,-44.921875,-125.0
-97.16796875,-49.8046875,-47.8515625,-151.3671875
-60.05859375,-49.8046875,-43.9453125,-52.24609375
-44.43359375,-44.43359375,-43.45703125,46.875
-76.66015625,-43.9453125,-46.38671875,4.39453125
-120.1171875,-50.29296875,-51.7578125,-123.046875
-115.72265625,-50.78125,-50.78125,-165.0390625
-73.73046875,-51.7578125,-42.48046875,-65.4296875
-32.71484375,-46.38671875,-39.55078125,52.734375
-50.78125,-38.57421875,-43.45703125,20.01953125
-114.74609375,-54.6875,-47.36328125,-112.3046875
-126.953125,-65.4296875,-41.9921875,-159.66796875
-80.56640625,-56.15234375,-42.96875,-83.984375
-38.0859375,-46.875,-43.9453125,30.2734375
-60.546875,-38.0859375,-38.57421875,19.04296875
-114.2578125,-40.0390625,-42.96875,-106.93359375
-117.67578125,-53.7109375,-42.96875,-181.15234375
-83.49609375,-50.29296875,-44.43359375,-116.69921875
-47.36328125,-37.109375,-42.96875,12.20703125
-55.17578125,-30.76171875,-35.64453125,16.11328125
-100.5859375,-36.1328125,-41.9921875,-103.02734375
-119.140625,-49.8046875,-41.015625,-174.31640625
-89.84375,-55.17578125,-33.69140625,-116.69921875
-49.8046875,-42.48046875,-27.34375,6.8359375
-53.7109375,-30.76171875,-34.66796875,32.2265625
-93.75,-38.0859375,-42.96875,-73.73046875
-124.0234375,-54.6875,-44.43359375,-179.6875
-104.4921875,-58.59375,-44.43359375,-149.4140625
-51.26953125,-46.875,-41.9921875,-17.08984375
-41.015625,-37.59765625,-41.9921875,38.0859375
-82.51953125,-45.41015625,-41.9921875,-53.22265625
-118.65234375,-58.59375,-38.57421875,-153.3203125
-102.05078125,-61.5234375,-39.0625,-135.7421875
-61.5234375,-51.7578125,-40.0390625,-17.578125
-51.26953125,-39.55078125,-37.109375,50.29296875
-78.125,-32.71484375,-40.0390625,-31.25
-111.81640625,-45.41015625,-44.43359375,-152.34375
-91.796875,-59.08203125,-43.45703125,-148.4375
-42.96875,-50.78125,-37.59765625,-26.85546875
-33.203125,-37.59765625,-37.59765625,57.6171875
-67.3828125,-41.015625,-38.57421875,-9.765625
-117.67578125,-57.6171875,-40.0390625,-141.6015625
-121.58203125,-61.03515625,-39.55078125,-160.15625
-80.078125,-49.31640625,-37.59765625,-51.26953125
