TP9,AF7,AF8,TP10
-13.18359375,-45.41015625,-40.0390625,67.87109375
-20.99609375,-45.8984375,-32.71484375,63.4765625
-57.12890625,-51.26953125,-43.45703125,-56.640625
-70.3125,-57.12890625,-54.6875,-130.37109375
-35.15625,-51.7578125,-45.41015625,-60.05859375
2.9296875,-41.50390625,-29.78515625,67.3828125
7.8125,-32.2265625,-26.3671875,72.265625
-24.4140625,-28.80859375,-41.9921875,-42.48046875
-58.10546875,-32.71484375,-53.22265625,-117.67578125
-49.31640625,-39.55078125,-46.38671875,-71.77734375
-26.3671875,-36.62109375,-39.0625,40.52734375
-27.34375,-29.296875,-45.41015625,52.734375
-45.8984375,-27.34375,-54.6875,-51.26953125
-74.21875,-37.59765625,-60.05859375,-141.11328125
-73.73046875,-44.921875,-59.5703125,-110.83984375
-31.73828125,-41.50390625,-52.734375,15.13671875
-27.34375,-39.55078125,-53.7109375,54.6875
-62.98828125,-41.015625,-55.17578125,-39.0625
-83.0078125,-53.7109375,-50.78125,-127.9296875
-74.70703125,-66.40625,-49.8046875,-99.609375
-59.5703125,-70.80078125,-51.7578125,17.578125
-51.7578125,-57.12890625,-53.7109375,70.3125
-51.7578125,-44.43359375,-53.7109375,-13.671875
-63.96484375,-47.8515625,-47.36328125,-118.1640625
-66.40625,-46.875,-49.8046875,-109.86328125
-44.43359375,-46.38671875,-50.29296875,0.0
-23.92578125,-41.9921875,-41.50390625,74.70703125
-42.48046875,-39.0625,-43.9453125,14.16015625
-67.87109375,-46.875,-50.78125,-97.65625
-55.17578125,-42.96875,-51.26953125,-110.83984375
-35.64453125,-37.59765625,-52.734375,-21.484375
-20.5078125,-38.0859375,-62.01171875,54.19921875
-22.94921875,-31.73828125,-62.5,-0.9765625
-50.78125,-33.203125,-62.01171875,-120.60546875
-65.91796875,-38.0859375,-64.453125,-152.83203125
-46.38671875,-40.52734375,-67.3828125,-76.171875
-18.06640625,-36.1328125,-68.84765625,11.23046875
-32.2265625,-37.59765625,-62.01171875,-18.06640625
-71.77734375,-48.828125,-60.05859375,-121.58203125
-83.984375,-56.15234375,-54.6875,-153.80859375
-81.0546875,-59.08203125,-52.734375,-77.1484375
-63.96484375,-44.43359375,-51.7578125,30.2734375
-61.03515625,-47.36328125,-43.45703125,14.16015625
-85.44921875,-64.453125,-50.78125,-106.93359375
-91.796875,-64.453125,-54.6875,-150.87890625
-80.56640625,-61.5234375,-53.22265625,-79.1015625
-55.17578125,-60.546875,-45.41015625,36.1328125
-41.015625,-57.12890625,-40.52734375,45.8984375
-71.77734375,-52.24609375,-36.1328125,-66.40625
-96.6796875,-49.8046875,-26.3671875,-131.34765625
-81.54296875,-50.29296875,-44.921875,-82.51953125
-36.1328125,-46.875,-61.5234375,10.7421875
-35.15625,-48.33984375,-63.4765625,17.08984375
-64.453125,-44.921875,-57.12890625,-74.70703125
-83.984375,-46.875,-47.8515625,-148.92578125
-86.42578125,-64.453125,-53.7109375,-110.83984375
-56.640625,-61.5234375,-54.6875,-0.9765625
-46.38671875,-52.734375,-61.03515625,31.73828125
-58.59375,-56.640625,-63.96484375,-59.08203125
-75.1953125,-64.94140625,-60.546875,-152.34375
-77.1484375,-67.3828125,-56.640625,-112.79296875
-53.7109375,-61.03515625,-48.828125,13.18359375
-39.0625,-52.734375,-48.33984375,40.52734375
-44.43359375,-51.26953125,-56.15234375,-59.5703125
-64.94140625,-47.36328125,-50.29296875,-140.13671875
-76.66015625,-39.0625,-41.015625,-116.69921875
-65.91796875,-39.55078125,-43.9453125,-20.01953125
-49.31640625,-40.0390625,-51.7578125,31.73828125
-49.31640625,-31.73828125,-64.453125,-36.62109375
-80.56640625,-37.59765625,-67.87109375,-142.578125
-78.125,-43.45703125,-59.08203125,-135.7421875
-44.43359375,-33.69140625,-44.921875,-21.97265625
-32.2265625,-21.484375,-39.0625,50.78125
-42.48046875,-20.5078125,-39.0625,-19.53125
-59.08203125,-37.109375,-47.8515625,-133.30078125
-72.75390625,-49.8046875,-65.91796875,-143.5546875
-61.03515625,-46.875,-67.3828125,-48.33984375
-45.41015625,-34.66796875,-57.6171875,42.48046875
-48.33984375,-28.80859375,-48.828125,-7.32421875
-65.4296875,-38.57421875,-55.17578125,-120.60546875
-69.82421875,-49.8046875,-61.5234375,-137.6953125
-54.19921875,-51.26953125,-60.546875,-56.15234375
-21.484375,-41.50390625,-52.24609375,39.55078125
-11.23046875,-31.73828125,-46.38671875,12.6953125
-48.828125,-37.59765625,-50.78125,-104.4921875
-68.84765625,-49.31640625,-56.15234375,-149.4140625
-60.05859375,-49.8046875,-51.7578125,-72.75390625
-45.41015625,-39.0625,-48.33984375,35.64453125
-46.38671875,-39.0625,-50.29296875,15.13671875
-70.80078125,-45.8984375,-44.921875,-100.09765625
-92.7734375,-57.12890625,-44.921875,-155.76171875
-87.40234375,-57.6171875,-48.828125,-93.26171875
-59.5703125,-38.0859375,-47.36328125,16.6015625
-61.03515625,-33.203125,-49.8046875,17.08984375
-99.12109375,-46.875,-44.921875,-78.125
-119.140625,-54.6875,-47.36328125,-142.578125
-103.515625,-56.640625,-50.29296875,-107.421875
-69.82421875,-50.78125,-36.1328125,9.27734375
-48.828125,-40.52734375,-33.203125,30.2734375
-66.40625,-45.8984375,-46.875,-75.68359375
-87.40234375,-60.05859375,-55.6640625,-148.92578125
-64.453125,-56.640625,-50.29296875,-104.98046875
-34.1796875,-45.41015625,-42.48046875,7.32421875
-21.484375,-46.38671875,-42.48046875,48.33984375
-34.1796875,-49.31640625,-47.8515625,-32.2265625
-67.87109375,-49.31640625,-42.96875,-124.0234375
-69.82421875,-47.36328125,-37.59765625,-104.4921875
-51.26953125,-44.43359375,-39.55078125,-3.41796875
-39.0625,-43.45703125,-43.9453125,47.8515625
-46.38671875,-43.45703125,-42.48046875,-17.578125
-81.54296875,-43.9453125,-40.52734375,-104.00390625
-76.66015625,-51.7578125,-41.50390625,-92.28515625
-36.62109375,-50.29296875,-45.8984375,3.90625
-23.92578125,-39.55078125,-48.33984375,62.01171875
-34.66796875,-37.109375,-42.96875,-0.9765625
-47.36328125,-41.50390625,-50.29296875,-111.328125
-49.8046875,-49.8046875,-46.875,-118.65234375
-34.1796875,-44.921875,-44.43359375,-22.4609375
-30.2734375,-43.9453125,-53.22265625,42.96875
-38.57421875,-49.31640625,-52.24609375,-11.71875
-55.17578125,-50.78125,-48.828125,-118.1640625
-84.9609375,-56.15234375,-42.96875,-139.16015625
-79.58984375,-56.15234375,-41.9921875,-49.31640625
-31.25,-45.8984375,-48.33984375,35.64453125
-59.08203125,-52.24609375,-50.78125,-4.8828125
-95.21484375,-61.5234375,-44.43359375,-104.4921875
-93.26171875,-62.01171875,-45.8984375,-138.18359375
-103.515625,-65.91796875,-51.7578125,-72.265625
-78.125,-59.08203125,-49.31640625,25.390625
-85.44921875,-57.6171875,-53.7109375,-0.48828125
-116.69921875,-67.3828125,-56.15234375,-111.81640625
-124.51171875,-69.82421875,-59.5703125,-163.57421875
-103.02734375,-63.96484375,-66.89453125,-95.703125
-56.640625,-59.08203125,-65.91796875,21.97265625
-62.5,-57.6171875,-55.17578125,5.37109375
-84.9609375,-63.4765625,-51.7578125,-95.703125
-91.796875,-70.3125,-50.78125,-147.94921875
-74.70703125,-66.89453125,-52.24609375,-103.02734375
-42.96875,-61.5234375,-52.24609375,12.6953125
-41.9921875,-64.453125,-56.15234375,22.4609375
-62.98828125,-71.2890625,-63.4765625,-77.63671875
-82.03125,-79.58984375,-68.359375,-163.0859375
-87.40234375,-80.56640625,-62.5,-127.44140625
-58.10546875,-69.3359375,-56.640625,-12.20703125
-62.98828125,-64.453125,-59.08203125,-6.34765625
-104.00390625,-75.1953125,-61.03515625,-101.07421875
-121.09375,-82.03125,-68.359375,-178.7109375
-120.1171875,-70.80078125,-70.3125,-167.48046875
-109.86328125,-65.4296875,-69.82421875,-75.68359375
-81.54296875,-50.78125,-63.96484375,-30.76171875
-96.19140625,-52.24609375,-63.96484375,-119.140625
-130.37109375,-58.59375,-70.80078125,-232.421875
-122.0703125,-52.734375,-79.58984375,-216.796875
-104.98046875,-47.36328125,-83.984375,-111.328125
-79.1015625,-32.71484375,-75.1953125,-62.5
-104.98046875,-26.3671875,-69.3359375,-130.37109375
-139.16015625,-20.01953125,-69.82421875,-240.72265625
-116.2109375,-18.5546875,-63.4765625,-230.95703125
-117.67578125,-18.06640625,-68.84765625,-120.60546875
-122.0703125,-15.625,-68.359375,-60.546875
-82.03125,-49.8046875,-52.734375,-104.98046875
-103.515625,-70.80078125,-62.98828125,-208.984375
-153.3203125,-44.43359375,-62.5,-234.86328125
-112.3046875,-22.94921875,-45.41015625,-125.48828125
-108.88671875,-12.6953125,-38.57421875,-37.109375
-131.8359375,-13.671875,-42.96875,-83.0078125
-108.3984375,-25.87890625,-52.734375,-167.96875
-86.9140625,-30.76171875,-52.734375,-178.7109375
-72.265625,-26.85546875,-44.921875,-90.8203125
-16.6015625,-17.08984375,-54.19921875,6.8359375
3.90625,-47.36328125,-59.08203125,-8.7890625
-62.5,-69.3359375,-66.40625,-119.62890625
-80.56640625,-51.26953125,-78.61328125,-166.50390625
-29.296875,-12.20703125,-77.1484375,-86.9140625
21.484375,20.5078125,-75.68359375,42.96875
6.8359375,1.953125,-63.4765625,29.78515625
-33.69140625,-25.87890625,-43.9453125,-84.47265625
2.44140625,-57.12890625,-35.15625,-111.81640625
19.04296875,-55.17578125,-36.62109375,-38.0859375
10.7421875,-30.76171875,-59.08203125,54.19921875
5.859375,-15.625,-60.05859375,67.87109375
-23.4375,-44.921875,-50.29296875,-18.06640625
-2.9296875,-61.03515625,-67.3828125,-104.4921875
-1.46484375,-74.21875,-50.29296875,-56.640625
10.7421875,-74.70703125,-42.96875,66.40625
4.39453125,-30.76171875,-55.17578125,86.42578125
-9.27734375,-24.90234375,-49.8046875,-0.48828125
-8.7890625,-49.8046875,-64.94140625,-82.51953125
-5.859375,-52.24609375,-60.05859375,-63.4765625
38.0859375,-47.36328125,-49.31640625,42.48046875
58.10546875,-47.8515625,-54.19921875,71.2890625
2.9296875,-51.26953125,-56.15234375,-16.6015625
-46.38671875,-60.546875,-49.31640625,-109.375
-27.83203125,-65.91796875,-47.8515625,-104.00390625
21.484375,-50.78125,-43.45703125,13.671875
48.33984375,-25.390625,-42.48046875,68.359375
13.671875,-35.15625,-46.38671875,-9.27734375
-25.390625,-61.03515625,-34.66796875,-83.984375
-14.6484375,-90.33203125,-37.109375,-92.28515625
12.6953125,-84.9609375,-60.546875,-33.69140625
16.6015625,-27.34375,-52.734375,30.76171875
-2.9296875,-11.71875,-19.53125,-9.765625
-52.734375,-31.73828125,-15.13671875,-109.375
-66.89453125,-39.0625,-22.94921875,-127.44140625
-24.4140625,-50.29296875,-38.57421875,-47.36328125
-36.1328125,-53.22265625,-29.78515625,18.5546875
-45.8984375,-46.875,-20.01953125,-7.32421875
-67.3828125,-63.96484375,-28.3203125,-101.5625
-70.80078125,-64.94140625,-43.45703125,-158.203125
-38.57421875,-56.640625,-47.36328125,-89.84375
-40.0390625,-57.6171875,-40.0390625,-0.48828125
-56.15234375,-82.03125,-41.015625,-21.97265625
-89.84375,-77.63671875,-66.40625,-121.09375
-91.796875,-69.82421875,-77.1484375,-182.12890625
-13.671875,-93.26171875,-50.78125,-104.4921875
-2.9296875,-49.31640625,-30.76171875,2.9296875
-68.84765625,-21.484375,-48.828125,-20.5078125
-94.7265625,-40.52734375,-58.10546875,-116.2109375
-84.9609375,-40.52734375,-40.52734375,-183.10546875
-58.10546875,-44.43359375,-50.78125,-136.71875
-41.50390625,-53.7109375,-51.7578125,-26.3671875
-49.8046875,-56.15234375,-37.59765625,-3.90625
-64.453125,-70.3125,-51.7578125,-95.21484375
-94.7265625,-64.94140625,-60.05859375,-145.99609375
-111.81640625,-69.3359375,-62.01171875,-110.3515625
-61.03515625,-58.59375,-55.17578125,-47.36328125
-44.921875,-48.828125,-36.1328125,-0.9765625
-79.58984375,-58.10546875,-40.0390625,-57.12890625
-98.14453125,-69.3359375,-59.08203125,-135.25390625
-54.19921875,-86.9140625,-75.1953125,-124.51171875
-37.59765625,-72.265625,-82.51953125,-24.90234375
-29.78515625,-50.78125,-63.96484375,27.83203125
-60.546875,-52.734375,-34.66796875,-50.78125
-108.88671875,-56.640625,-42.48046875,-138.18359375
-84.47265625,-66.40625,-31.73828125,-128.41796875
-59.08203125,-68.84765625,-21.97265625,-43.9453125
-55.17578125,-60.05859375,-49.31640625,4.39453125
-93.75,-80.56640625,-48.33984375,-62.98828125
-113.76953125,-73.73046875,-47.8515625,-159.1796875
-74.70703125,-69.3359375,-51.26953125,-146.484375
-38.0859375,-81.54296875,-51.26953125,-69.3359375
-13.18359375,-45.8984375,-51.7578125,0.9765625
-28.3203125,-39.55078125,-45.8984375,-10.25390625
-106.93359375,-57.6171875,-42.48046875,-118.1640625
-84.47265625,-60.05859375,-51.26953125,-159.1796875
-12.20703125,-46.875,-53.22265625,-66.40625
-41.9921875,-41.9921875,-41.015625,-0.9765625
-72.265625,-44.921875,-43.9453125,-49.31640625
-81.0546875,-55.17578125,-61.03515625,-124.0234375
-83.49609375,-65.4296875,-87.40234375,-175.29296875
-53.22265625,-55.17578125,-69.82421875,-101.07421875
-42.48046875,-40.0390625,-48.33984375,-20.5078125
-59.5703125,-52.24609375,-51.7578125,-27.83203125
-107.91015625,-63.96484375,-39.55078125,-93.26171875
-114.2578125,-54.6875,-42.96875,-154.78515625
-72.265625,-50.29296875,-49.8046875,-106.93359375
-28.80859375,-42.96875,-61.03515625,-17.08984375
-40.0390625,-55.17578125,-75.1953125,3.41796875
-131.34765625,-69.82421875,-68.84765625,-72.265625
-130.859375,-69.3359375,-47.8515625,-134.27734375
-58.10546875,-63.4765625,-31.73828125,-103.515625
-32.2265625,-40.52734375,-40.0390625,-23.92578125
-38.57421875,-41.015625,-43.45703125,6.8359375
-42.96875,-38.0859375,-57.6171875,-56.15234375
-39.55078125,-29.296875,-73.73046875,-138.18359375
-67.87109375,-44.921875,-50.78125,-91.30859375
-33.203125,-53.7109375,-41.50390625,-2.9296875
-11.71875,-50.78125,-60.546875,-0.9765625
-123.046875,-52.734375,-52.24609375,-43.9453125
-138.671875,-53.22265625,-35.64453125,-104.4921875
-62.98828125,-43.9453125,-32.2265625,-112.3046875
-57.12890625,-55.6640625,-29.78515625,-27.83203125
-62.01171875,-61.5234375,-53.7109375,10.7421875
-62.5,-42.48046875,-70.3125,-49.31640625
-103.515625,-70.3125,-49.8046875,-104.4921875
-68.84765625,-86.42578125,-47.8515625,-98.14453125
-26.3671875,-46.875,-48.33984375,-21.97265625
-13.671875,-16.11328125,-46.38671875,29.78515625
-14.6484375,-20.01953125,-59.08203125,-1.953125
-22.4609375,-39.0625,-71.77734375,-73.2421875
-0.9765625,-54.6875,-89.84375,-84.9609375
-6.8359375,-51.26953125,-76.171875,-23.92578125
5.859375,-29.78515625,-48.828125,37.109375
-10.25390625,-36.1328125,-81.54296875,-21.97265625
-61.5234375,-54.6875,-79.1015625,-104.98046875
-32.71484375,-58.10546875,-22.4609375,-91.796875
-36.1328125,-43.9453125,-41.9921875,-50.78125
-61.5234375,-50.78125,-57.6171875,15.625
-64.94140625,-69.3359375,-62.01171875,-11.71875
-99.609375,-61.03515625,-98.14453125,-112.3046875
-122.55859375,-45.8984375,-47.8515625,-128.41796875
-73.2421875,-41.9921875,-40.52734375,-68.359375
-41.9921875,-48.828125,-71.77734375,8.7890625
-42.96875,-45.8984375,-67.87109375,10.7421875
-93.26171875,-54.6875,-61.5234375,-63.96484375
-88.37890625,-66.40625,-84.9609375,-105.46875
-31.25,-75.1953125,-92.28515625,-55.17578125
-12.6953125,-63.96484375,-59.5703125,22.4609375
1.953125,-51.7578125,-32.2265625,56.15234375
-42.96875,-60.05859375,-58.59375,0.0
-77.1484375,-52.24609375,-76.66015625,-119.140625
-42.48046875,-43.9453125,-48.828125,-98.6328125
3.41796875,-44.43359375,-60.05859375,15.13671875
2.9296875,-32.2265625,-88.8671875,21.97265625
-59.08203125,-38.0859375,-75.68359375,-50.29296875
-72.265625,-45.41015625,-63.4765625,-106.4453125
-41.015625,-38.57421875,-84.9609375,-95.703125
-31.25,-43.9453125,-77.63671875,-14.6484375
-31.25,-42.48046875,-69.82421875,24.4140625
-45.8984375,-51.26953125,-69.3359375,-27.34375
-28.3203125,-51.26953125,-83.49609375,-81.0546875
-13.18359375,-41.50390625,-98.14453125,-66.89453125
2.9296875,-53.22265625,-75.68359375,-2.9296875
8.7890625,-35.64453125,-61.5234375,57.12890625
4.8828125,-21.97265625,-65.4296875,8.30078125
-46.875,-55.6640625,-73.73046875,-98.14453125
-84.9609375,-68.84765625,-69.3359375,-101.5625
-32.71484375,-45.41015625,-61.03515625,-4.8828125
-20.01953125,-38.0859375,-82.51953125,35.64453125
-48.828125,-49.8046875,-85.44921875,-11.71875
-71.77734375,-65.4296875,-47.8515625,-88.37890625
-65.91796875,-72.75390625,-42.96875,-113.76953125
-38.57421875,-78.125,-64.453125,-24.90234375
-18.06640625,-63.96484375,-55.17578125,48.33984375
-64.94140625,-59.5703125,-52.734375,-0.48828125
-59.08203125,-65.4296875,-61.03515625,-72.265625
-31.25,-69.3359375,-80.56640625,-105.95703125
-39.55078125,-68.359375,-58.10546875,-52.734375
-10.7421875,-57.12890625,-36.1328125,20.99609375
-45.41015625,-72.75390625,-51.26953125,3.41796875
-94.23828125,-71.77734375,-56.640625,-84.9609375
-69.3359375,-42.48046875,-83.984375,-132.32421875
-33.69140625,-30.76171875,-72.75390625,-61.03515625
-21.484375,-24.4140625,-48.828125,25.87890625
-23.92578125,-28.3203125,-54.6875,21.484375
-53.7109375,-46.875,-53.22265625,-60.05859375
-58.10546875,-60.546875,-66.40625,-105.95703125
-25.87890625,-48.828125,-72.75390625,-59.08203125
-7.32421875,-38.57421875,-65.4296875,7.32421875
-39.0625,-44.921875,-64.94140625,12.20703125
-81.54296875,-50.78125,-73.73046875,-49.8046875
-48.33984375,-46.38671875,-73.73046875,-106.4453125
-22.94921875,-50.29296875,-62.5,-66.89453125
-17.578125,-56.15234375,-53.22265625,25.87890625
-28.3203125,-38.57421875,-24.4140625,52.734375
-85.44921875,-57.6171875,-32.71484375,-34.1796875
-62.5,-70.80078125,-60.05859375,-111.328125
-13.18359375,-56.15234375,-54.19921875,-64.94140625
-16.11328125,-58.59375,-30.76171875,17.08984375
-34.1796875,-54.6875,-41.015625,24.4140625
-59.5703125,-55.6640625,-67.3828125,-41.50390625
-57.12890625,-60.05859375,-67.87109375,-109.375
-36.62109375,-62.98828125,-81.54296875,-97.16796875
-20.01953125,-53.7109375,-75.1953125,8.30078125
0.0,-42.48046875,-24.90234375,62.01171875
-31.25,-51.26953125,-62.01171875,-6.8359375
-71.2890625,-64.453125,-105.46875,-97.65625
-48.33984375,-62.01171875,-27.34375,-104.00390625
-22.4609375,-35.64453125,-23.92578125,-16.11328125
-38.0859375,-40.0390625,-52.734375,21.97265625
-88.37890625,-71.77734375,-43.45703125,-33.203125
-98.6328125,-77.1484375,-63.96484375,-119.140625
-57.12890625,-48.33984375,-69.3359375,-123.046875
-24.90234375,-34.1796875,-61.03515625,-37.109375
-2.44140625,-32.71484375,-81.0546875,39.0625
-32.71484375,-39.55078125,-81.0546875,1.46484375
-79.1015625,-57.12890625,-43.9453125,-96.6796875
-89.84375,-66.89453125,-50.78125,-122.55859375
-52.24609375,-58.59375,-62.5,-42.48046875
2.44140625,-59.5703125,-69.82421875,46.875
-22.94921875,-41.015625,-86.9140625,20.99609375
-75.1953125,-46.38671875,-56.15234375,-65.91796875
-96.19140625,-82.03125,-24.90234375,-109.375
-84.47265625,-64.94140625,-32.2265625,-61.5234375
-21.97265625,-44.921875,-34.1796875,17.08984375
-47.36328125,-44.921875,-46.38671875,7.32421875
-94.23828125,-68.84765625,-46.38671875,-69.82421875
-54.19921875,-74.70703125,-48.33984375,-100.5859375
-34.66796875,-51.26953125,-53.22265625,-47.8515625
-39.55078125,-35.64453125,-29.78515625,20.01953125
-45.8984375,-41.50390625,-28.80859375,9.27734375
-50.29296875,-51.7578125,-43.9453125,-69.3359375
-55.17578125,-56.640625,-49.31640625,-109.375
-41.015625,-56.640625,-52.24609375,-59.08203125
-5.859375,-39.55078125,-64.453125,30.2734375
-16.11328125,-25.87890625,-54.6875,48.33984375
-57.12890625,-45.8984375,-39.0625,-37.59765625
-67.87109375,-62.5,-47.8515625,-104.98046875
-47.36328125,-47.36328125,-32.2265625,-53.22265625
-15.625,-34.1796875,-28.3203125,33.203125
-44.43359375,-54.6875,-37.59765625,32.2265625
-77.63671875,-83.0078125,-39.55078125,-50.29296875
-77.63671875,-80.56640625,-51.7578125,-102.5390625
-51.26953125,-61.03515625,-62.98828125,-71.77734375
-12.6953125,-42.96875,-43.9453125,10.7421875
-7.8125,-34.66796875,-47.8515625,49.31640625
-53.7109375,-44.43359375,-58.59375,-11.71875
-78.125,-60.546875,-58.59375,-91.30859375
-32.71484375,-46.38671875,-62.5,-82.03125
2.44140625,-32.2265625,-39.0625,9.765625
-16.6015625,-41.50390625,-46.38671875,47.8515625
-51.7578125,-42.48046875,-56.640625,-16.6015625
-53.7109375,-46.38671875,-47.8515625,-90.33203125
-58.10546875,-50.78125,-56.640625,-95.21484375
-42.48046875,-33.69140625,-45.8984375,-19.04296875
-35.64453125,-35.64453125,-50.78125,36.62109375
-72.75390625,-49.31640625,-54.19921875,-10.25390625
-86.9140625,-57.6171875,-41.50390625,-80.56640625
-39.55078125,-55.6640625,-50.29296875,-83.0078125
-10.7421875,-43.45703125,-57.12890625,-16.6015625
-26.85546875,-46.38671875,-36.1328125,46.38671875
-35.64453125,-41.9921875,-23.4375,17.08984375
-81.54296875,-55.6640625,-23.92578125,-71.77734375
-81.0546875,-62.98828125,-31.25,-100.09765625
-30.76171875,-42.48046875,-41.9921875,-27.34375
-22.94921875,-47.36328125,-69.82421875,40.52734375
-46.38671875,-57.6171875,-55.17578125,3.41796875
-72.265625,-54.19921875,-22.4609375,-77.1484375
-61.03515625,-49.31640625,-41.9921875,-102.5390625
-24.4140625,-43.45703125,-41.015625,-38.0859375
-19.04296875,-41.50390625,-25.390625,26.3671875
-45.8984375,-50.78125,-44.43359375,-5.859375
-51.26953125,-54.6875,-62.98828125,-72.75390625
-48.828125,-52.24609375,-47.36328125,-99.609375
-41.015625,-52.734375,-36.62109375,-56.15234375
-29.296875,-37.109375,-36.1328125,21.97265625
-47.8515625,-35.15625,-42.96875,23.92578125
-81.0546875,-54.19921875,-53.7109375,-55.6640625
-83.0078125,-54.6875,-59.5703125,-104.98046875
-53.7109375,-45.41015625,-72.265625,-69.82421875
-38.0859375,-44.43359375,-63.4765625,9.765625
-50.78125,-40.52734375,-44.921875,21.97265625
-66.40625,-33.69140625,-44.43359375,-53.22265625
-77.63671875,-41.015625,-51.7578125,-114.74609375
-52.24609375,-45.8984375,-48.33984375,-77.63671875
-19.53125,-41.50390625,-45.41015625,15.13671875
-30.76171875,-41.015625,-44.921875,31.25
-53.22265625,-41.015625,-52.24609375,-32.2265625
-58.10546875,-51.7578125,-68.359375,-93.26171875
-46.38671875,-51.26953125,-44.921875,-67.3828125
-25.390625,-32.71484375,-27.34375,12.6953125
-28.3203125,-24.4140625,-41.015625,37.59765625
-54.6875,-37.59765625,-42.96875,-20.99609375
-53.22265625,-49.31640625,-32.2265625,-80.078125
-38.0859375,-44.921875,-25.390625,-67.87109375
-30.2734375,-45.41015625,-38.57421875,6.8359375
-26.3671875,-42.48046875,-44.43359375,46.875
-53.7109375,-48.33984375,-39.55078125,-12.6953125
-78.125,-55.17578125,-57.12890625,-95.703125
-54.19921875,-42.96875,-59.08203125,-88.37890625
-10.25390625,-31.25,-46.875,-6.34765625
-18.06640625,-44.43359375,-52.734375,39.0625
-52.734375,-61.03515625,-54.19921875,-2.44140625
-68.84765625,-52.24609375,-44.43359375,-77.1484375
-51.7578125,-49.31640625,-42.48046875,-94.23828125
-38.0859375,-52.24609375,-35.64453125,-24.4140625
-27.83203125,-43.9453125,-33.69140625,41.9921875
-43.45703125,-42.96875,-38.0859375,12.20703125
-78.61328125,-49.31640625,-47.36328125,-74.70703125
-50.78125,-59.08203125,-44.921875,-101.5625
-33.69140625,-66.40625,-35.15625,-39.0625
-45.41015625,-54.19921875,-36.62109375,27.83203125
-53.22265625,-43.45703125,-48.828125,-2.44140625
-71.77734375,-54.6875,-59.08203125,-91.796875
-54.19921875,-55.6640625,-66.89453125,-117.67578125
-46.38671875,-55.6640625,-63.4765625,-57.12890625
-31.25,-48.33984375,-31.73828125,24.4140625
-47.36328125,-35.15625,-30.2734375,12.20703125
-95.21484375,-45.41015625,-51.26953125,-76.66015625
-76.171875,-51.26953125,-66.89453125,-119.140625
-38.57421875,-46.875,-57.12890625,-60.05859375
-24.90234375,-53.22265625,-36.62109375,17.578125
-38.0859375,-46.38671875,-37.59765625,18.5546875
-69.82421875,-41.015625,-44.43359375,-58.10546875
-59.08203125,-43.9453125,-46.38671875,-109.375
-30.76171875,-36.1328125,-40.52734375,-66.89453125
-24.4140625,-35.15625,-32.71484375,21.484375
-34.1796875,-38.0859375,-46.875,39.55078125
-49.8046875,-37.109375,-55.6640625,-31.73828125
-46.38671875,-40.52734375,-40.52734375,-96.19140625
-35.64453125,-42.96875,-27.83203125,-77.63671875
-34.1796875,-44.43359375,-30.76171875,-6.34765625
-68.84765625,-51.26953125,-31.25,13.671875
-99.12109375,-61.03515625,-33.203125,-42.96875
-94.23828125,-58.10546875,-35.64453125,-100.09765625
-65.91796875,-49.31640625,-44.921875,-76.171875
-33.69140625,-56.640625,-62.98828125,1.953125
-39.0625,-53.22265625,-39.0625,36.1328125
-80.078125,-50.29296875,-21.97265625,-20.5078125
-92.7734375,-69.82421875,-30.2734375,-95.21484375
-57.12890625,-65.91796875,-38.0859375,-92.28515625
-30.76171875,-54.6875,-41.015625,-19.04296875
-36.62109375,-55.6640625,-41.9921875,17.08984375
-68.359375,-54.19921875,-39.55078125,-21.484375
-87.40234375,-54.6875,-39.55078125,-83.984375
-62.5,-57.12890625,-38.0859375,-100.09765625
-26.85546875,-51.26953125,-36.62109375,-27.34375
-22.94921875,-39.0625,-34.1796875,43.45703125
-34.66796875,-41.9921875,-47.8515625,-3.41796875
-75.68359375,-52.734375,-68.359375,-91.796875
-76.66015625,-52.734375,-49.31640625,-107.421875
-35.15625,-41.9921875,-38.0859375,-40.52734375
-29.296875,-30.2734375,-36.62109375,37.59765625
-51.7578125,-33.203125,-30.76171875,11.23046875
-72.265625,-43.45703125,-33.203125,-76.66015625
-51.7578125,-48.33984375,-50.29296875,-101.5625
-26.85546875,-51.7578125,-51.7578125,-29.78515625
-16.11328125,-37.59765625,-27.34375,39.0625
-33.203125,-35.64453125,-30.2734375,12.20703125
-87.890625,-35.15625,-34.1796875,-49.8046875
-70.80078125,-36.62109375,-33.69140625,-87.40234375
-32.71484375,-45.8984375,-42.96875,-55.17578125
-39.55078125,-40.0390625,-41.015625,22.4609375
-51.7578125,-33.69140625,-23.92578125,24.4140625
-70.3125,-42.48046875,-34.1796875,-53.22265625
-62.98828125,-52.734375,-51.26953125,-109.375
-37.59765625,-43.9453125,-48.828125,-64.453125
-5.859375,-25.390625,-35.64453125,26.85546875
-22.94921875,-22.94921875,-25.87890625,35.15625
-77.63671875,-48.33984375,-49.8046875,-57.12890625
-52.24609375,-55.6640625,-58.59375,-125.48828125
-12.6953125,-33.203125,-57.6171875,-83.0078125
-33.203125,-35.15625,-64.453125,7.8125
-48.33984375,-50.78125,-44.43359375,28.3203125
-62.5,-41.9921875,-39.0625,-41.50390625
-73.73046875,-39.0625,-48.828125,-111.328125
-63.4765625,-45.8984375,-52.734375,-101.5625
-55.17578125,-48.33984375,-49.8046875,-21.97265625
-85.44921875,-48.828125,-50.78125,11.71875
-87.40234375,-46.875,-52.24609375,-49.8046875
-76.171875,-46.875,-56.15234375,-120.60546875
-96.6796875,-45.8984375,-63.96484375,-117.67578125
-73.2421875,-48.33984375,-64.453125,-34.1796875
-52.734375,-47.8515625,-57.6171875,22.94921875
-77.1484375,-51.7578125,-52.24609375,-26.3671875
-93.75,-67.87109375,-58.59375,-116.2109375
-65.4296875,-53.22265625,-53.22265625,-112.79296875
-40.52734375,-35.64453125,-53.22265625,-33.203125
-48.828125,-40.0390625,-53.7109375,7.32421875
-64.94140625,-43.45703125,-48.828125,-37.59765625
-90.8203125,-53.7109375,-55.6640625,-114.74609375
-70.3125,-58.10546875,-59.08203125,-125.0
-34.1796875,-47.36328125,-62.01171875,-48.828125
-40.52734375,-41.015625,-65.4296875,10.25390625
-72.75390625,-45.8984375,-63.96484375,-20.01953125
-95.703125,-38.0859375,-56.15234375,-93.26171875
-70.3125,-37.59765625,-55.17578125,-113.28125
-39.55078125,-38.0859375,-43.9453125,-41.9921875
-37.59765625,-34.1796875,-31.25,33.69140625
-52.24609375,-43.45703125,-33.203125,19.53125
-84.47265625,-56.640625,-41.9921875,-73.2421875
-79.1015625,-61.5234375,-40.0390625,-108.88671875
-34.66796875,-54.19921875,-42.96875,-42.96875
-29.296875,-39.55078125,-62.98828125,28.3203125
-47.36328125,-31.25,-53.22265625,17.578125
-71.2890625,-41.50390625,-43.45703125,-64.94140625
-78.125,-47.8515625,-39.55078125,-110.3515625
-44.921875,-44.43359375,-32.71484375,-59.5703125
-23.92578125,-41.015625,-35.15625,16.11328125
-35.64453125,-41.015625,-42.96875,19.04296875
-67.87109375,-43.45703125,-51.26953125,-58.10546875
-70.3125,-51.26953125,-64.94140625,-120.60546875
-46.38671875,-55.6640625,-63.96484375,-84.9609375
-24.90234375,-37.59765625,-40.52734375,5.37109375
-40.0390625,-37.59765625,-35.15625,20.99609375
-82.03125,-55.6640625,-45.8984375,-57.6171875
-90.8203125,-64.94140625,-47.8515625,-115.72265625
-42.48046875,-50.78125,-41.9921875,-77.63671875
-3.41796875,-38.57421875,-39.0625,3.41796875
-31.25,-38.0859375,-40.52734375,25.390625
-73.2421875,-45.41015625,-53.7109375,-35.64453125
-83.984375,-53.22265625,-60.05859375,-108.3984375
-69.82421875,-49.8046875,-43.45703125,-83.0078125
-39.0625,-43.45703125,-37.59765625,-3.90625
-49.31640625,-34.66796875,-42.48046875,18.06640625
-84.9609375,-45.41015625,-42.96875,-40.52734375
-88.8671875,-52.24609375,-41.9921875,-106.4453125
-54.19921875,-42.48046875,-45.8984375,-101.5625
-21.97265625,-50.29296875,-58.10546875,-24.4140625
-34.66796875,-62.5,-58.10546875,26.85546875
-69.82421875,-62.01171875,-45.41015625,-21.484375
-84.9609375,-54.6875,-45.41015625,-95.21484375
-66.40625,-59.5703125,-46.875,-101.5625
-26.85546875,-59.08203125,-40.0390625,-18.5546875
-6.8359375,-47.36328125,-39.0625,42.96875
-41.9921875,-48.828125,-48.828125,-2.9296875
-68.359375,-50.29296875,-53.7109375,-79.58984375
-42.96875,-47.36328125,-49.31640625,-92.28515625
-20.01953125,-35.15625,-48.33984375,-32.71484375
-17.08984375,-30.76171875,-42.96875,17.08984375
-41.9921875,-38.0859375,-52.734375,-17.08984375
-49.31640625,-46.38671875,-59.5703125,-93.26171875
-40.52734375,-50.78125,-46.875,-118.1640625
-36.62109375,-41.015625,-46.875,-46.875
-26.3671875,-32.2265625,-48.828125,25.390625
-55.6640625,-43.9453125,-67.87109375,-9.27734375
-89.84375,-52.734375,-75.68359375,-85.44921875
-67.87109375,-43.45703125,-44.921875,-105.46875
-39.0625,-41.9921875,-34.66796875,-56.640625
-35.64453125,-36.1328125,-40.52734375,20.01953125
-52.24609375,-36.62109375,-40.0390625,15.625
-84.47265625,-52.24609375,-61.03515625,-70.3125
-78.125,-54.19921875,-65.91796875,-112.3046875
-41.015625,-46.38671875,-52.24609375,-60.05859375
-21.97265625,-44.43359375,-44.43359375,18.5546875
-40.0390625,-38.57421875,-38.0859375,24.4140625
-77.1484375,-42.96875,-43.45703125,-52.24609375
-76.171875,-54.6875,-43.9453125,-110.83984375
-52.734375,-54.6875,-35.15625,-78.125
-50.29296875,-55.17578125,-29.296875,-0.48828125
-57.6171875,-54.19921875,-43.45703125,20.99609375
-75.1953125,-51.7578125,-46.875,-42.48046875
-76.171875,-55.6640625,-35.15625,-107.91015625
-47.8515625,-50.29296875,-34.66796875,-89.84375
-26.85546875,-44.921875,-39.55078125,-2.44140625
-30.2734375,-42.96875,-36.62109375,26.85546875
-63.4765625,-43.45703125,-34.1796875,-32.71484375
-79.1015625,-46.875,-38.0859375,-91.30859375
-47.8515625,-46.38671875,-43.45703125,-83.984375
-11.23046875,-50.78125,-40.0390625,-3.41796875
-13.18359375,-33.69140625,-29.78515625,48.33984375
-56.15234375,-31.73828125,-31.73828125,-11.71875
-78.125,-45.41015625,-38.57421875,-91.796875
-61.03515625,-43.45703125,-45.8984375,-86.9140625
-38.0859375,-43.9453125,-48.33984375,-10.25390625
-41.015625,-45.8984375,-61.5234375,34.1796875
-75.1953125,-54.19921875,-63.4765625,-20.5078125
-80.078125,-65.91796875,-31.25,-95.21484375
-55.6640625,-61.03515625,-25.87890625,-100.09765625
-32.2265625,-50.29296875,-33.69140625,-26.85546875
-31.25,-47.36328125,-36.62109375,33.69140625
-58.59375,-55.6640625,-42.48046875,-7.32421875
-63.96484375,-49.31640625,-53.22265625,-90.33203125
-41.50390625,-32.2265625,-52.734375,-109.86328125
-18.5546875,-35.15625,-50.29296875,-43.9453125
-9.765625,-32.71484375,-50.29296875,27.83203125
-21.97265625,-27.34375,-40.52734375,5.859375
-57.12890625,-41.50390625,-49.31640625,-78.125
-57.12890625,-44.43359375,-71.2890625,-108.88671875
-9.27734375,-45.41015625,-55.17578125,-55.6640625
1.953125,-40.0390625,-38.57421875,17.578125
-50.29296875,-26.3671875,-50.78125,7.32421875
-80.56640625,-51.26953125,-57.6171875,-80.56640625
-56.15234375,-59.08203125,-54.19921875,-119.140625
-34.66796875,-42.48046875,-52.734375,-63.96484375
-36.62109375,-48.33984375,-51.26953125,10.25390625
-55.6640625,-54.19921875,-41.9921875,2.44140625
-77.63671875,-52.734375,-42.96875,-72.75390625
-69.3359375,-48.828125,-48.33984375,-113.76953125
-42.96875,-47.8515625,-44.43359375,-67.3828125
-38.57421875,-59.5703125,-55.17578125,10.7421875
-39.0625,-62.5,-66.89453125,19.53125
-45.8984375,-51.26953125,-41.015625,-50.29296875
-79.1015625,-56.640625,-30.2734375,-114.74609375
-63.96484375,-53.22265625,-37.109375,-85.9375
-26.85546875,-38.57421875,-38.57421875,-5.859375
-41.9921875,-33.69140625,-50.78125,6.8359375
-73.73046875,-40.0390625,-53.22265625,-62.5
-83.49609375,-52.734375,-53.22265625,-128.90625
-61.03515625,-51.7578125,-62.98828125,-111.81640625
-29.78515625,-47.36328125,-57.12890625,-23.92578125
-42.96875,-43.45703125,-50.78125,8.7890625
-83.49609375,-45.41015625,-60.546875,-54.19921875
-92.7734375,-52.24609375,-60.05859375,-122.55859375
-69.3359375,-47.36328125,-53.7109375,-104.98046875
-41.9921875,-36.62109375,-51.7578125,-23.92578125
-46.38671875,-46.875,-55.6640625,11.71875
-77.63671875,-52.24609375,-60.05859375,-30.2734375
-88.37890625,-44.43359375,-66.89453125,-104.00390625
-66.89453125,-50.78125,-66.89453125,-109.86328125
-29.78515625,-46.875,-47.36328125,-23.4375
-33.69140625,-39.55078125,-40.0390625,29.78515625
-68.84765625,-43.9453125,-39.0625,-14.6484375
-90.33203125,-50.29296875,-37.59765625,-96.6796875
-71.77734375,-48.828125,-48.828125,-118.65234375
-43.9453125,-41.9921875,-53.7109375,-40.52734375
-45.8984375,-42.96875,-55.17578125,14.16015625
-65.4296875,-38.57421875,-47.8515625,-27.34375
-88.37890625,-44.43359375,-36.62109375,-100.09765625
-83.984375,-59.5703125,-39.0625,-126.46484375
-51.26953125,-54.6875,-47.36328125,-66.40625
-31.73828125,-48.33984375,-55.17578125,5.859375
-45.41015625,-45.8984375,-52.24609375,-13.18359375
-79.1015625,-50.29296875,-43.45703125,-93.26171875
-79.58984375,-53.7109375,-41.015625,-130.37109375
-47.36328125,-51.26953125,-45.8984375,-70.80078125
-24.90234375,-42.96875,-38.0859375,12.6953125
-41.9921875,-37.59765625,-36.62109375,2.44140625
-72.75390625,-46.38671875,-56.15234375,-79.58984375
-62.5,-41.9921875,-53.22265625,-114.74609375
-36.62109375,-42.48046875,-39.0625,-65.91796875
-34.1796875,-44.43359375,-32.71484375,10.7421875
-59.08203125,-38.57421875,-26.85546875,14.6484375
-82.03125,-43.45703125,-32.71484375,-65.4296875
-79.58984375,-45.8984375,-43.45703125,-115.234375
-52.734375,-43.45703125,-51.26953125,-76.171875
-39.0625,-42.96875,-43.9453125,-1.953125
-55.17578125,-44.921875,-41.9921875,9.27734375
-82.51953125,-52.734375,-48.33984375,-65.4296875
-84.9609375,-62.98828125,-48.828125,-127.44140625
-55.6640625,-59.08203125,-48.33984375,-95.21484375
-33.69140625,-50.29296875,-47.36328125,-8.30078125
-45.8984375,-51.7578125,-41.50390625,20.5078125
-76.171875,-57.6171875,-36.62109375,-44.921875
-81.54296875,-57.12890625,-37.59765625,-108.88671875
-52.734375,-48.828125,-38.0859375,-80.078125
-26.85546875,-46.875,-40.52734375,4.8828125
-31.25,-53.7109375,-40.0390625,26.85546875
-62.98828125,-59.08203125,-41.9921875,-37.109375
-89.84375,-62.01171875,-47.36328125,-106.93359375
-59.08203125,-60.05859375,-50.29296875,-96.19140625
-23.92578125,-54.6875,-49.8046875,-9.27734375
-38.57421875,-58.10546875,-41.9921875,30.76171875
-66.89453125,-58.10546875,-41.015625,-39.55078125
-68.359375,-55.6640625,-42.48046875,-115.234375
-61.5234375,-65.4296875,-47.36328125,-111.81640625
-56.640625,-59.08203125,-48.828125,-44.921875
-56.15234375,-43.45703125,-41.50390625,2.9296875
-98.6328125,-47.8515625,-39.0625,-49.8046875
-125.0,-56.15234375,-43.45703125,-134.27734375
-97.16796875,-54.6875,-41.015625,-143.5546875
-59.08203125,-52.24609375,-41.50390625,-68.359375
-59.08203125,-53.7109375,-46.38671875,-17.578125
-94.7265625,-62.01171875,-50.29296875,-61.03515625
-123.53515625,-69.3359375,-54.19921875,-139.16015625
-109.375,-59.5703125,-49.8046875,-155.2734375
-81.0546875,-51.26953125,-45.41015625,-84.9609375
-71.2890625,-58.10546875,-49.8046875,-20.5078125
-86.9140625,-63.4765625,-51.26953125,-46.875
-118.65234375,-61.5234375,-46.38671875,-120.60546875
-105.95703125,-57.6171875,-38.0859375,-136.23046875
-64.453125,-53.7109375,-36.1328125,-73.73046875
-51.26953125,-49.8046875,-42.96875,-10.7421875
-68.359375,-50.78125,-48.828125,-31.73828125
-98.6328125,-58.10546875,-41.015625,-107.91015625
-94.23828125,-60.05859375,-40.0390625,-137.6953125
-61.5234375,-50.29296875,-43.45703125,-81.54296875
-51.26953125,-37.59765625,-46.875,-14.6484375
-73.2421875,-44.43359375,-48.33984375,-34.66796875
-104.4921875,-58.59375,-40.0390625,-109.375
-101.07421875,-55.17578125,-37.109375,-145.5078125
-71.77734375,-49.31640625,-41.015625,-97.65625
-48.828125,-51.26953125,-41.015625,-25.87890625
-63.4765625,-45.41015625,-44.43359375,-37.59765625
-97.16796875,-47.8515625,-52.734375,-110.3515625
-101.5625,-60.05859375,-52.24609375,-153.3203125
-80.56640625,-54.6875,-49.8046875,-122.0703125
-58.59375,-46.38671875,-54.19921875,-47.36328125
-66.40625,-55.6640625,-54.19921875,-36.62109375
-93.75,-54.6875,-42.48046875,-92.7734375
-104.00390625,-52.734375,-37.109375,-135.25390625
-76.171875,-55.6640625,-32.71484375,-110.3515625
-54.19921875,-50.29296875,-34.1796875,-47.8515625
-58.59375,-52.734375,-44.921875,-36.1328125
-53.7109375,-49.31640625,-39.55078125,-70.3125
-89.35546875,-57.6171875,-32.71484375,-130.859375
-110.83984375,-65.4296875,-40.52734375,-140.625
-101.5625,-61.5234375,-43.45703125,-85.44921875
-110.83984375,-60.546875,-42.96875,-77.63671875
-148.4375,-68.359375,-39.55078125,-136.71875
-196.77734375,-83.984375,-41.9921875,-209.47265625
-185.05859375,-80.078125,-42.96875,-204.1015625
-165.52734375,-80.56640625,-39.0625,-150.87890625
-184.5703125,-86.42578125,-41.50390625,-145.99609375
-219.7265625,-85.9375,-47.8515625,-201.171875
-258.7890625,-92.28515625,-47.8515625,-262.6953125
-255.37109375,-97.65625,-45.41015625,-265.625
-229.00390625,-95.21484375,-44.43359375,-222.65625
-232.421875,-97.16796875,-44.43359375,-204.58984375
-256.34765625,-102.5390625,-39.0625,-235.3515625
-287.109375,-102.05078125,-38.0859375,-288.57421875
-283.69140625,-100.09765625,-40.0390625,-292.48046875
-255.859375,-102.5390625,-35.15625,-250.48828125
-250.9765625,-99.12109375,-28.80859375,-218.75
-268.5546875,-95.21484375,-38.57421875,-241.2109375
-288.57421875,-103.515625,-52.24609375,-288.57421875
-277.83203125,-110.3515625,-55.6640625,-293.9453125
-243.65234375,-106.93359375,-62.01171875,-258.30078125
-228.515625,-97.16796875,-64.453125,-226.07421875
-241.69921875,-93.75,-57.6171875,-237.79296875
-258.30078125,-96.19140625,-58.10546875,-268.5546875
-249.51171875,-98.6328125,-62.01171875,-279.78515625
-219.23828125,-98.14453125,-62.01171875,-246.58203125
-200.1953125,-95.703125,-64.453125,-209.47265625
-211.9140625,-88.8671875,-62.98828125,-221.19140625
-222.16796875,-79.58984375,-61.5234375,-256.34765625
-220.21484375,-86.9140625,-58.10546875,-272.94921875
-197.265625,-96.19140625,-60.05859375,-244.140625
-166.9921875,-85.9375,-69.82421875,-199.70703125
-178.22265625,-80.078125,-72.75390625,-208.49609375
-199.70703125,-77.63671875,-73.73046875,-243.1640625
-196.2890625,-73.73046875,-71.77734375,-247.55859375
-173.828125,-71.2890625,-62.98828125,-215.8203125
-147.4609375,-67.3828125,-61.03515625,-173.33984375
-145.99609375,-68.359375,-58.59375,-162.109375
-178.7109375,-78.61328125,-48.828125,-187.01171875
-188.4765625,-86.42578125,-48.828125,-208.0078125
-147.4609375,-74.70703125,-47.8515625,-183.10546875
-109.86328125,-64.94140625,-46.38671875,-145.5078125
-120.60546875,-72.75390625,-54.6875,-151.85546875
-155.76171875,-81.0546875,-52.24609375,-177.24609375
-162.109375,-81.0546875,-42.96875,-188.96484375
-133.7890625,-74.70703125,-44.921875,-161.1328125
-105.46875,-70.3125,-47.36328125,-97.16796875
-99.12109375,-71.2890625,-48.828125,-64.94140625
-110.3515625,-72.75390625,-45.8984375,-77.63671875
-125.9765625,-78.125,-39.55078125,-89.84375
-122.0703125,-77.63671875,-40.0390625,-86.9140625
-92.7734375,-73.73046875,-39.55078125,-56.640625
-85.44921875,-66.40625,-39.0625,-51.26953125
-114.2578125,-67.87109375,-47.8515625,-96.6796875
-136.23046875,-81.0546875,-55.17578125,-141.11328125
-121.58203125,-80.078125,-57.12890625,-143.5546875
-107.91015625,-82.51953125,-56.640625,-116.2109375
-102.05078125,-83.0078125,-62.98828125,-113.76953125
-114.74609375,-82.51953125,-70.80078125,-155.2734375
-144.04296875,-92.7734375,-73.73046875,-196.2890625
-132.32421875,-93.26171875,-80.078125,-187.01171875
-105.46875,-87.40234375,-87.40234375,-155.76171875
-106.4453125,-89.35546875,-96.19140625,-148.4375
-121.58203125,-95.21484375,-101.07421875,-174.8046875
-152.34375,-104.4921875,-99.12109375,-214.84375
-153.3203125,-119.62890625,-103.02734375,-223.6328125
-134.765625,-135.25390625,-105.95703125,-208.984375
-128.41796875,-142.08984375,-107.421875,-206.0546875
-145.5078125,-143.5546875,-114.2578125,-272.94921875
-174.31640625,-148.4375,-120.1171875,-386.71875
-170.41015625,-153.3203125,-125.0,-482.91015625
-147.4609375,-157.2265625,-127.9296875,-557.6171875
-121.58203125,-156.73828125,-130.37109375,-582.51953125
-125.48828125,-159.1796875,-137.6953125,-618.1640625
-159.66796875,-163.0859375,-144.04296875,-698.73046875
-164.55078125,-158.69140625,-142.08984375,-744.140625
-138.18359375,-157.2265625,-141.6015625,-700.68359375
-119.62890625,-159.1796875,-141.6015625,-637.20703125
-135.25390625,-161.62109375,-140.625,-622.55859375
-157.2265625,-169.43359375,-143.5546875,-601.07421875
-158.69140625,-174.8046875,-148.92578125,-562.98828125
-128.90625,-175.29296875,-148.92578125,-510.7421875
-94.7265625,-178.22265625,-150.390625,-437.98828125
-101.07421875,-179.19921875,-153.3203125,-384.27734375
-132.8125,-178.7109375,-147.4609375,-361.81640625
-149.90234375,-184.08203125,-145.01953125,-339.84375
-130.859375,-183.10546875,-142.578125,-293.45703125
-107.91015625,-182.12890625,-140.13671875,-229.98046875
-108.88671875,-177.734375,-142.578125,-189.94140625
-130.859375,-175.29296875,-148.92578125,-208.49609375
-161.62109375,-179.19921875,-154.296875,-218.75
-148.92578125,-177.24609375,-150.390625,-166.50390625
-96.19140625,-169.921875,-153.3203125,-99.12109375
-101.5625,-168.45703125,-167.96875,-95.703125
-138.18359375,-168.9453125,-165.0390625,-114.74609375
-155.2734375,-170.41015625,-159.1796875,-124.0234375
-138.18359375,-172.8515625,-162.109375,-105.95703125
-93.75,-165.0390625,-157.2265625,-50.78125
-84.9609375,-155.76171875,-157.2265625,-27.83203125
-101.5625,-152.34375,-159.1796875,-53.7109375
-121.09375,-148.4375,-156.73828125,-79.1015625
-121.58203125,-149.90234375,-149.90234375,-68.84765625
-96.6796875,-155.76171875,-153.80859375,-39.0625
-68.84765625,-146.97265625,-158.203125,-17.08984375
-92.28515625,-144.04296875,-155.2734375,-48.33984375
-122.0703125,-150.87890625,-148.4375,-92.28515625
-99.609375,-141.11328125,-141.11328125,-83.984375
-58.59375,-130.859375,-142.08984375,-38.57421875
-56.640625,-124.51171875,-145.99609375,-7.32421875
-79.58984375,-114.2578125,-145.5078125,-30.76171875
-101.5625,-111.81640625,-137.6953125,-70.3125
-98.14453125,-108.88671875,-130.859375,-62.01171875
-72.75390625,-96.19140625,-125.0,-16.11328125
-56.640625,-86.9140625,-118.1640625,14.16015625
-62.01171875,-82.03125,-120.1171875,-2.9296875
-85.44921875,-83.0078125,-115.72265625,-29.78515625
-93.26171875,-81.54296875,-105.46875,-35.15625
-67.3828125,-76.171875,-96.19140625,1.953125
-39.0625,-73.2421875,-87.40234375,42.96875
-49.8046875,-71.2890625,-83.0078125,30.76171875
-75.1953125,-70.80078125,-79.58984375,-5.37109375
-81.0546875,-65.4296875,-88.37890625,-24.4140625
-59.5703125,-62.01171875,-88.8671875,1.46484375
-35.64453125,-64.453125,-73.2421875,50.78125
-56.640625,-57.12890625,-66.40625,46.875
-87.40234375,-54.6875,-68.84765625,1.953125
-94.7265625,-59.08203125,-71.2890625,-26.85546875
-75.68359375,-53.7109375,-64.453125,-5.37109375
-55.6640625,-48.33984375,-56.640625,22.4609375
-62.5,-52.24609375,-54.6875,16.6015625
-85.44921875,-52.734375,-47.36328125,-2.44140625
-97.65625,-48.828125,-41.50390625,-33.203125
-83.984375,-44.921875,-39.0625,-29.296875
-51.7578125,-38.57421875,-44.43359375,20.99609375
-51.7578125,-35.15625,-52.24609375,34.1796875
-82.51953125,-36.62109375,-50.29296875,0.48828125
-86.9140625,-30.76171875,-50.29296875,-21.484375
-70.80078125,-26.3671875,-49.31640625,2.9296875
-45.8984375,-32.71484375,-39.55078125,54.19921875
-31.25,-33.69140625,-38.0859375,72.265625
-43.9453125,-29.78515625,-39.0625,41.50390625
-66.89453125,-36.1328125,-41.015625,12.20703125
-61.5234375,-39.55078125,-35.64453125,43.45703125
-19.04296875,-37.109375,-30.2734375,93.26171875
-15.625,-26.85546875,-30.76171875,79.1015625
-49.8046875,-22.4609375,-27.83203125,42.48046875
-67.3828125,-24.4140625,-27.83203125,38.57421875
-47.8515625,-21.97265625,-25.390625,58.10546875
-15.13671875,-10.25390625,-19.04296875,108.3984375
-23.4375,-2.44140625,-12.20703125,157.71484375
-40.0390625,-9.27734375,-13.18359375,153.80859375
-57.6171875,-2.9296875,-20.01953125,136.71875
-49.8046875,2.44140625,-20.01953125,143.5546875
-31.25,-0.9765625,-17.08984375,159.1796875
-14.16015625,-2.9296875,-17.08984375,172.8515625
-5.37109375,2.9296875,-12.6953125,145.99609375
-40.0390625,13.671875,-15.625,110.83984375
-52.734375,17.578125,-14.6484375,116.69921875
-19.04296875,22.94921875,-1.46484375,170.8984375
-12.20703125,24.90234375,8.7890625,214.84375
-21.97265625,27.83203125,8.7890625,191.40625
-46.875,26.3671875,4.8828125,121.58203125
-59.08203125,20.5078125,0.48828125,82.03125
-26.3671875,26.3671875,-2.44140625,106.4453125
-12.20703125,17.578125,8.7890625,143.5546875
-30.2734375,10.25390625,12.6953125,116.69921875
-42.48046875,22.94921875,10.25390625,66.89453125
-50.29296875,16.11328125,16.11328125,41.9921875
-33.203125,5.37109375,15.13671875,61.03515625
-7.32421875,11.71875,10.25390625,104.4921875
-19.53125,21.484375,3.90625,83.0078125
-41.50390625,22.94921875,-0.48828125,16.11328125
-49.8046875,24.90234375,-1.46484375,-10.7421875
-30.76171875,31.73828125,2.44140625,9.27734375
2.44140625,36.1328125,1.953125,46.875
-1.46484375,38.57421875,-1.46484375,43.9453125
-29.78515625,37.59765625,-6.8359375,-20.01953125
-47.36328125,33.203125,-15.13671875,-74.70703125
-21.97265625,31.73828125,-18.06640625,-60.05859375
7.32421875,31.25,-13.671875,-4.39453125
-4.8828125,17.578125,-14.16015625,1.46484375
-36.62109375,9.27734375,-14.16015625,-51.26953125
-57.12890625,2.9296875,-8.7890625,-95.703125
-36.1328125,2.44140625,-6.8359375,-83.984375
-1.953125,17.08984375,-2.44140625,-25.390625
-8.30078125,16.11328125,0.0,-8.30078125
-45.8984375,2.9296875,-8.30078125,-69.82421875
-64.453125,-5.859375,-10.7421875,-120.1171875
-42.48046875,-12.20703125,-4.39453125,-101.07421875
0.0,-5.859375,-3.90625,-32.71484375
-8.7890625,-1.953125,-12.6953125,-20.99609375
-35.15625,-4.39453125,-19.04296875,-81.54296875
-51.26953125,-9.27734375,-21.97265625,-133.7890625
-62.98828125,-16.11328125,-21.484375,-134.765625
-23.92578125,-14.16015625,-10.7421875,-57.12890625
-4.39453125,-10.7421875,-7.32421875,-10.25390625
-41.50390625,-6.34765625,-18.06640625,-63.4765625
-72.265625,-5.37109375,-21.484375,-129.39453125
-52.734375,-9.765625,-18.06640625,-136.71875
-22.4609375,-16.6015625,-15.13671875,-78.61328125
-15.625,-18.5546875,-19.04296875,-25.87890625
-41.50390625,-16.11328125,-17.08984375,-50.78125
-82.03125,-30.76171875,-13.18359375,-128.41796875
-73.2421875,-42.48046875,-15.625,-147.4609375
-28.3203125,-29.78515625,-17.08984375,-80.56640625
-5.37109375,-11.23046875,-19.53125,-20.99609375
-20.01953125,-12.20703125,-26.3671875,-44.921875
-61.03515625,-26.85546875,-26.85546875,-115.234375
-68.359375,-27.83203125,-24.4140625,-144.53125
-38.0859375,-20.99609375,-25.87890625,-101.07421875
-20.99609375,-22.4609375,-28.3203125,-37.109375
-30.76171875,-20.99609375,-31.25,-36.62109375
-65.4296875,-28.80859375,-32.71484375,-105.95703125
-76.66015625,-36.62109375,-47.36328125,-158.69140625
-44.43359375,-29.296875,-47.8515625,-116.69921875
-19.04296875,-26.85546875,-44.43359375,-31.25
-32.71484375,-25.87890625,-43.9453125,-29.78515625
-69.82421875,-27.83203125,-29.296875,-100.09765625
-78.61328125,-31.73828125,-20.99609375,-143.06640625
-48.33984375,-27.83203125,-12.20703125,-108.3984375
-10.25390625,-18.06640625,-13.671875,-23.92578125
-16.6015625,-14.16015625,-18.06640625,-7.32421875
-42.48046875,-33.203125,-21.97265625,-79.1015625
-57.12890625,-42.96875,-33.203125,-135.7421875
-59.5703125,-36.1328125,-34.66796875,-114.2578125
-32.2265625,-30.76171875,-36.1328125,-36.1328125
-16.11328125,-28.80859375,-35.64453125,2.9296875
-41.50390625,-29.78515625,-34.1796875,-46.38671875
-50.29296875,-21.484375,-41.50390625,-116.69921875
-12.20703125,-20.5078125,-47.36328125,-110.3515625
17.08984375,-26.3671875,-37.109375,-20.5078125
27.83203125,-14.6484375,-36.1328125,16.6015625
-23.92578125,-12.6953125,-50.29296875,-43.9453125
-42.48046875,-15.625,-45.41015625,-106.4453125
0.9765625,-16.11328125,-35.15625,-102.5390625
4.39453125,-19.04296875,-36.62109375,-27.34375
4.8828125,-6.8359375,-40.52734375,21.484375
-29.78515625,1.953125,-39.55078125,-32.71484375
-77.1484375,-20.5078125,-40.0390625,-106.4453125
-58.59375,-35.15625,-41.015625,-106.93359375
-24.90234375,-23.92578125,-37.59765625,-36.1328125
5.37109375,-21.484375,-35.15625,32.71484375
5.37109375,-28.80859375,-37.109375,12.6953125
-53.22265625,-34.66796875,-31.25,-71.2890625
-48.33984375,-36.62109375,-21.97265625,-89.35546875
-42.48046875,-35.15625,-25.390625,-30.2734375
-37.59765625,-35.64453125,-45.8984375,29.296875
1.953125,-35.64453125,-50.29296875,3.90625
-59.08203125,-32.71484375,-31.73828125,-67.3828125
-89.84375,-39.0625,-30.2734375,-86.9140625
-55.17578125,-44.921875,-42.96875,-59.5703125
-49.31640625,-19.53125,-43.9453125,-2.9296875
-35.15625,-12.6953125,-40.0390625,1.46484375
-53.22265625,-32.2265625,-60.05859375,-81.54296875
-70.80078125,-36.62109375,-65.4296875,-122.0703125
-58.10546875,-32.71484375,-56.640625,-73.2421875
-25.87890625,-19.53125,-50.29296875,-3.41796875
-32.71484375,-2.9296875,-50.78125,-22.4609375
-49.8046875,-20.99609375,-60.546875,-88.37890625
-65.91796875,-43.9453125,-49.8046875,-117.1875
-62.01171875,-39.55078125,-37.109375,-91.30859375
-16.6015625,-30.2734375,-49.8046875,-19.04296875
-14.6484375,-23.92578125,-58.59375,-10.7421875
-28.80859375,-37.109375,-45.8984375,-71.77734375
-36.62109375,-52.734375,-45.41015625,-136.23046875
-16.11328125,-41.015625,-50.78125,-121.58203125
11.23046875,-35.64453125,-14.6484375,-33.203125
15.13671875,-38.57421875,2.44140625,-10.7421875
-24.90234375,-31.25,-16.6015625,-88.37890625
-54.19921875,-43.45703125,-32.71484375,-171.38671875
-15.625,-51.7578125,-34.66796875,-159.66796875
25.87890625,-30.2734375,-30.76171875,-62.98828125
31.25,-18.5546875,-40.52734375,-44.921875
8.30078125,-25.87890625,-72.75390625,-127.44140625
-13.18359375,-34.1796875,-80.078125,-194.3359375
-2.44140625,-37.109375,-43.45703125,-189.453125
1.953125,-37.59765625,-27.34375,-108.3984375
41.50390625,-24.90234375,-25.390625,-51.7578125
43.9453125,-12.6953125,-27.83203125,-108.3984375
-28.3203125,-20.99609375,-39.55078125,-187.01171875
-7.32421875,-37.109375,-40.52734375,-177.734375
46.875,-31.25,-45.8984375,-106.4453125
61.03515625,-14.16015625,-52.734375,-65.91796875
34.1796875,-12.6953125,-55.6640625,-111.81640625
-1.953125,-15.625,-57.12890625,-183.10546875
22.94921875,-26.85546875,-52.24609375,-188.96484375
81.54296875,-24.90234375,-44.43359375,-107.421875
73.73046875,-21.484375,-46.38671875,-48.828125
41.015625,-42.48046875,-46.875,-90.33203125
-7.32421875,-37.59765625,-44.43359375,-171.38671875
15.625,-39.0625,-45.41015625,-188.96484375
83.49609375,-39.55078125,-46.875,-107.91015625
116.2109375,-20.5078125,-53.7109375,-30.2734375
96.6796875,-38.57421875,-61.5234375,-48.828125
38.57421875,-54.19921875,-52.24609375,-133.7890625
45.41015625,-37.109375,-39.0625,-183.10546875
60.05859375,-43.9453125,-34.1796875,-130.37109375
84.9609375,-44.921875,-26.85546875,-40.52734375
106.93359375,-34.66796875,-31.25,-39.0625
94.7265625,-45.41015625,-46.875,-121.58203125
84.47265625,-49.8046875,-53.7109375,-164.0625
93.26171875,-36.1328125,-51.26953125,-109.375
107.421875,-39.55078125,-47.8515625,-20.99609375
74.70703125,-49.8046875,-39.0625,-12.20703125
57.6171875,-41.9921875,-34.66796875,-82.51953125
88.8671875,-51.26953125,-39.55078125,-108.88671875
110.3515625,-72.265625,-46.875,-53.7109375
126.46484375,-62.98828125,-54.6875,21.484375
126.953125,-53.22265625,-46.38671875,23.92578125
95.21484375,-47.8515625,-43.9453125,-47.36328125
89.35546875,-50.78125,-53.7109375,-85.44921875
136.71875,-55.17578125,-43.9453125,-44.921875
161.1328125,-47.8515625,-41.9921875,34.66796875
127.44140625,-53.22265625,-40.0390625,53.7109375
110.83984375,-44.43359375,-36.62109375,-8.30078125
73.73046875,-38.0859375,-38.57421875,-64.94140625
81.54296875,-57.12890625,-19.53125,-18.5546875
149.90234375,-52.734375,-4.39453125,83.984375
180.17578125,-44.921875,-8.30078125,137.20703125
148.92578125,-46.38671875,-18.06640625,79.1015625
86.9140625,-49.8046875,-17.578125,-11.71875
131.34765625,-45.41015625,-18.5546875,3.41796875
194.82421875,-44.921875,-20.99609375,87.40234375
198.2421875,-36.62109375,-20.5078125,136.71875
181.15234375,-27.83203125,-30.76171875,83.0078125
169.921875,-31.73828125,-49.31640625,0.48828125
184.08203125,-33.203125,-42.48046875,0.9765625
231.93359375,-23.92578125,-13.671875,91.30859375
250.48828125,0.0,-12.20703125,163.0859375
225.5859375,4.8828125,-12.6953125,124.51171875
179.19921875,-13.18359375,-28.3203125,61.5234375
205.56640625,-27.83203125,-29.296875,52.734375
276.3671875,-17.08984375,-6.8359375,122.0703125
287.59765625,-12.20703125,-33.203125,206.54296875
248.046875,-16.11328125,-48.828125,168.45703125
229.98046875,0.0,-31.25,94.23828125
232.421875,-26.3671875,-39.0625,81.0546875
208.984375,-48.828125,-46.38671875,123.046875
214.84375,-34.1796875,-45.8984375,194.82421875
193.84765625,-28.80859375,-47.36328125,169.921875
157.2265625,-35.15625,-47.8515625,71.2890625
148.92578125,-49.31640625,-42.96875,35.64453125
176.7578125,-53.7109375,-36.1328125,102.5390625
196.2890625,-47.8515625,-30.76171875,189.94140625
177.24609375,-37.109375,-29.296875,167.48046875
155.76171875,-27.83203125,-41.015625,79.1015625
134.27734375,-36.62109375,-42.96875,13.671875
167.48046875,-22.4609375,-44.921875,79.58984375
221.6796875,-13.18359375,-50.29296875,192.3828125
223.14453125,-17.08984375,-30.76171875,158.203125
196.77734375,7.8125,-33.203125,87.890625
149.4140625,-7.32421875,-46.38671875,40.52734375
181.640625,-24.90234375,-51.26953125,68.359375
219.7265625,-4.39453125,-62.98828125,173.828125
196.2890625,-15.13671875,-43.9453125,183.59375
164.55078125,-23.4375,-40.52734375,82.51953125
150.390625,-24.90234375,-47.8515625,21.484375
145.01953125,-34.1796875,-35.15625,42.96875
161.1328125,-26.85546875,-21.484375,141.6015625
169.43359375,-23.92578125,-19.04296875,178.22265625
140.625,-33.69140625,-16.11328125,118.1640625
118.65234375,-41.015625,-11.23046875,55.6640625
120.60546875,-48.33984375,-8.30078125,71.77734375
154.296875,-44.921875,-3.41796875,163.0859375
175.78125,-32.2265625,-0.48828125,210.9375
165.0390625,-38.0859375,-5.37109375,157.2265625
142.08984375,-50.78125,-19.04296875,88.8671875
147.4609375,-64.453125,-24.4140625,82.03125
192.3828125,-52.24609375,-5.37109375,154.78515625
180.6640625,-26.85546875,-0.9765625,204.1015625
164.0625,-20.01953125,-2.44140625,159.66796875
179.6875,-15.13671875,-11.23046875,113.76953125
161.1328125,-30.2734375,-32.2265625,85.9375
175.78125,-46.38671875,-36.62109375,135.25390625
179.6875,-42.96875,-29.78515625,187.5
156.25,-44.43359375,-25.390625,132.32421875
114.2578125,-52.24609375,-21.484375,44.43359375
102.05078125,-49.8046875,-25.390625,28.3203125
137.20703125,-46.875,-30.76171875,96.19140625
177.24609375,-43.45703125,-29.296875,161.62109375
146.97265625,-41.50390625,-27.83203125,123.53515625
87.40234375,-50.78125,-19.53125,33.69140625
86.9140625,-61.5234375,-21.484375,4.39453125
102.05078125,-59.5703125,-28.3203125,54.19921875
120.60546875,-44.921875,-25.390625,129.39453125
115.72265625,-39.55078125,-25.87890625,116.2109375
75.68359375,-61.03515625,-29.78515625,23.92578125
64.453125,-79.58984375,-36.62109375,-21.484375
88.37890625,-68.359375,-39.0625,30.76171875
113.28125,-60.546875,-29.78515625,109.86328125
85.44921875,-66.89453125,-20.01953125,89.35546875
55.17578125,-61.03515625,-23.4375,14.6484375
50.29296875,-63.4765625,-40.0390625,-36.62109375
71.77734375,-60.546875,-52.24609375,-6.34765625
117.1875,-43.9453125,-57.12890625,90.8203125
100.09765625,-42.96875,-55.17578125,83.49609375
62.98828125,-50.29296875,-53.22265625,-4.39453125
70.80078125,-69.82421875,-68.359375,-43.9453125
80.56640625,-82.03125,-94.23828125,-27.83203125
97.16796875,-69.3359375,-75.1953125,49.8046875
93.75,-44.43359375,-41.9921875,80.078125
68.84765625,-35.15625,-59.08203125,-2.9296875
62.98828125,-72.75390625,-55.6640625,-64.94140625
48.828125,-98.6328125,-62.5,-63.4765625
75.68359375,-74.21875,-67.3828125,20.5078125
97.16796875,-56.640625,-44.43359375,78.61328125
46.38671875,-50.78125,-42.48046875,3.90625
23.4375,-39.0625,-54.6875,-67.87109375
46.38671875,-42.48046875,-66.89453125,-61.5234375
87.890625,-40.52734375,-52.734375,28.3203125
101.5625,-36.62109375,-50.78125,83.0078125
84.47265625,-39.0625,-62.98828125,20.01953125
78.125,-51.7578125,-64.453125,-44.921875
114.2578125,-59.08203125,-65.91796875,-20.5078125
150.87890625,-51.7578125,-81.0546875,65.91796875
161.1328125,-55.6640625,-64.453125,120.1171875
154.296875,-61.5234375,-58.10546875,82.51953125
127.44140625,-65.4296875,-56.15234375,11.23046875
102.05078125,-53.22265625,-30.76171875,-30.2734375
106.93359375,-20.99609375,-36.1328125,21.484375
144.53125,-13.18359375,-44.921875,93.75
146.97265625,-31.25,-54.19921875,49.8046875
108.88671875,-28.3203125,-60.546875,-39.0625
115.234375,-21.484375,-72.75390625,-41.50390625
136.23046875,-29.78515625,-72.265625,29.78515625
128.90625,-16.11328125,-55.6640625,77.63671875
105.95703125,-7.8125,-76.171875,48.33984375
85.9375,-20.5078125,-65.91796875,-9.765625
83.0078125,-39.0625,-45.8984375,-40.52734375
91.796875,-25.87890625,-50.78125,-7.8125
124.51171875,3.90625,-39.55078125,71.2890625
109.86328125,-2.44140625,-46.38671875,60.05859375
65.91796875,-4.39453125,-47.36328125,-27.83203125
56.15234375,-3.41796875,-48.828125,-72.75390625
79.58984375,-9.27734375,-55.6640625,-24.90234375
114.74609375,-5.859375,-52.734375,68.84765625
100.09765625,2.44140625,-51.26953125,70.80078125
49.31640625,-6.8359375,-49.8046875,-14.16015625
20.99609375,-23.4375,-52.24609375,-62.98828125
37.59765625,-13.18359375,-59.5703125,-31.25
52.734375,-3.41796875,-53.7109375,45.8984375
44.921875,0.9765625,-46.875,62.01171875
19.53125,-2.44140625,-45.41015625,-22.4609375
-3.41796875,-16.11328125,-41.50390625,-88.37890625
3.90625,-4.8828125,-44.43359375,-51.7578125
41.9921875,4.39453125,-44.43359375,40.0390625
43.9453125,2.44140625,-40.0390625,58.10546875
-0.9765625,4.8828125,-46.38671875,-25.87890625
-33.69140625,-1.953125,-51.26953125,-104.4921875
-7.8125,-8.7890625,-48.828125,-79.1015625
24.90234375,-1.46484375,-46.875,9.765625
11.23046875,4.8828125,-47.36328125,38.57421875
-28.3203125,-12.6953125,-48.33984375,-26.85546875
-59.08203125,-20.99609375,-48.828125,-102.5390625
-58.59375,-25.87890625,-53.22265625,-105.95703125
-28.80859375,-20.99609375,-52.24609375,-22.94921875
-6.34765625,-7.32421875,-42.48046875,41.50390625
-18.5546875,-6.8359375,-41.50390625,0.0
-62.01171875,-16.6015625,-53.22265625,-94.23828125
-68.84765625,-29.296875,-59.5703125,-116.2109375
-30.2734375,-23.92578125,-55.17578125,-32.2265625
-21.97265625,-15.625,-55.6640625,24.90234375
-53.7109375,-21.484375,-59.08203125,-36.1328125
-74.21875,-27.34375,-51.7578125,-116.69921875
-73.73046875,-38.57421875,-41.015625,-118.1640625
-53.7109375,-39.0625,-38.0859375,-49.8046875
-34.1796875,-24.4140625,-40.52734375,9.27734375
-56.15234375,-23.92578125,-42.96875,-34.1796875
-87.40234375,-30.76171875,-48.828125,-118.65234375
-77.63671875,-32.2265625,-45.8984375,-131.8359375
-56.15234375,-29.78515625,-44.43359375,-73.2421875
-37.59765625,-14.6484375,-48.33984375,-1.953125
-46.38671875,-9.765625,-44.43359375,-15.625
-86.9140625,-25.390625,-47.36328125,-102.5390625
-101.5625,-41.50390625,-51.7578125,-146.484375
-77.63671875,-41.015625,-47.8515625,-93.26171875
-57.6171875,-31.25,-48.828125,-6.8359375
-71.77734375,-30.76171875,-56.15234375,-23.92578125
-102.5390625,-40.52734375,-64.453125,-114.2578125
-122.55859375,-52.734375,-72.265625,-160.64453125
-108.3984375,-51.26953125,-58.10546875,-117.67578125
-72.265625,-36.62109375,-42.96875,-24.90234375
-82.51953125,-32.2265625,-50.78125,-31.25
-114.74609375,-41.015625,-44.43359375,-119.140625
-116.69921875,-40.52734375,-48.828125,-169.43359375
-88.8671875,-36.1328125,-52.734375,-123.53515625
-62.98828125,-38.0859375,-43.45703125,-27.83203125
-85.44921875,-44.921875,-41.9921875,-16.6015625
-121.09375,-58.59375,-46.38671875,-93.26171875
-127.44140625,-64.453125,-45.8984375,-148.92578125
-98.14453125,-57.12890625,-42.48046875,-119.140625
-61.5234375,-46.38671875,-47.8515625,-37.59765625
-68.359375,-41.015625,-45.41015625,-9.765625
-111.81640625,-49.31640625,-44.921875,-82.51953125
-137.6953125,-67.87109375,-45.8984375,-159.1796875
-107.421875,-68.84765625,-37.59765625,-133.30078125
-67.3828125,-46.875,-38.57421875,-39.0625
-67.3828125,-36.1328125,-41.50390625,-0.9765625
-104.00390625,-48.33984375,-36.62109375,-68.359375
-144.53125,-61.03515625,-38.57421875,-157.2265625
-138.671875,-60.05859375,-44.921875,-150.390625
-97.65625,-51.7578125,-48.33984375,-56.640625
-80.56640625,-40.0390625,-43.9453125,-2.9296875
-100.5859375,-34.1796875,-48.33984375,-63.96484375
-131.8359375,-44.43359375,-50.78125,-150.87890625
-137.6953125,-55.6640625,-43.9453125,-154.78515625
-95.21484375,-48.33984375,-42.96875,-70.3125
-58.59375,-35.15625,-37.109375,5.37109375
-87.890625,-33.69140625,-37.109375,-39.0625
-134.27734375,-50.78125,-40.52734375,-135.25390625
-131.34765625,-62.98828125,-41.9921875,-155.76171875
-100.5859375,-55.6640625,-45.41015625,-80.56640625
-79.58984375,-48.33984375,-42.96875,-2.44140625
-100.09765625,-54.19921875,-38.57421875,-37.59765625
-143.06640625,-67.3828125,-45.8984375,-135.7421875
-142.578125,-72.265625,-47.36328125,-165.0390625
-100.5859375,-56.640625,-51.7578125,-103.02734375
-66.89453125,-40.0390625,-52.24609375,-13.671875
-86.9140625,-47.8515625,-41.50390625,-29.296875
-132.32421875,-58.59375,-47.8515625,-131.8359375
-133.7890625,-58.59375,-50.29296875,-165.52734375
-111.328125,-55.17578125,-43.45703125,-101.07421875
-92.7734375,-46.38671875,-43.9453125,-11.71875
-103.02734375,-44.43359375,-42.96875,-20.99609375
-140.13671875,-53.22265625,-41.015625,-105.95703125
-165.0390625,-61.5234375,-39.55078125,-160.15625
-149.90234375,-71.77734375,-37.59765625,-123.046875
-112.3046875,-71.77734375,-41.015625,-31.25
-107.91015625,-55.17578125,-44.921875,-24.4140625
-142.578125,-51.7578125,-47.36328125,-113.28125
-170.8984375,-63.96484375,-41.9921875,-179.19921875
-153.3203125,-62.01171875,-31.25,-142.08984375
-110.3515625,-42.96875,-28.3203125,-41.015625
-107.91015625,-40.52734375,-31.25,-18.06640625
-140.625,-60.05859375,-48.828125,-98.6328125
-165.52734375,-66.89453125,-49.31640625,-172.36328125
-147.94921875,-69.3359375,-29.78515625,-142.578125
-97.65625,-56.640625,-26.3671875,-41.9921875
-87.890625,-39.55078125,-33.69140625,-14.16015625
-117.1875,-41.9921875,-37.109375,-89.84375
-152.34375,-57.6171875,-39.0625,-171.38671875
-146.484375,-61.03515625,-44.43359375,-161.1328125
-101.07421875,-55.6640625,-40.52734375,-58.59375
-92.28515625,-50.29296875,-35.64453125,-1.953125
-116.2109375,-54.19921875,-40.52734375,-71.77734375
-153.3203125,-65.91796875,-48.33984375,-170.8984375
-143.5546875,-68.84765625,-53.7109375,-167.96875
-96.19140625,-54.6875,-44.921875,-67.3828125
-90.33203125,-48.828125,-40.52734375,-2.9296875
-120.1171875,-60.546875,-45.8984375,-54.19921875
-162.109375,-69.3359375,-40.0390625,-147.4609375
-161.1328125,-75.68359375,-40.52734375,-160.64453125
-119.140625,-78.125,-34.1796875,-65.4296875
-76.171875,-67.3828125,-24.90234375,15.625
-97.65625,-63.4765625,-25.390625,-32.71484375
-154.296875,-75.1953125,-27.83203125,-127.9296875
-136.71875,-76.171875,-25.87890625,-137.6953125
-84.47265625,-64.453125,-22.94921875,-53.7109375
-60.546875,-55.6640625,-29.78515625,19.53125
-78.125,-57.12890625,-33.69140625,-20.5078125
-122.55859375,-69.82421875,-42.96875,-119.140625
-126.46484375,-73.2421875,-56.15234375,-147.94921875
-85.9375,-64.94140625,-57.12890625,-76.66015625
-57.6171875,-60.05859375,-35.64453125,11.71875
-83.0078125,-64.453125,-21.484375,-6.8359375
-138.18359375,-73.73046875,-34.1796875,-115.234375
-148.92578125,-75.1953125,-41.015625,-161.1328125
-115.234375,-63.96484375,-37.109375,-98.14453125
-71.2890625,-47.8515625,-28.80859375,6.34765625
-82.03125,-41.50390625,-21.97265625,3.41796875
-136.23046875,-60.546875,-24.90234375,-107.91015625
-162.59765625,-80.078125,-36.62109375,-164.0625
-135.25390625,-85.9375,-38.57421875,-102.5390625
-79.1015625,-70.80078125,-31.73828125,8.30078125
-76.66015625,-54.6875,-31.25,14.16015625
-118.65234375,-63.96484375,-40.52734375,-88.8671875
-138.18359375,-71.77734375,-52.734375,-160.64453125
-105.95703125,-61.5234375,-55.17578125,-117.1875
-61.5234375,-48.828125,-43.9453125,-6.34765625
-62.98828125,-40.52734375,-38.57421875,14.16015625
-111.81640625,-46.875,-39.55078125,-76.171875
-154.296875,-67.3828125,-46.875,-162.59765625
-132.8125,-78.61328125,-43.9453125,-132.8125
-81.54296875,-66.89453125,-40.0390625,-20.01953125
-77.1484375,-60.546875,-39.55078125,22.4609375
-116.69921875,-79.1015625,-38.0859375,-50.78125
-135.7421875,-88.37890625,-35.15625,-129.8828125
-116.2109375,-80.078125,-36.1328125,-110.3515625
-81.54296875,-61.5234375,-33.69140625,-10.7421875
-64.453125,-47.8515625,-29.296875,40.52734375
-83.984375,-53.22265625,-36.62109375,-35.15625
-129.8828125,-62.98828125,-51.26953125,-146.97265625
-125.9765625,-61.03515625,-56.640625,-153.80859375
-75.1953125,-56.640625,-54.6875,-55.17578125
-52.734375,-50.29296875,-43.9453125,12.20703125
-84.47265625,-46.38671875,-34.66796875,-42.96875
-128.41796875,-56.15234375,-38.0859375,-141.11328125
-124.0234375,-59.08203125,-43.45703125,-154.296875
-80.56640625,-52.734375,-37.109375,-60.546875
-64.453125,-43.45703125,-23.4375,19.04296875
-89.84375,-40.52734375,-24.4140625,-33.69140625
-117.1875,-53.22265625,-28.80859375,-127.44140625
-125.48828125,-64.453125,-35.15625,-149.4140625
-96.6796875,-50.78125,-36.1328125,-76.171875
-64.94140625,-29.78515625,-27.34375,11.71875
-95.703125,-35.15625,-26.85546875,-26.85546875
-147.4609375,-51.26953125,-26.3671875,-135.25390625
-157.2265625,-60.05859375,-26.85546875,-171.38671875
-111.81640625,-51.7578125,-29.78515625,-89.35546875
-61.03515625,-31.25,-33.203125,12.20703125
-75.1953125,-28.3203125,-42.48046875,-20.99609375
-115.234375,-35.15625,-45.8984375,-126.953125
-131.34765625,-47.36328125,-40.52734375,-166.015625
-108.3984375,-53.22265625,-36.1328125,-106.4453125
-51.26953125,-31.73828125,-32.71484375,-8.7890625
-57.6171875,-21.484375,-33.203125,-16.6015625
-104.4921875,-37.59765625,-41.50390625,-122.55859375
-124.51171875,-43.9453125,-51.26953125,-181.15234375
-111.81640625,-47.8515625,-47.8515625,-133.30078125
-62.5,-38.57421875,-43.45703125,-22.4609375
-55.17578125,-24.4140625,-43.45703125,-10.7421875
-98.14453125,-31.73828125,-52.24609375,-113.76953125
-126.953125,-44.43359375,-51.26953125,-175.29296875
-114.2578125,-47.8515625,-41.015625,-120.1171875
-66.89453125,-30.76171875,-31.73828125,-5.37109375
-62.01171875,-21.484375,-30.2734375,14.6484375
-114.74609375,-37.109375,-48.828125,-88.37890625
-145.5078125,-52.734375,-56.15234375,-169.43359375
-123.53515625,-44.43359375,-50.29296875,-133.30078125
-81.54296875,-31.73828125,-46.38671875,-32.2265625
-72.75390625,-34.66796875,-47.8515625,-1.46484375
-98.6328125,-36.62109375,-53.22265625,-73.2421875
-119.140625,-41.50390625,-58.59375,-155.2734375
-116.69921875,-46.875,-64.453125,-154.296875
-75.1953125,-37.59765625,-57.6171875,-59.5703125
-46.875,-24.4140625,-55.17578125,-1.953125
-76.171875,-22.4609375,-57.6171875,-67.87109375
-119.140625,-28.3203125,-59.5703125,-168.9453125
-120.1171875,-34.66796875,-64.453125,-171.875
-75.1953125,-26.3671875,-56.640625,-68.359375
-52.734375,-9.27734375,-53.22265625,2.44140625
-78.61328125,-13.671875,-65.4296875,-58.10546875
-110.83984375,-30.76171875,-73.73046875,-159.66796875
-113.76953125,-34.1796875,-70.80078125,-169.921875
-69.82421875,-22.94921875,-59.5703125,-79.1015625
-26.3671875,-6.8359375,-52.24609375,2.9296875
-47.36328125,-8.30078125,-60.546875,-43.45703125
-90.8203125,-28.80859375,-62.98828125,-141.11328125
-95.21484375,-39.55078125,-52.734375,-157.71484375
-53.22265625,-35.64453125,-45.8984375,-70.80078125
-18.06640625,-25.87890625,-44.921875,21.97265625
-51.7578125,-21.97265625,-44.43359375,-11.71875
-103.02734375,-31.73828125,-45.41015625,-116.2109375
-121.58203125,-49.31640625,-48.828125,-157.71484375
-98.14453125,-53.22265625,-49.31640625,-96.19140625
-53.22265625,-31.25,-47.8515625,1.46484375
-63.96484375,-27.34375,-49.8046875,-12.20703125
-107.421875,-38.57421875,-47.8515625,-110.3515625
-112.79296875,-48.828125,-45.41015625,-158.203125
-83.984375,-48.828125,-49.8046875,-105.95703125
-49.31640625,-40.52734375,-56.15234375,-4.39453125
-58.59375,-41.50390625,-66.89453125,-8.30078125
-100.5859375,-49.8046875,-58.10546875,-107.91015625
-120.60546875,-58.10546875,-45.41015625,-162.59765625
-105.95703125,-52.734375,-49.8046875,-118.65234375
-62.5,-40.52734375,-49.8046875,-15.13671875
-51.7578125,-37.109375,-48.828125,2.44140625
-93.75,-43.9453125,-51.26953125,-98.6328125
-128.90625,-57.6171875,-56.15234375,-182.6171875
-105.95703125,-57.6171875,-52.24609375,-139.16015625
-63.4765625,-42.96875,-48.828125,-26.3671875
-65.91796875,-36.1328125,-54.19921875,-6.8359375
-94.23828125,-41.015625,-59.5703125,-94.7265625
-115.72265625,-47.36328125,-63.4765625,-173.33984375
-102.05078125,-45.8984375,-65.91796875,-152.34375
-54.6875,-36.1328125,-59.08203125,-44.921875
-39.55078125,-27.83203125,-57.12890625,4.8828125
-73.2421875,-33.203125,-62.5,-70.3125
-113.28125,-48.828125,-59.5703125,-159.1796875
-103.515625,-56.640625,-64.94140625,-146.484375
-51.7578125,-47.36328125,-65.91796875,-41.015625
-28.3203125,-35.15625,-54.6875,29.78515625
-59.08203125,-46.38671875,-53.7109375,-34.66796875
-103.02734375,-57.12890625,-56.15234375,-138.671875
-106.93359375,-49.31640625,-56.15234375,-147.94921875
-72.265625,-44.921875,-51.7578125,-54.6875
-48.828125,-39.0625,-53.22265625,18.5546875
-70.3125,-39.0625,-57.6171875,-40.0390625
-116.2109375,-47.8515625,-52.24609375,-139.6484375
-124.51171875,-59.08203125,-50.29296875,-149.4140625
-89.35546875,-58.59375,-53.22265625,-63.4765625
-53.22265625,-39.55078125,-46.875,18.5546875
-69.3359375,-36.62109375,-50.78125,-26.3671875
-104.4921875,-45.8984375,-55.17578125,-130.859375
-107.91015625,-52.734375,-50.78125,-156.25
-76.171875,-47.36328125,-50.29296875,-83.49609375
-33.69140625,-32.2265625,-49.8046875,12.20703125
-48.33984375,-33.69140625,-41.9921875,-7.32421875
-91.796875,-40.52734375,-24.90234375,-104.00390625
-103.515625,-48.828125,-24.90234375,-146.484375
-85.9375,-49.31640625,-29.296875,-92.28515625
-47.8515625,-41.015625,-27.34375,2.44140625
-59.08203125,-45.8984375,-38.0859375,-5.37109375
-113.28125,-55.6640625,-43.9453125,-108.3984375
-121.58203125,-61.5234375,-41.50390625,-164.55078125
-85.44921875,-60.05859375,-34.66796875,-107.91015625
-37.59765625,-43.45703125,-25.390625,10.25390625
-39.0625,-38.0859375,-28.80859375,19.04296875
-88.37890625,-50.29296875,-32.2265625,-90.33203125
-108.88671875,-58.59375,-37.109375,-154.78515625
-88.37890625,-55.17578125,-37.109375,-106.4453125
-50.29296875,-57.12890625,-38.57421875,3.41796875
-51.26953125,-50.78125,-34.1796875,31.73828125
-93.75,-43.9453125,-25.87890625,-61.03515625
-124.0234375,-54.6875,-31.73828125,-146.97265625
-103.515625,-59.08203125,-29.296875,-115.72265625
-57.12890625,-46.38671875,-33.203125,-9.27734375
-45.41015625,-32.2265625,-41.50390625,20.5078125
-80.56640625,-34.66796875,-40.0390625,-73.2421875
-113.28125,-45.41015625,-48.828125,-166.9921875
-88.37890625,-45.41015625,-52.734375,-144.04296875
-45.41015625,-31.25,-49.8046875,-38.57421875
-35.15625,-19.04296875,-54.19921875,8.7890625
-65.91796875,-26.85546875,-54.19921875,-60.546875
-110.3515625,-39.0625,-50.78125,-156.25
-103.515625,-46.38671875,-56.640625,-157.2265625
-62.98828125,-49.31640625,-55.6640625,-55.17578125
-49.8046875,-43.45703125,-42.48046875,17.578125
-76.66015625,-42.96875,-41.9921875,-39.0625
-112.3046875,-54.6875,-45.8984375,-131.34765625
-103.02734375,-60.546875,-49.8046875,-137.20703125
-64.453125,-57.12890625,-57.12890625,-57.12890625
-29.78515625,-42.48046875,-50.78125,21.484375
-48.828125,-39.55078125,-50.78125,-21.97265625
-103.515625,-58.59375,-55.17578125,-125.9765625
-108.88671875,-69.3359375,-52.24609375,-144.04296875
-76.66015625,-58.10546875,-58.10546875,-66.89453125
-51.7578125,-46.875,-51.7578125,19.04296875
-76.171875,-56.15234375,-39.55078125,-17.08984375
-116.69921875,-62.98828125,-45.41015625,-126.46484375
-121.58203125,-58.10546875,-53.22265625,-165.52734375
-93.26171875,-49.31640625,-47.36328125,-96.19140625
-57.6171875,-40.52734375,-40.0390625,0.0
-68.84765625,-38.0859375,-44.921875,-18.06640625
-112.79296875,-45.41015625,-47.8515625,-117.1875
-132.8125,-51.26953125,-58.59375,-167.96875
-102.5390625,-47.8515625,-60.546875,-109.375
-62.01171875,-41.9921875,-54.6875,-12.6953125
-59.08203125,-27.83203125,-55.17578125,-16.6015625
-94.23828125,-33.69140625,-49.31640625,-108.3984375
-118.65234375,-59.5703125,-54.6875,-171.875
-97.65625,-59.08203125,-57.6171875,-125.48828125
-65.91796875,-47.8515625,-44.43359375,-10.7421875
-66.40625,-43.45703125,-27.83203125,9.765625
-97.65625,-49.31640625,-27.34375,-78.125
-119.140625,-58.59375,-40.0390625,-148.92578125
-97.65625,-59.5703125,-44.921875,-116.69921875
-43.9453125,-50.29296875,-46.38671875,-10.7421875
-32.2265625,-44.43359375,-42.96875,31.25
-79.58984375,-57.12890625,-41.9921875,-56.15234375
-113.76953125,-62.5,-52.24609375,-146.484375
-92.28515625,-56.15234375,-52.24609375,-111.328125
-44.43359375,-48.33984375,-41.9921875,-5.37109375
-32.71484375,-35.64453125,-39.0625,30.2734375
-64.94140625,-43.45703125,-53.22265625,-51.26953125
-103.02734375,-59.5703125,-58.59375,-142.578125
-92.28515625,-60.05859375,-48.33984375,-130.37109375
-47.36328125,-47.8515625,-42.48046875,-27.83203125
-38.0859375,-43.45703125,-43.9453125,19.04296875
-69.3359375,-49.8046875,-50.29296875,-52.24609375
-112.3046875,-64.453125,-49.8046875,-145.5078125
-110.3515625,-70.3125,-48.828125,-146.97265625
-63.96484375,-55.17578125,-44.921875,-46.38671875
-50.29296875,-44.921875,-37.59765625,20.5078125
-88.37890625,-50.29296875,-45.41015625,-46.38671875
-135.7421875,-59.5703125,-50.78125,-150.87890625
-131.34765625,-67.3828125,-51.26953125,-158.69140625
-84.9609375,-62.5,-51.7578125,-63.96484375
-49.8046875,-50.78125,-41.50390625,20.99609375
-65.91796875,-53.22265625,-41.50390625,-24.4140625
-104.00390625,-59.08203125,-46.38671875,-124.0234375
-99.609375,-61.5234375,-48.828125,-140.625
-64.453125,-59.08203125,-52.734375,-69.82421875
-25.87890625,-48.33984375,-55.17578125,16.6015625
-35.64453125,-39.0625,-50.29296875,-4.8828125
-83.0078125,-46.38671875,-46.875,-106.4453125
-95.703125,-66.89453125,-49.8046875,-149.90234375
-61.03515625,-60.05859375,-48.33984375,-81.0546875
-17.578125,-41.015625,-44.43359375,19.04296875
-29.296875,-38.57421875,-44.921875,-0.9765625
-76.66015625,-48.33984375,-52.734375,-107.91015625
-94.7265625,-54.6875,-60.05859375,-157.71484375
-76.66015625,-51.26953125,-55.17578125,-102.5390625
-38.57421875,-42.96875,-40.0390625,0.0
-50.78125,-39.0625,-35.64453125,6.8359375
-96.6796875,-50.29296875,-43.45703125,-86.9140625
-108.3984375,-61.03515625,-42.96875,-145.01953125
-86.42578125,-53.22265625,-40.52734375,-103.02734375
-54.6875,-48.33984375,-41.50390625,-8.30078125
-57.6171875,-42.48046875,-41.50390625,10.25390625
-102.05078125,-41.9921875,-47.8515625,-81.54296875
-136.71875,-53.22265625,-55.6640625,-158.69140625
-113.28125,-55.17578125,-57.12890625,-127.9296875
-56.15234375,-42.48046875,-50.29296875,-22.4609375
-40.0390625,-31.25,-43.45703125,16.6015625
-76.171875,-42.48046875,-45.41015625,-63.4765625
-123.046875,-59.5703125,-44.921875,-144.04296875
-111.328125,-62.01171875,-49.8046875,-131.34765625
-52.734375,-44.921875,-44.43359375,-21.97265625
-37.59765625,-33.69140625,-33.69140625,27.83203125
-75.68359375,-42.96875,-40.0390625,-50.78125
-111.328125,-49.31640625,-50.29296875,-145.01953125
-92.28515625,-54.19921875,-47.8515625,-135.7421875
-45.41015625,-42.48046875,-41.9921875,-32.2265625
-35.64453125,-30.2734375,-41.015625,25.390625
-76.171875,-44.43359375,-46.875,-45.41015625
-118.1640625,-60.05859375,-50.78125,-143.06640625
-114.2578125,-61.5234375,-53.22265625,-144.04296875
-74.21875,-54.19921875,-50.29296875,-44.43359375
-44.43359375,-40.0390625,-41.50390625,28.3203125
-62.01171875,-30.76171875,-45.8984375,-28.80859375
-101.07421875,-47.36328125,-51.7578125,-121.58203125
-106.93359375,-66.89453125,-55.17578125,-142.578125
-71.77734375,-58.10546875,-51.7578125,-63.4765625
-41.50390625,-42.96875,-44.43359375,26.85546875
-58.10546875,-41.015625,-49.8046875,-15.13671875
-102.05078125,-50.78125,-58.10546875,-118.1640625
-104.98046875,-57.12890625,-55.17578125,-144.53125
-61.5234375,-50.78125,-53.7109375,-69.3359375
-21.484375,-39.55078125,-49.8046875,28.3203125
-30.76171875,-34.1796875,-49.8046875,4.39453125
-68.359375,-43.9453125,-58.59375,-100.09765625
-82.03125,-50.78125,-54.6875,-138.18359375
-65.4296875,-51.26953125,-47.36328125,-80.078125
-29.78515625,-46.875,-41.50390625,18.5546875
-36.62109375,-41.50390625,-44.43359375,11.23046875
-86.42578125,-48.33984375,-50.29296875,-96.6796875
-112.3046875,-54.19921875,-52.24609375,-155.76171875
-90.33203125,-56.15234375,-53.22265625,-104.4921875
-41.50390625,-44.921875,-46.38671875,0.9765625
-40.0390625,-35.15625,-40.52734375,9.27734375
-88.8671875,-41.9921875,-43.45703125,-85.44921875
-106.4453125,-57.6171875,-46.38671875,-146.484375
-78.125,-55.6640625,-53.22265625,-104.98046875
-34.1796875,-38.0859375,-57.6171875,-1.953125
-39.0625,-36.62109375,-56.15234375,14.6484375
-77.1484375,-45.8984375,-60.05859375,-79.1015625
-101.07421875,-61.5234375,-61.03515625,-154.78515625
-92.28515625,-69.82421875,-61.03515625,-126.46484375
-50.29296875,-62.01171875,-57.12890625,-19.04296875
-37.59765625,-49.31640625,-48.828125,19.04296875
-72.75390625,-50.29296875,-55.17578125,-68.359375
-105.46875,-63.96484375,-64.94140625,-156.25
-89.84375,-65.4296875,-61.03515625,-131.34765625
-46.38671875,-53.7109375,-58.10546875,-21.97265625
-37.59765625,-50.29296875,-54.19921875,25.87890625
-74.21875,-54.19921875,-48.828125,-48.33984375
-116.69921875,-61.5234375,-52.24609375,-145.99609375
-110.83984375,-67.3828125,-55.6640625,-153.3203125
-63.96484375,-57.6171875,-52.24609375,-60.05859375
-33.203125,-42.96875,-51.26953125,9.765625
-52.24609375,-39.0625,-51.26953125,-38.57421875
-97.16796875,-46.875,-55.17578125,-137.20703125
-91.796875,-47.8515625,-62.98828125,-150.87890625
-51.26953125,-41.50390625,-64.94140625,-63.4765625
-24.90234375,-31.73828125,-59.08203125,14.6484375
-41.9921875,-30.76171875,-57.6171875,-20.01953125
-100.5859375,-48.828125,-58.10546875,-119.140625
-106.4453125,-51.7578125,-63.4765625,-146.484375
-59.08203125,-43.45703125,-64.453125,-64.453125
-27.83203125,-41.9921875,-57.12890625,20.5078125
-50.78125,-42.48046875,-51.26953125,-15.13671875
-104.00390625,-50.29296875,-48.828125,-123.53515625
-111.328125,-61.5234375,-54.19921875,-157.2265625
-71.77734375,-57.12890625,-53.7109375,-76.66015625
-39.55078125,-41.50390625,-43.45703125,19.04296875
-58.10546875,-39.55078125,-45.41015625,-8.7890625
-97.16796875,-45.41015625,-52.24609375,-110.3515625
-100.5859375,-53.22265625,-47.36328125,-146.97265625
-66.89453125,-54.6875,-43.45703125,-79.58984375
-29.296875,-40.0390625,-40.52734375,24.90234375
-43.9453125,-32.2265625,-40.0390625,15.625
-95.703125,-46.875,-43.9453125,-89.84375
-119.140625,-61.5234375,-46.875,-150.390625
-87.40234375,-55.17578125,-44.43359375,-96.6796875
-40.52734375,-36.1328125,-42.48046875,11.71875
-48.33984375,-31.25,-45.41015625,12.20703125
-85.9375,-40.52734375,-49.31640625,-87.890625
-102.5390625,-49.31640625,-52.734375,-160.15625
-85.44921875,-51.26953125,-50.78125,-123.046875
-38.57421875,-43.45703125,-42.96875,-6.34765625
-33.69140625,-38.0859375,-39.0625,16.11328125
-75.1953125,-38.57421875,-42.96875,-79.58984375
-101.5625,-46.875,-44.921875,-158.203125
-77.1484375,-55.17578125,-46.38671875,-128.41796875
-27.83203125,-42.48046875,-42.48046875,-16.11328125
-20.99609375,-29.78515625,-38.57421875,21.97265625
-51.7578125,-34.1796875,-42.96875,-58.10546875
-83.984375,-45.8984375,-48.33984375,-149.4140625
-69.3359375,-54.6875,-47.36328125,-130.37109375
-28.3203125,-45.41015625,-42.48046875,-17.578125
-23.92578125,-32.71484375,-45.41015625,26.85546875
-57.12890625,-41.50390625,-55.17578125,-50.29296875
-92.7734375,-53.22265625,-50.78125,-140.13671875
-90.8203125,-55.17578125,-41.50390625,-131.8359375
-56.15234375,-52.734375,-39.55078125,-32.71484375
-40.52734375,-53.22265625,-38.0859375,37.109375
-70.80078125,-55.17578125,-45.41015625,-16.6015625
-103.515625,-58.59375,-49.31640625,-116.69921875
-101.5625,-62.98828125,-43.9453125,-135.25390625
-61.5234375,-58.10546875,-37.109375,-41.9921875
-25.87890625,-47.8515625,-35.15625,42.48046875
-42.96875,-43.45703125,-39.0625,-1.953125
-81.54296875,-50.78125,-46.38671875,-109.375
-85.9375,-63.4765625,-56.640625,-140.13671875
-57.12890625,-59.5703125,-58.10546875,-62.98828125
-18.06640625,-33.69140625,-55.6640625,27.34375
-35.15625,-29.296875,-55.6640625,-3.41796875
-94.23828125,-55.17578125,-56.15234375,-115.234375
-95.21484375,-64.94140625,-59.5703125,-156.25
-62.5,-56.640625,-60.05859375,-81.54296875
-38.0859375,-47.36328125,-47.8515625,23.4375
-52.24609375,-42.96875,-46.875,4.8828125
-88.37890625,-52.734375,-60.05859375,-99.609375
-97.16796875,-61.03515625,-57.6171875,-137.6953125
-72.265625,-63.96484375,-47.8515625,-70.80078125
-26.85546875,-57.6171875,-41.50390625,31.73828125
-27.34375,-48.33984375,-41.9921875,26.3671875
-68.359375,-48.828125,-49.31640625,-73.73046875
-85.44921875,-58.59375,-50.29296875,-132.8125
-65.4296875,-58.10546875,-45.41015625,-88.8671875
-24.90234375,-36.62109375,-39.0625,13.18359375
-29.296875,-28.80859375,-39.0625,24.90234375
-69.82421875,-39.0625,-40.52734375,-63.96484375
-94.23828125,-48.828125,-41.50390625,-137.20703125
-83.984375,-51.26953125,-47.36328125,-118.65234375
-38.0859375,-38.57421875,-41.9921875,-15.625
-19.04296875,-30.2734375,-33.203125,26.85546875
-55.6640625,-40.52734375,-36.1328125,-60.546875
-103.02734375,-55.6640625,-41.9921875,-151.85546875
-91.30859375,-54.19921875,-44.921875,-125.9765625
-48.33984375,-43.9453125,-40.52734375,-19.04296875
-37.59765625,-40.52734375,-38.0859375,27.83203125
-66.40625,-48.33984375,-39.55078125,-41.50390625
-100.5859375,-60.05859375,-41.015625,-134.27734375
-84.47265625,-61.03515625,-41.9921875,-126.46484375
-40.52734375,-47.8515625,-41.015625,-23.4375
-19.04296875,-33.203125,-36.1328125,41.50390625
-38.57421875,-39.55078125,-36.62109375,-21.484375
-85.9375,-56.15234375,-38.0859375,-127.44140625
-88.8671875,-59.5703125,-41.9921875,-132.8125
-41.50390625,-52.734375,-45.8984375,-35.15625
-18.5546875,-37.109375,-37.109375,38.57421875
-47.36328125,-34.66796875,-31.73828125,-14.16015625
-96.6796875,-55.17578125,-41.50390625,-120.1171875
-99.12109375,-69.3359375,-41.9921875,-139.16015625
-56.15234375,-63.4765625,-35.15625,-48.33984375
-24.4140625,-50.78125,-36.1328125,35.64453125
-43.9453125,-52.24609375,-39.55078125,-2.44140625
-93.26171875,-62.5,-50.29296875,-110.83984375
-91.796875,-63.4765625,-55.17578125,-144.04296875
-48.33984375,-57.12890625,-44.43359375,-61.03515625
-21.484375,-46.38671875,-38.57421875,31.25
-33.69140625,-38.57421875,-30.76171875,7.8125
-82.03125,-49.8046875,-38.0859375,-100.5859375
-107.421875,-62.5,-56.15234375,-151.85546875
-78.125,-64.453125,-51.7578125,-79.58984375
-49.31640625,-58.10546875,-39.55078125,19.04296875
-57.6171875,-52.24609375,-29.296875,9.27734375
-92.7734375,-60.05859375,-39.0625,-93.26171875
-105.46875,-62.01171875,-56.15234375,-156.25
-68.359375,-48.33984375,-52.24609375,-97.65625
-25.87890625,-35.64453125,-42.96875,9.27734375
-35.64453125,-38.0859375,-39.55078125,14.6484375
-82.51953125,-46.38671875,-42.96875,-81.54296875
-107.91015625,-56.15234375,-50.29296875,-153.80859375
-85.44921875,-57.6171875,-50.78125,-113.28125
-40.0390625,-43.45703125,-49.31640625,0.0
-43.45703125,-40.52734375,-49.8046875,17.08984375
-91.796875,-57.12890625,-54.6875,-78.125
-115.234375,-69.3359375,-56.15234375,-146.484375
-94.23828125,-65.4296875,-51.7578125,-115.72265625
-55.17578125,-56.640625,-48.828125,-16.11328125
-44.921875,-50.78125,-44.43359375,21.484375
-80.078125,-50.78125,-47.36328125,-61.03515625
-114.74609375,-60.05859375,-51.7578125,-151.85546875
-109.375,-66.89453125,-50.29296875,-132.8125
-68.84765625,-55.6640625,-44.921875,-28.3203125
-44.921875,-39.0625,-47.36328125,15.13671875
-76.66015625,-42.96875,-57.12890625,-62.5
-108.3984375,-60.05859375,-58.10546875,-153.3203125
-92.28515625,-65.91796875,-59.08203125,-142.578125
-50.78125,-54.6875,-51.7578125,-39.0625
-31.25,-41.015625,-36.62109375,25.390625
-54.19921875,-45.41015625,-38.57421875,-34.66796875
-93.75,-60.05859375,-45.8984375,-126.46484375
-91.796875,-60.546875,-48.828125,-138.671875
-55.17578125,-49.31640625,-45.41015625,-54.19921875
-30.2734375,-40.52734375,-45.41015625,28.80859375
-50.29296875,-41.9921875,-54.19921875,-23.92578125
-92.28515625,-53.22265625,-54.6875,-125.48828125
-89.84375,-60.05859375,-49.8046875,-136.71875
-59.08203125,-56.640625,-54.6875,-60.05859375
-33.203125,-38.0859375,-59.5703125,24.90234375
-43.9453125,-33.69140625,-53.7109375,-6.8359375
-80.078125,-48.33984375,-50.29296875,-106.93359375
-98.14453125,-53.22265625,-56.640625,-152.34375
-65.91796875,-48.33984375,-55.6640625,-87.890625
-19.04296875,-35.15625,-49.31640625,18.5546875
-32.71484375,-36.1328125,-45.41015625,3.41796875
-79.1015625,-47.36328125,-48.828125,-103.02734375
-87.890625,-55.17578125,-56.640625,-151.85546875
-44.43359375,-41.015625,-45.8984375,-77.1484375
-9.27734375,-25.87890625,-29.78515625,34.1796875
-35.64453125,-34.1796875,-29.78515625,16.11328125
-77.63671875,-42.96875,-43.9453125,-87.40234375
-91.796875,-54.6875,-52.734375,-141.11328125
-67.87109375,-62.5,-58.10546875,-97.16796875
-28.3203125,-51.26953125,-54.19921875,11.71875
-41.50390625,-46.875,-36.1328125,20.99609375
-88.37890625,-58.59375,-32.2265625,-82.51953125
-112.79296875,-65.91796875,-41.50390625,-155.2734375
-95.703125,-69.82421875,-54.6875,-116.2109375
-53.22265625,-57.6171875,-54.6875,-7.8125
-41.50390625,-37.59765625,-39.55078125,22.94921875
-83.49609375,-50.78125,-32.2265625,-64.453125
-127.44140625,-79.58984375,-38.0859375,-155.2734375
-101.5625,-77.63671875,-37.59765625,-124.51171875
-51.26953125,-57.6171875,-32.71484375,-21.97265625
-42.96875,-49.31640625,-36.1328125,9.765625
-69.3359375,-53.7109375,-39.55078125,-59.08203125
-104.4921875,-70.80078125,-42.48046875,-145.5078125
-100.5859375,-80.078125,-46.38671875,-131.8359375
-54.19921875,-63.96484375,-48.828125,-28.80859375
-39.55078125,-46.875,-45.8984375,20.01953125
-70.80078125,-50.29296875,-40.52734375,-53.22265625
-93.26171875,-51.26953125,-42.96875,-143.5546875
-92.28515625,-46.38671875,-51.26953125,-145.5078125
-50.29296875,-39.0625,-51.26953125,-54.19921875
-19.53125,-28.3203125,-45.41015625,19.53125
-54.19921875,-35.15625,-39.55078125,-29.296875
-101.5625,-49.31640625,-50.29296875,-137.20703125
-101.5625,-46.38671875,-54.19921875,-155.2734375
-55.17578125,-33.203125,-41.50390625,-62.01171875
-14.6484375,-17.578125,-25.87890625,27.83203125
-39.55078125,-20.01953125,-29.296875,-10.25390625
-89.35546875,-34.1796875,-46.875,-115.72265625
-86.9140625,-41.015625,-53.7109375,-148.4375
-50.29296875,-35.15625,-52.24609375,-64.94140625
-20.01953125,-25.87890625,-47.36328125,35.64453125
-34.1796875,-25.390625,-46.875,-2.9296875
-76.66015625,-37.59765625,-49.31640625,-106.93359375
-86.9140625,-51.7578125,-54.6875,-141.11328125
-59.5703125,-47.8515625,-55.6640625,-71.77734375
-28.3203125,-31.73828125,-50.29296875,19.53125
-35.64453125,-24.4140625,-50.29296875,1.46484375
-73.2421875,-33.69140625,-62.5,-99.609375
-87.40234375,-50.78125,-67.87109375,-145.5078125
-61.5234375,-48.828125,-58.10546875,-77.63671875
-30.2734375,-40.52734375,-50.78125,28.80859375
-41.015625,-38.0859375,-41.9921875,30.76171875
-88.8671875,-47.36328125,-39.55078125,-71.77734375
-115.72265625,-65.4296875,-49.8046875,-141.11328125
-91.30859375,-67.87109375,-48.33984375,-92.7734375
-47.36328125,-58.10546875,-44.43359375,16.11328125
-45.41015625,-50.29296875,-52.24609375,23.92578125
-97.65625,-54.19921875,-63.96484375,-83.0078125
-118.1640625,-66.40625,-70.3125,-155.76171875
-85.44921875,-70.3125,-66.89453125,-115.72265625
-36.1328125,-55.6640625,-55.6640625,-1.46484375
-23.92578125,-43.45703125,-48.828125,31.25
-62.01171875,-50.29296875,-57.6171875,-67.3828125
-88.37890625,-57.12890625,-64.94140625,-153.80859375
-65.91796875,-55.6640625,-66.40625,-124.51171875
-29.78515625,-47.36328125,-63.96484375,-20.5078125
-20.01953125,-41.015625,-53.22265625,24.4140625
-55.6640625,-48.828125,-55.6640625,-52.734375
-95.703125,-63.96484375,-62.98828125,-146.97265625
-87.40234375,-67.3828125,-61.5234375,-134.765625
-39.0625,-56.15234375,-53.22265625,-23.92578125
-22.94921875,-50.78125,-52.734375,33.203125
-57.12890625,-53.7109375,-56.640625,-31.25
-95.21484375,-61.03515625,-52.24609375,-119.62890625
-88.8671875,-61.5234375,-50.29296875,-123.53515625
-49.8046875,-48.828125,-49.31640625,-29.78515625
-32.2265625,-43.9453125,-49.31640625,40.52734375
-51.7578125,-51.7578125,-50.29296875,-11.71875
-93.75,-62.01171875,-54.6875,-107.91015625
-92.28515625,-63.4765625,-60.546875,-125.48828125
-44.43359375,-55.17578125,-55.6640625,-36.1328125
-14.6484375,-46.875,-46.38671875,50.78125
-34.1796875,-46.875,-43.45703125,5.37109375
-76.171875,-58.10546875,-54.19921875,-106.4453125
-72.75390625,-59.08203125,-58.10546875,-136.23046875
-31.73828125,-48.828125,-42.48046875,-50.78125
-8.7890625,-47.8515625,-34.66796875,41.015625
-27.34375,-47.36328125,-43.45703125,6.8359375
-64.453125,-49.31640625,-52.24609375,-94.23828125
-76.66015625,-60.05859375,-58.59375,-136.23046875
-55.6640625,-62.5,-59.08203125,-74.21875
-24.4140625,-45.8984375,-54.6875,25.87890625
-35.15625,-36.1328125,-51.7578125,13.671875
-82.51953125,-49.8046875,-52.734375,-87.40234375
-104.98046875,-66.40625,-50.29296875,-137.6953125
-79.58984375,-64.453125,-46.38671875,-79.1015625
-34.66796875,-47.36328125,-41.015625,27.34375
-38.57421875,-37.59765625,-38.57421875,28.80859375
-83.984375,-54.19921875,-47.8515625,-72.265625
-107.91015625,-65.4296875,-54.19921875,-139.16015625
-83.0078125,-62.98828125,-48.828125,-97.16796875
-42.96875,-57.6171875,-39.55078125,9.27734375
-38.0859375,-43.45703125,-36.1328125,31.73828125
-67.87109375,-48.33984375,-41.50390625,-60.546875
-90.33203125,-56.640625,-51.26953125,-141.11328125
-68.359375,-53.22265625,-49.8046875,-109.86328125
-20.99609375,-42.48046875,-44.921875,-3.90625
-18.5546875,-35.64453125,-47.36328125,23.4375
-57.12890625,-42.96875,-52.24609375,-62.5
-86.42578125,-55.17578125,-58.10546875,-145.99609375
-78.61328125,-62.98828125,-63.96484375,-136.23046875
-37.59765625,-50.78125,-54.6875,-28.80859375
-27.34375,-42.96875,-41.50390625,29.296875
-68.84765625,-53.7109375,-44.921875,-46.875
-104.4921875,-64.453125,-45.8984375,-138.671875
-85.9375,-64.94140625,-45.8984375,-128.90625
-49.8046875,-51.26953125,-49.8046875,-33.69140625
-40.0390625,-37.59765625,-43.45703125,27.34375
-64.94140625,-44.921875,-37.109375,-26.85546875
-93.75,-58.59375,-44.43359375,-117.67578125
-98.14453125,-62.98828125,-51.26953125,-133.30078125
-72.265625,-58.10546875,-53.7109375,-49.31640625
-33.69140625,-36.1328125,-50.29296875,29.78515625
-41.015625,-23.4375,-47.8515625,-18.06640625
-86.42578125,-41.50390625,-59.08203125,-127.9296875
-93.75,-56.640625,-56.15234375,-152.34375
-48.828125,-41.015625,-45.41015625,-62.98828125
-15.13671875,-22.94921875,-45.41015625,16.11328125
-34.66796875,-21.484375,-50.78125,-28.3203125
-75.1953125,-30.2734375,-55.17578125,-127.44140625
-79.58984375,-37.59765625,-53.22265625,-146.97265625
-50.78125,-39.55078125,-46.875,-68.84765625
-18.5546875,-24.4140625,-48.33984375,20.01953125
-35.64453125,-19.53125,-52.734375,-7.8125
-85.44921875,-32.2265625,-55.17578125,-115.72265625
-97.65625,-39.0625,-59.5703125,-154.78515625
-74.70703125,-42.48046875,-57.6171875,-87.40234375
-40.52734375,-32.2265625,-54.6875,16.6015625
-50.78125,-30.2734375,-56.15234375,5.37109375
-90.8203125,-46.38671875,-58.10546875,-94.23828125
-99.609375,-51.7578125,-58.59375,-137.6953125
-80.078125,-49.31640625,-56.640625,-90.8203125
-39.55078125,-44.43359375,-46.38671875,8.30078125
-43.45703125,-43.45703125,-41.50390625,19.04296875
-78.61328125,-45.8984375,-53.22265625,-79.1015625
-91.30859375,-53.7109375,-59.5703125,-154.296875
-70.80078125,-49.31640625,-57.6171875,-116.2109375
-26.3671875,-30.76171875,-50.29296875,-7.8125
-22.4609375,-23.4375,-42.48046875,16.11328125
-62.5,-39.0625,-46.875,-75.68359375
-96.6796875,-57.6171875,-52.734375,-157.2265625
-83.984375,-56.640625,-48.828125,-126.953125
-32.2265625,-43.9453125,-41.50390625,-18.06640625
-22.4609375,-36.62109375,-35.64453125,26.3671875
-68.84765625,-48.33984375,-45.8984375,-55.6640625
-99.609375,-59.08203125,-52.24609375,-145.5078125
-81.0546875,-57.12890625,-51.7578125,-128.90625
-37.59765625,-52.734375,-47.8515625,-23.4375
-25.390625,-48.33984375,-41.015625,30.2734375
-65.4296875,-45.41015625,-42.48046875,-38.0859375
-106.93359375,-57.12890625,-48.33984375,-129.8828125
-99.12109375,-66.89453125,-49.8046875,-130.859375
-52.734375,-52.24609375,-48.828125,-31.25
-31.73828125,-42.96875,-48.33984375,34.1796875
-52.734375,-43.9453125,-45.41015625,-21.484375
-88.37890625,-52.24609375,-44.43359375,-116.69921875
-88.8671875,-60.546875,-44.921875,-133.7890625
-45.41015625,-46.875,-46.875,-43.45703125
-14.16015625,-35.15625,-35.64453125,40.0390625
-44.43359375,-40.0390625,-22.94921875,-10.25390625
-88.37890625,-54.19921875,-37.109375,-117.67578125
-86.9140625,-51.7578125,-43.45703125,-136.23046875
-56.15234375,-38.0859375,-43.9453125,-56.640625
-21.484375,-33.69140625,-40.0390625,29.296875
-41.015625,-29.296875,-30.76171875,1.46484375
-93.26171875,-38.57421875,-40.0390625,-114.2578125
-94.23828125,-52.24609375,-47.36328125,-152.34375
-52.734375,-46.38671875,-41.015625,-65.91796875
-22.4609375,-34.66796875,-36.1328125,33.69140625
-32.2265625,-34.66796875,-34.66796875,14.16015625
-75.1953125,-48.33984375,-41.015625,-89.84375
-96.19140625,-60.546875,-49.8046875,-136.23046875
-68.359375,-54.6875,-48.33984375,-78.61328125
-21.97265625,-29.296875,-39.55078125,27.83203125
-20.01953125,-23.4375,-30.76171875,30.2734375
-66.89453125,-51.7578125,-36.62109375,-80.56640625
-87.890625,-62.5,-45.8984375,-140.625
-62.5,-47.8515625,-46.38671875,-84.9609375
-12.6953125,-33.69140625,-36.62109375,16.6015625
-11.23046875,-27.83203125,-29.78515625,23.4375
-60.05859375,-39.55078125,-40.52734375,-73.73046875
-87.890625,-50.29296875,-46.38671875,-135.25390625
-72.75390625,-39.55078125,-40.52734375,-89.35546875
-31.73828125,-37.109375,-34.1796875,13.671875
-36.1328125,-41.50390625,-38.57421875,23.92578125
-73.2421875,-39.55078125,-49.8046875,-72.75390625
-102.05078125,-55.6640625,-51.7578125,-154.296875
-98.14453125,-67.87109375,-43.9453125,-127.44140625
-57.12890625,-55.17578125,-38.57421875,-16.11328125
-41.015625,-40.52734375,-41.9921875,28.80859375
-72.75390625,-37.59765625,-44.43359375,-53.22265625
-103.515625,-46.875,-54.6875,-147.4609375
-84.9609375,-49.8046875,-59.08203125,-130.37109375
-40.0390625,-41.015625,-45.41015625,-19.04296875
-28.3203125,-35.64453125,-38.57421875,39.55078125
-55.6640625,-41.50390625,-45.8984375,-29.78515625
-84.9609375,-48.828125,-56.640625,-124.51171875
-73.73046875,-45.8984375,-55.6640625,-121.09375
-32.2265625,-37.59765625,-49.31640625,-20.99609375
-11.23046875,-32.71484375,-48.33984375,47.8515625
-40.0390625,-33.69140625,-51.7578125,-15.13671875
-80.078125,-41.9921875,-59.5703125,-123.53515625
-70.3125,-45.8984375,-64.94140625,-132.32421875
-33.69140625,-41.015625,-63.4765625,-38.0859375
-13.671875,-28.80859375,-61.03515625,39.0625
-33.69140625,-32.2265625,-60.05859375,-7.32421875
-78.61328125,-44.921875,-57.12890625,-110.3515625
-88.37890625,-49.8046875,-55.17578125,-136.71875
-54.19921875,-49.8046875,-52.734375,-53.7109375
-22.4609375,-31.73828125,-49.31640625,44.43359375
-43.9453125,-27.83203125,-47.8515625,18.06640625
-86.9140625,-45.8984375,-48.33984375,-90.33203125
-88.8671875,-55.17578125,-49.8046875,-127.9296875
-62.5,-57.12890625,-49.8046875,-60.546875
-29.296875,-51.7578125,-52.24609375,32.2265625
-41.015625,-44.921875,-55.6640625,18.5546875
-79.58984375,-47.36328125,-47.8515625,-81.0546875
-93.75,-60.546875,-48.33984375,-138.18359375
-73.2421875,-62.01171875,-51.26953125,-88.37890625
-26.3671875,-49.31640625,-49.31640625,21.97265625
-29.78515625,-44.921875,-49.8046875,24.90234375
-74.70703125,-45.8984375,-59.5703125,-82.03125
-99.12109375,-55.17578125,-70.80078125,-150.390625
-74.70703125,-60.05859375,-63.4765625,-102.05078125
-29.296875,-47.36328125,-52.24609375,7.8125
-37.59765625,-45.41015625,-51.7578125,19.53125
-75.1953125,-57.6171875,-53.22265625,-75.68359375
-91.796875,-57.12890625,-55.17578125,-145.5078125
-67.87109375,-48.828125,-62.98828125,-114.74609375
-23.4375,-37.59765625,-59.5703125,-13.18359375
-18.06640625,-32.2265625,-48.33984375,19.53125
-57.6171875,-38.57421875,-48.828125,-66.40625
-93.26171875,-51.26953125,-58.10546875,-146.97265625
-83.0078125,-53.7109375,-62.5,-126.46484375
-42.96875,-46.875,-62.98828125,-23.92578125
-32.2265625,-44.43359375,-66.40625,23.4375
-60.546875,-52.24609375,-68.84765625,-48.33984375
-95.21484375,-62.5,-68.84765625,-136.71875
-87.40234375,-63.96484375,-62.01171875,-128.41796875
-39.55078125,-46.38671875,-53.7109375,-22.4609375
-18.5546875,-35.64453125,-47.36328125,38.57421875
-45.41015625,-46.875,-49.8046875,-29.296875
-86.42578125,-54.19921875,-56.640625,-129.8828125
-83.0078125,-60.546875,-55.17578125,-133.30078125
-26.85546875,-56.640625,-42.96875,-27.83203125
0.0,-34.1796875,-38.57421875,45.41015625
-40.0390625,-32.71484375,-46.875,-11.71875
-83.984375,-51.26953125,-45.8984375,-114.74609375
-92.28515625,-62.5,-48.33984375,-138.671875
-57.12890625,-50.78125,-49.8046875,-55.17578125
-17.578125,-30.76171875,-39.55078125,35.64453125
-35.15625,-37.59765625,-35.64453125,-4.8828125
-83.0078125,-55.17578125,-45.8984375,-112.3046875
-83.0078125,-60.05859375,-45.8984375,-130.37109375
-51.7578125,-55.17578125,-48.33984375,-56.15234375
-28.3203125,-43.45703125,-49.8046875,34.66796875
-37.59765625,-41.015625,-41.015625,11.71875
-84.47265625,-50.78125,-45.41015625,-95.21484375
-98.6328125,-59.5703125,-49.8046875,-132.8125
-61.03515625,-60.05859375,-48.828125,-64.94140625
-15.13671875,-48.33984375,-41.9921875,36.62109375
-21.484375,-42.48046875,-40.52734375,30.76171875
-65.91796875,-51.7578125,-48.828125,-75.1953125
-88.37890625,-62.01171875,-50.29296875,-130.859375
-64.453125,-57.12890625,-41.9921875,-77.1484375
-15.13671875,-41.9921875,-35.15625,28.80859375
-17.578125,-36.62109375,-36.1328125,37.109375
-61.03515625,-40.52734375,-46.875,-61.03515625
-83.984375,-47.36328125,-57.12890625,-129.8828125
-61.03515625,-41.015625,-53.22265625,-94.23828125
-14.16015625,-26.3671875,-58.59375,2.9296875
-12.6953125,-25.390625,-59.08203125,31.73828125
-63.4765625,-33.203125,-49.8046875,-60.546875
-101.5625,-51.7578125,-55.6640625,-154.296875
-83.984375,-60.546875,-59.08203125,-117.67578125
-37.109375,-52.24609375,-43.9453125,-2.9296875
-20.5078125,-41.50390625,-25.390625,36.1328125
-52.24609375,-38.57421875,-30.76171875,-41.50390625
-104.00390625,-58.10546875,-39.55078125,-128.90625
-84.9609375,-65.4296875,-34.66796875,-103.02734375
-30.2734375,-46.875,-33.203125,-0.48828125
-27.34375,-33.203125,-37.59765625,36.1328125
-64.453125,-40.52734375,-42.96875,-43.45703125
-93.26171875,-59.08203125,-51.26953125,-139.16015625
-73.73046875,-61.5234375,-47.36328125,-123.046875
-33.203125,-52.24609375,-41.015625,-19.53125
-11.23046875,-39.0625,-39.55078125,42.48046875
-34.1796875,-36.1328125,-42.48046875,-9.27734375
-86.42578125,-57.6171875,-46.38671875,-113.28125
-81.0546875,-69.3359375,-43.45703125,-128.41796875
-35.15625,-58.59375,-40.0390625,-36.62109375
-15.13671875,-44.921875,-40.0390625,35.15625
-47.36328125,-42.48046875,-46.38671875,-23.4375
-90.8203125,-45.8984375,-55.6640625,-132.8125
-87.890625,-52.734375,-63.4765625,-150.87890625
-54.19921875,-50.29296875,-55.6640625,-63.96484375
-29.296875,-36.62109375,-43.9453125,28.80859375
-37.109375,-35.15625,-41.9921875,-0.9765625
-81.0546875,-47.36328125,-45.8984375,-104.98046875
-97.16796875,-58.59375,-56.15234375,-143.5546875
-57.6171875,-54.6875,-58.10546875,-67.87109375
-23.4375,-41.015625,-45.41015625,37.109375
-39.0625,-40.0390625,-39.0625,20.99609375
-73.2421875,-51.7578125,-48.828125,-84.9609375
-84.9609375,-64.94140625,-51.7578125,-134.27734375
-59.08203125,-60.05859375,-49.31640625,-72.265625
-12.20703125,-42.96875,-44.921875,33.69140625
-12.20703125,-39.0625,-41.50390625,27.83203125
-61.03515625,-44.921875,-51.7578125,-80.078125
-79.58984375,-55.6640625,-59.5703125,-132.8125
-40.52734375,-59.5703125,-49.31640625,-71.77734375
2.9296875,-44.921875,-42.96875,28.3203125
-7.32421875,-28.3203125,-48.33984375,32.71484375
-53.22265625,-39.0625,-59.5703125,-73.73046875
-81.0546875,-55.17578125,-62.01171875,-149.90234375
-49.8046875,-48.33984375,-58.10546875,-101.07421875
-11.71875,-34.1796875,-52.24609375,11.71875
-25.87890625,-22.94921875,-50.29296875,29.296875
-58.10546875,-23.4375,-52.24609375,-51.7578125
-89.35546875,-43.45703125,-51.7578125,-125.0
-73.2421875,-53.22265625,-49.8046875,-104.00390625
-28.3203125,-43.9453125,-46.875,4.8828125
-29.78515625,-42.48046875,-43.45703125,41.015625
-60.546875,-46.38671875,-45.8984375,-44.43359375
-88.37890625,-56.640625,-50.78125,-131.34765625
-71.77734375,-60.05859375,-49.31640625,-116.2109375
-32.71484375,-49.8046875,-50.78125,-16.6015625
-21.484375,-39.55078125,-49.8046875,28.80859375
-41.50390625,-37.109375,-50.29296875,-41.50390625
-71.2890625,-41.50390625,-56.15234375,-126.46484375
-60.546875,-45.41015625,-58.10546875,-125.0
-23.4375,-41.50390625,-50.29296875,-25.87890625
2.9296875,-30.76171875,-44.43359375,45.8984375
-29.296875,-34.66796875,-48.828125,-20.99609375
-89.35546875,-50.29296875,-53.22265625,-128.90625
-81.54296875,-58.10546875,-51.26953125,-138.671875
-32.2265625,-46.38671875,-52.24609375,-50.29296875
-14.16015625,-30.2734375,-55.17578125,28.3203125
-43.9453125,-30.2734375,-55.17578125,-17.08984375
-90.33203125,-45.8984375,-59.5703125,-122.0703125
-94.7265625,-54.6875,-64.453125,-146.97265625
-62.98828125,-41.015625,-67.3828125,-66.40625
-26.3671875,-30.2734375,-57.12890625,27.34375
-41.9921875,-36.1328125,-46.38671875,-4.39453125
-95.21484375,-42.48046875,-55.6640625,-112.3046875
-96.6796875,-45.8984375,-52.734375,-146.97265625
-58.10546875,-46.875,-41.9921875,-70.3125
-21.97265625,-29.78515625,-42.48046875,26.85546875
-39.55078125,-22.4609375,-52.734375,4.39453125
-87.40234375,-32.2265625,-59.5703125,-103.515625
-101.07421875,-45.8984375,-59.5703125,-157.71484375
-73.2421875,-51.7578125,-59.08203125,-105.95703125
-21.484375,-39.55078125,-53.7109375,1.953125
-22.4609375,-24.4140625,-52.24609375,13.18359375
-75.1953125,-36.1328125,-52.734375,-80.56640625
-93.26171875,-60.546875,-54.6875,-138.18359375
-77.1484375,-61.5234375,-59.5703125,-96.19140625
-44.43359375,-45.41015625,-53.7109375,3.90625
-30.2734375,-38.57421875,-48.828125,26.3671875
-65.91796875,-48.33984375,-52.734375,-62.01171875
-97.65625,-60.05859375,-51.7578125,-138.18359375
-78.125,-64.453125,-56.640625,-104.98046875
-19.04296875,-43.45703125,-53.22265625,5.859375
1.46484375,-22.4609375,-40.0390625,47.8515625
-35.15625,-33.69140625,-37.59765625,-40.0390625
-69.3359375,-51.7578125,-43.9453125,-129.8828125
-58.59375,-57.12890625,-47.8515625,-108.88671875
-27.34375,-57.12890625,-44.43359375,-5.37109375
-18.5546875,-48.828125,-41.50390625,43.9453125
-53.22265625,-50.78125,-41.015625,-34.1796875
-96.6796875,-62.98828125,-46.875,-126.953125
-83.984375,-64.453125,-48.33984375,-112.79296875
-43.45703125,-54.19921875,-44.43359375,-10.7421875
-33.203125,-44.921875,-48.33984375,36.62109375
-62.98828125,-46.875,-49.8046875,-38.57421875
-96.6796875,-56.640625,-50.78125,-132.32421875
-83.0078125,-63.4765625,-50.29296875,-131.8359375
-36.62109375,-47.36328125,-42.48046875,-35.64453125
-12.6953125,-26.85546875,-34.66796875,44.921875
-39.55078125,-36.1328125,-37.109375,-8.30078125
-82.03125,-55.17578125,-39.55078125,-109.86328125
-79.1015625,-63.4765625,-36.62109375,-122.0703125
-34.66796875,-52.24609375,-34.1796875,-34.1796875
-1.953125,-34.66796875,-27.83203125,50.78125
-27.83203125,-33.69140625,-33.69140625,6.34765625
-70.80078125,-41.50390625,-43.9453125,-94.23828125
-72.265625,-46.38671875,-44.43359375,-119.62890625
-43.45703125,-45.41015625,-45.8984375,-48.828125
-7.8125,-33.69140625,-42.48046875,40.52734375
-16.11328125,-22.94921875,-39.0625,17.08984375
-61.5234375,-35.64453125,-43.45703125,-86.42578125
-84.9609375,-53.7109375,-51.26953125,-134.27734375
-58.10546875,-49.8046875,-56.640625,-76.66015625
-21.484375,-30.76171875,-44.43359375,25.87890625
-36.62109375,-30.2734375,-40.52734375,17.08984375
-82.03125,-48.828125,-49.8046875,-85.44921875
-99.609375,-58.10546875,-49.31640625,-139.6484375
-70.80078125,-57.12890625,-43.45703125,-83.0078125
-25.87890625,-43.9453125,-30.2734375,31.73828125
-24.4140625,-35.64453125,-19.53125,40.52734375
-55.6640625,-42.96875,-26.85546875,-60.05859375
-75.68359375,-49.31640625,-39.55078125,-128.41796875
-54.19921875,-50.29296875,-42.96875,-85.9375
-7.8125,-39.0625,-35.15625,30.2734375
-15.13671875,-33.69140625,-33.69140625,47.36328125
-54.6875,-52.24609375,-43.9453125,-53.22265625
-68.84765625,-63.4765625,-51.26953125,-118.1640625
-49.31640625,-61.03515625,-43.9453125,-77.63671875
-20.99609375,-58.59375,-36.62109375,22.94921875
-23.92578125,-56.640625,-34.1796875,54.19921875
-52.24609375,-59.5703125,-28.3203125,-23.92578125
-74.21875,-62.98828125,-33.69140625,-108.88671875
-64.94140625,-59.5703125,-42.48046875,-96.6796875
-29.296875,-41.50390625,-41.015625,1.46484375
-23.4375,-34.1796875,-36.62109375,43.9453125
-62.5,-46.38671875,-42.48046875,-34.1796875
-104.98046875,-57.6171875,-48.828125,-125.9765625
-91.30859375,-64.94140625,-46.875,-118.65234375
-46.875,-55.6640625,-45.41015625,-21.484375
-39.0625,-37.59765625,-47.36328125,27.83203125
-63.96484375,-39.0625,-49.8046875,-41.015625
-96.19140625,-50.29296875,-52.734375,-133.30078125
-87.40234375,-52.24609375,-59.5703125,-134.765625
-38.0859375,-43.45703125,-59.08203125,-43.9453125
-12.20703125,-29.78515625,-54.6875,33.203125
-35.64453125,-28.3203125,-51.7578125,-11.23046875
-74.21875,-44.43359375,-51.26953125,-115.72265625
-81.0546875,-59.08203125,-57.6171875,-140.625
-38.0859375,-49.8046875,-52.24609375,-52.24609375
4.8828125,-36.62109375,-45.41015625,38.0859375
-22.4609375,-39.0625,-53.7109375,0.0
-75.68359375,-48.828125,-60.05859375,-104.4921875
-78.61328125,-61.03515625,-61.5234375,-137.20703125
-48.828125,-58.10546875,-58.10546875,-57.12890625
-20.5078125,-37.59765625,-53.22265625,41.015625
-42.48046875,-35.64453125,-58.59375,10.7421875
-94.7265625,-52.24609375,-65.4296875,-102.05078125
-100.09765625,-55.6640625,-53.7109375,-140.625
-80.078125,-54.6875,-49.8046875,-79.1015625
-44.43359375,-47.8515625,-50.29296875,21.484375
-43.9453125,-45.8984375,-42.48046875,16.11328125
-80.078125,-58.59375,-42.48046875,-94.7265625
-86.9140625,-57.6171875,-48.828125,-148.92578125
-62.5,-51.7578125,-49.31640625,-92.7734375
-14.6484375,-36.1328125,-47.8515625,16.11328125
-9.765625,-25.87890625,-50.29296875,26.85546875
-50.78125,-35.64453125,-51.26953125,-72.75390625
-77.63671875,-45.41015625,-53.7109375,-139.6484375
-60.05859375,-46.875,-57.12890625,-96.19140625
-22.94921875,-35.64453125,-53.22265625,10.25390625
-23.4375,-27.34375,-50.29296875,31.25
-60.05859375,-40.0390625,-54.19921875,-57.12890625
-94.23828125,-59.08203125,-58.10546875,-130.859375
-82.51953125,-59.5703125,-63.4765625,-107.421875
-33.69140625,-43.45703125,-60.05859375,-8.30078125
-14.6484375,-34.66796875,-49.8046875,36.62109375
-40.52734375,-38.57421875,-45.41015625,-31.73828125
-79.58984375,-49.8046875,-49.31640625,-118.65234375
-71.2890625,-54.6875,-50.29296875,-98.6328125
-22.4609375,-45.8984375,-44.921875,6.8359375
-12.20703125,-33.203125,-35.15625,54.19921875
-41.9921875,-28.80859375,-30.76171875,-14.16015625
-77.1484375,-36.62109375,-40.0390625,-107.91015625
-75.1953125,-49.31640625,-46.38671875,-107.421875
-35.15625,-41.9921875,-43.9453125,-11.23046875
-10.25390625,-26.3671875,-44.43359375,50.78125
-36.62109375,-28.80859375,-51.26953125,-13.671875
-85.44921875,-43.45703125,-57.6171875,-118.65234375
-81.0546875,-52.734375,-56.15234375,-129.8828125
-41.50390625,-47.8515625,-51.7578125,-44.921875
-18.5546875,-29.78515625,-47.8515625,26.3671875
-36.62109375,-29.78515625,-41.015625,-16.6015625
-94.23828125,-52.24609375,-49.8046875,-128.90625
-95.21484375,-53.7109375,-58.10546875,-154.296875
-48.33984375,-48.33984375,-48.828125,-62.98828125
-32.71484375,-51.26953125,-45.41015625,21.484375
-51.26953125,-50.78125,-47.36328125,-14.16015625
-84.9609375,-56.15234375,-52.24609375,-113.76953125
-94.7265625,-65.4296875,-47.8515625,-145.5078125
-67.87109375,-63.4765625,-39.55078125,-74.21875
-17.578125,-44.921875,-33.69140625,31.25
-25.390625,-38.57421875,-38.57421875,12.20703125
-84.9609375,-50.29296875,-49.8046875,-102.5390625
-97.16796875,-63.4765625,-48.33984375,-149.4140625
-58.59375,-67.87109375,-44.43359375,-81.0546875
-9.27734375,-43.45703125,-45.41015625,30.76171875
-17.08984375,-27.34375,-41.9921875,27.34375
-57.6171875,-43.45703125,-46.875,-78.61328125
-72.265625,-53.22265625,-50.78125,-133.7890625
-68.359375,-54.6875,-43.9453125,-85.44921875
-29.78515625,-50.29296875,-28.80859375,20.5078125
-16.6015625,-36.62109375,-30.2734375,32.2265625
-70.80078125,-39.0625,-51.26953125,-76.171875
-108.88671875,-53.7109375,-53.22265625,-155.2734375
-82.51953125,-51.26953125,-59.5703125,-115.72265625
-46.875,-42.96875,-53.22265625,0.48828125
-49.31640625,-45.8984375,-24.90234375,36.1328125
-73.2421875,-49.8046875,-38.57421875,-50.29296875
-94.7265625,-50.29296875,-52.24609375,-134.27734375
-79.58984375,-49.8046875,-32.2265625,-113.28125
-27.83203125,-37.59765625,-28.80859375,-7.8125
-17.08984375,-27.83203125,-32.2265625,31.25
-57.12890625,-38.0859375,-35.64453125,-45.8984375
-96.6796875,-49.31640625,-40.0390625,-131.34765625
-89.84375,-49.8046875,-44.921875,-124.51171875
-46.875,-45.41015625,-41.015625,-25.390625
-27.34375,-35.64453125,-41.9921875,34.1796875
-62.5,-37.59765625,-58.10546875,-39.0625
-103.02734375,-51.7578125,-62.98828125,-132.32421875
-95.21484375,-57.6171875,-62.01171875,-123.53515625
-56.15234375,-50.78125,-60.546875,-38.0859375
-33.203125,-39.55078125,-47.8515625,28.80859375
-51.7578125,-37.59765625,-44.43359375,-23.4375
-93.26171875,-49.8046875,-53.22265625,-130.859375
-94.23828125,-52.734375,-50.78125,-138.18359375
-58.59375,-50.29296875,-38.57421875,-38.0859375
-30.76171875,-42.48046875,-29.296875,46.875
-46.875,-33.69140625,-39.55078125,-10.25390625
-101.07421875,-41.015625,-51.26953125,-121.58203125
-106.4453125,-48.828125,-49.31640625,-140.625
-64.453125,-44.43359375,-44.921875,-60.546875
-36.62109375,-37.109375,-43.9453125,33.69140625
-50.78125,-35.15625,-48.33984375,9.765625
-85.44921875,-47.8515625,-52.24609375,-93.75
-92.28515625,-59.08203125,-50.29296875,-135.25390625
-65.91796875,-52.734375,-53.7109375,-71.77734375
-23.92578125,-32.71484375,-52.734375,29.78515625
-21.97265625,-21.484375,-50.78125,14.16015625
-67.87109375,-32.71484375,-63.4765625,-92.28515625
-87.890625,-46.875,-74.70703125,-137.6953125
-58.59375,-46.38671875,-62.5,-72.265625
-17.578125,-39.0625,-45.41015625,37.109375
-17.578125,-28.80859375,-45.41015625,38.57421875
-53.7109375,-23.92578125,-56.15234375,-65.4296875
-77.1484375,-37.59765625,-50.78125,-130.37109375
-50.78125,-49.31640625,-34.66796875,-74.21875
-7.8125,-45.8984375,-28.80859375,42.48046875
-22.4609375,-38.0859375,-31.73828125,52.24609375
-69.3359375,-41.015625,-37.59765625,-59.5703125
-91.796875,-51.26953125,-42.48046875,-134.27734375
-79.1015625,-49.8046875,-41.9921875,-92.7734375
-41.50390625,-46.38671875,-31.25,8.7890625
-28.3203125,-35.64453125,-31.25,42.48046875
-57.12890625,-41.9921875,-36.62109375,-36.1328125
-95.21484375,-63.4765625,-37.59765625,-126.953125
-84.9609375,-62.5,-40.52734375,-111.328125
-34.1796875,-51.26953125,-35.64453125,-6.8359375
-20.99609375,-44.921875,-35.15625,32.2265625
-51.7578125,-51.7578125,-42.48046875,-42.48046875
-76.171875,-62.01171875,-49.31640625,-122.0703125
-57.12890625,-62.98828125,-48.828125,-105.95703125
-16.11328125,-55.6640625,-36.62109375,-8.7890625
0.48828125,-40.52734375,-31.25,55.17578125
-34.66796875,-43.45703125,-37.59765625,-2.9296875
-89.84375,-63.96484375,-43.45703125,-111.328125
-87.40234375,-69.82421875,-44.43359375,-121.09375
-42.96875,-58.10546875,-45.8984375,-30.76171875
-21.97265625,-39.55078125,-46.875,36.1328125
-46.38671875,-35.15625,-45.8984375,-14.16015625
-88.8671875,-58.10546875,-51.7578125,-111.81640625
-91.30859375,-71.2890625,-56.15234375,-123.53515625
-55.6640625,-57.6171875,-50.78125,-37.109375
-24.4140625,-41.50390625,-49.31640625,39.55078125
-39.55078125,-40.52734375,-53.7109375,-1.46484375
-86.42578125,-51.7578125,-56.15234375,-104.98046875
-91.30859375,-56.640625,-53.22265625,-133.7890625
-51.26953125,-51.7578125,-44.921875,-57.12890625
-8.30078125,-40.0390625,-46.38671875,39.0625
-15.13671875,-33.69140625,-51.26953125,18.06640625
-45.8984375,-41.9921875,-58.10546875,-77.63671875
-53.7109375,-54.19921875,-59.5703125,-113.76953125
-34.1796875,-52.24609375,-52.24609375,-57.6171875
1.953125,-30.76171875,-47.36328125,35.15625
0.48828125,-23.4375,-49.8046875,30.2734375
-34.66796875,-38.0859375,-49.31640625,-53.22265625
-55.17578125,-53.7109375,-48.33984375,-104.00390625
-46.38671875,-52.734375,-57.6171875,-66.89453125
-15.625,-40.52734375,-60.546875,23.92578125
-23.4375,-41.015625,-55.17578125,30.2734375
-62.01171875,-50.29296875,-59.08203125,-68.359375
-89.35546875,-56.640625,-62.98828125,-145.99609375
-71.2890625,-50.78125,-58.59375,-109.86328125
-34.66796875,-43.9453125,-50.78125,-3.90625
-37.59765625,-43.9453125,-47.8515625,17.08984375
-72.75390625,-43.45703125,-50.29296875,-68.359375
-102.5390625,-52.24609375,-48.828125,-139.6484375
-80.078125,-56.640625,-46.38671875,-110.3515625
-30.76171875,-44.43359375,-41.015625,-2.44140625
-13.18359375,-32.2265625,-37.59765625,41.50390625
-49.31640625,-38.57421875,-40.0390625,-37.109375
-83.984375,-55.6640625,-40.0390625,-123.53515625
-70.3125,-59.08203125,-41.9921875,-103.515625
-35.64453125,-51.7578125,-41.50390625,0.0
-15.625,-41.9921875,-35.15625,51.26953125
-42.96875,-49.8046875,-42.48046875,-17.578125
-83.49609375,-64.94140625,-44.921875,-114.74609375
-70.80078125,-63.96484375,-42.48046875,-113.28125
-27.83203125,-55.6640625,-42.48046875,-14.16015625
-5.37109375,-39.55078125,-36.62109375,51.7578125
-30.2734375,-36.62109375,-43.45703125,-13.18359375
-80.56640625,-53.22265625,-53.22265625,-125.9765625
-89.84375,-58.59375,-60.05859375,-150.87890625
-47.36328125,-41.015625,-57.6171875,-51.7578125
-12.6953125,-26.3671875,-44.921875,35.15625
-40.52734375,-31.25,-47.36328125,-24.4140625
-91.30859375,-40.0390625,-53.7109375,-132.8125
-88.8671875,-52.24609375,-53.7109375,-156.25
-51.26953125,-54.19921875,-45.41015625,-72.75390625
-20.5078125,-39.55078125,-36.62109375,20.99609375
-31.73828125,-33.203125,-38.57421875,-6.34765625
-67.3828125,-39.55078125,-44.43359375,-103.515625
-70.80078125,-43.9453125,-48.828125,-135.7421875
-37.59765625,-36.1328125,-49.31640625,-61.03515625
2.44140625,-26.85546875,-50.29296875,37.109375
-11.23046875,-30.76171875,-53.22265625,16.6015625
-54.19921875,-41.50390625,-55.17578125,-83.984375
-68.359375,-50.78125,-54.19921875,-121.09375
-44.921875,-48.33984375,-47.36328125,-59.5703125
-7.8125,-32.71484375,-41.015625,38.0859375
-26.3671875,-32.71484375,-44.43359375,29.78515625
-70.3125,-42.48046875,-51.26953125,-72.75390625
-85.44921875,-48.33984375,-50.29296875,-129.8828125
-66.40625,-52.734375,-51.7578125,-89.35546875
-27.34375,-47.36328125,-51.26953125,9.27734375
-29.78515625,-36.1328125,-44.921875,25.390625
-66.40625,-43.9453125,-48.828125,-65.91796875
-86.42578125,-61.03515625,-51.7578125,-137.20703125
-60.05859375,-60.05859375,-54.6875,-102.05078125
-0.9765625,-41.015625,-49.8046875,8.30078125
0.48828125,-27.34375,-40.0390625,35.15625
-43.9453125,-41.9921875,-45.41015625,-57.12890625
-69.82421875,-55.17578125,-51.7578125,-140.13671875
-52.734375,-54.19921875,-55.6640625,-116.2109375
-14.6484375,-47.36328125,-59.5703125,-9.27734375
-6.8359375,-34.66796875,-59.08203125,37.109375
-45.41015625,-36.62109375,-50.78125,-33.69140625
-82.51953125,-51.26953125,-44.43359375,-121.09375
-66.89453125,-52.24609375,-43.9453125,-101.07421875
-24.4140625,-39.0625,-41.50390625,6.8359375
-10.25390625,-30.2734375,-35.64453125,61.03515625
-40.52734375,-34.66796875,-34.1796875,-2.44140625
-73.73046875,-41.9921875,-38.0859375,-96.6796875
-65.91796875,-43.9453125,-37.109375,-99.12109375
-29.296875,-39.0625,-27.83203125,-7.32421875
-9.27734375,-34.1796875,-32.2265625,60.05859375
-38.0859375,-41.50390625,-44.43359375,7.32421875
-76.66015625,-45.8984375,-43.9453125,-89.84375
-75.68359375,-49.31640625,-44.921875,-101.5625
-41.015625,-51.26953125,-47.8515625,-17.08984375
-7.32421875,-39.0625,-44.921875,59.5703125
-27.83203125,-37.59765625,-48.33984375,13.671875
-72.265625,-50.29296875,-51.7578125,-88.8671875
-69.82421875,-52.24609375,-50.78125,-115.72265625
-27.83203125,-39.55078125,-48.828125,-34.66796875
6.8359375,-23.4375,-39.0625,59.08203125
-10.25390625,-25.87890625,-35.64453125,23.4375
-62.01171875,-43.45703125,-43.9453125,-91.30859375
-74.70703125,-58.10546875,-48.828125,-130.37109375
-43.9453125,-49.31640625,-50.78125,-59.5703125
-11.23046875,-30.76171875,-51.26953125,40.52734375
-19.53125,-31.73828125,-40.52734375,31.25
-72.75390625,-41.015625,-36.1328125,-80.56640625
-94.23828125,-45.41015625,-48.828125,-145.01953125
-60.05859375,-52.734375,-50.78125,-84.47265625
-39.55078125,-52.734375,-38.57421875,22.4609375
-53.22265625,-39.55078125,-42.48046875,21.484375
-79.58984375,-45.8984375,-47.8515625,-73.73046875
-99.12109375,-66.40625,-45.8984375,-133.30078125
-71.2890625,-62.98828125,-45.41015625,-86.9140625
-19.53125,-47.8515625,-43.45703125,16.11328125
-21.484375,-47.8515625,-38.0859375,39.0625
-66.40625,-59.08203125,-42.96875,-49.31640625
-93.75,-64.94140625,-49.8046875,-133.7890625
-82.51953125,-57.6171875,-48.33984375,-107.421875
-32.2265625,-41.015625,-42.48046875,0.48828125
-13.18359375,-36.1328125,-41.9921875,37.59765625
-48.33984375,-42.96875,-52.734375,-42.48046875
-80.078125,-48.33984375,-58.59375,-128.41796875
-68.359375,-51.7578125,-54.19921875,-105.46875
-32.71484375,-49.8046875,-48.828125,0.9765625
-23.4375,-45.41015625,-41.015625,44.921875
-58.59375,-47.36328125,-40.0390625,-29.78515625
-93.26171875,-54.19921875,-49.8046875,-122.55859375
-68.359375,-55.17578125,-46.38671875,-112.79296875
-24.90234375,-45.41015625,-41.015625,-9.27734375
-13.18359375,-35.15625,-46.38671875,47.8515625
-37.109375,-38.0859375,-44.921875,-14.6484375
-80.56640625,-52.24609375,-48.33984375,-111.81640625
-77.63671875,-58.10546875,-50.29296875,-111.81640625
-36.62109375,-45.8984375,-48.828125,-16.11328125
-24.4140625,-38.57421875,-53.22265625,46.875
-49.31640625,-44.43359375,-51.26953125,-4.8828125
-73.2421875,-50.29296875,-45.8984375,-98.14453125
-78.61328125,-63.4765625,-47.36328125,-124.0234375
-43.45703125,-64.453125,-46.875,-44.43359375
-17.08984375,-48.828125,-39.0625,39.0625
-40.0390625,-50.29296875,-41.50390625,-3.90625
-78.125,-61.5234375,-51.7578125,-100.09765625
-86.42578125,-65.4296875,-55.6640625,-128.41796875
-51.7578125,-55.17578125,-47.36328125,-53.22265625
-19.53125,-41.015625,-40.0390625,41.50390625
-33.69140625,-38.0859375,-48.33984375,12.20703125
-69.3359375,-45.41015625,-56.15234375,-90.33203125
-78.125,-58.59375,-54.19921875,-131.34765625
-50.78125,-58.10546875,-46.38671875,-64.453125
-16.6015625,-39.55078125,-41.9921875,34.1796875
-31.73828125,-35.64453125,-45.8984375,17.08984375
-67.3828125,-41.015625,-52.24609375,-83.49609375
-81.54296875,-54.6875,-55.17578125,-138.671875
-57.12890625,-56.640625,-56.15234375,-91.30859375
-11.71875,-35.15625,-55.6640625,14.6484375
-20.99609375,-30.2734375,-45.41015625,22.94921875
-77.63671875,-43.9453125,-48.828125,-83.49609375
-98.14453125,-50.78125,-50.78125,-140.625
-65.91796875,-50.29296875,-42.48046875,-89.35546875
-27.34375,-41.50390625,-39.55078125,10.25390625
