TP9,AF7,AF8,TP10
-38.0859375,-46.38671875,-46.38671875,-37.109375
-42.96875,-58.10546875,-53.7109375,-66.89453125
-48.33984375,-40.0390625,-52.734375,-65.4296875
-54.6875,-42.96875,-45.41015625,-62.5
-62.01171875,-42.96875,-38.57421875,-53.22265625
-60.05859375,-40.0390625,-41.015625,-31.25
-64.453125,-70.3125,-46.38671875,-57.12890625
-62.01171875,-46.38671875,-43.45703125,-60.05859375
-63.4765625,-33.69140625,-43.9453125,-56.15234375
-73.73046875,-46.875,-50.29296875,-59.08203125
-61.5234375,-52.24609375,-45.41015625,-37.59765625
-53.7109375,-64.94140625,-50.78125,-57.6171875
-54.6875,-42.96875,-54.19921875,-68.84765625
-62.98828125,-38.0859375,-48.33984375,-66.89453125
-71.77734375,-41.015625,-50.78125,-59.5703125
-55.17578125,-44.43359375,-49.31640625,-25.390625
-46.38671875,-59.5703125,-43.45703125,-37.109375
-55.6640625,-37.109375,-39.55078125,-51.7578125
-62.5,-41.015625,-37.109375,-48.828125
-72.75390625,-46.38671875,-41.015625,-51.7578125
-67.87109375,-44.921875,-40.52734375,-21.97265625
-34.66796875,-71.77734375,-40.52734375,-9.765625
-24.4140625,-46.875,-42.48046875,-33.69140625
-54.6875,-23.4375,-43.45703125,-61.03515625
-69.82421875,-32.71484375,-46.38671875,-67.3828125
-63.96484375,-33.203125,-46.38671875,-42.96875
-60.05859375,-49.8046875,-54.19921875,-58.59375
-63.4765625,-41.50390625,-63.4765625,-92.28515625
-54.6875,-16.11328125,-63.96484375,-86.9140625
-60.546875,-2.44140625,-66.89453125,-94.23828125
-61.5234375,-13.671875,-69.3359375,-73.73046875
-52.734375,-37.59765625,-66.89453125,-70.3125
-56.640625,-26.85546875,-68.359375,-106.4453125
-46.38671875,1.953125,-66.89453125,-95.21484375
-43.9453125,1.953125,-64.453125,-84.47265625
-43.45703125,-1.953125,-67.87109375,-58.10546875
-37.59765625,-12.6953125,-70.3125,-52.24609375
-34.1796875,-19.53125,-69.82421875,-75.1953125
-32.71484375,2.44140625,-63.96484375,-64.453125
-42.48046875,-8.7890625,-62.01171875,-70.80078125
-37.59765625,-16.6015625,-60.05859375,-50.29296875
-15.13671875,-5.859375,-57.6171875,-27.83203125
-20.99609375,-37.109375,-68.359375,-62.01171875
-26.3671875,-34.66796875,-66.40625,-60.546875
-20.99609375,-13.18359375,-51.26953125,-49.31640625
-21.97265625,-12.6953125,-52.734375,-41.015625
-8.7890625,-22.4609375,-56.640625,-23.4375
-14.16015625,-36.1328125,-52.734375,-45.8984375
-16.11328125,-17.578125,-49.31640625,-46.875
-15.625,-16.11328125,-44.43359375,-41.9921875
-20.01953125,-19.04296875,-40.52734375,-31.73828125
-10.25390625,-21.97265625,-39.0625,-10.7421875
-18.06640625,-43.45703125,-44.921875,-40.0390625
-20.5078125,-13.671875,-46.875,-48.33984375
-31.73828125,-20.5078125,-55.6640625,-49.31640625
-53.7109375,-59.08203125,-62.01171875,-54.6875
-32.71484375,-32.71484375,-55.17578125,-20.01953125
-24.90234375,-41.50390625,-60.546875,-37.109375
-24.4140625,-38.0859375,-55.17578125,-49.8046875
-16.11328125,-26.3671875,-49.8046875,-38.57421875
-24.90234375,-25.390625,-53.7109375,-40.0390625
-9.27734375,-21.97265625,-45.41015625,-14.16015625
-6.8359375,-51.26953125,-42.96875,-29.296875
-19.53125,-44.43359375,-45.41015625,-50.78125
-19.04296875,-19.04296875,-45.8984375,-38.57421875
-29.296875,-18.5546875,-50.78125,-41.50390625
-30.2734375,-43.45703125,-58.10546875,-27.83203125
-19.04296875,-53.22265625,-59.08203125,-34.66796875
-19.53125,-34.66796875,-54.19921875,-53.22265625
-28.80859375,-37.109375,-49.31640625,-48.828125
-49.8046875,-42.48046875,-44.921875,-57.6171875
-40.52734375,-29.78515625,-47.8515625,-33.203125
-15.13671875,-46.38671875,-58.10546875,-24.4140625
-28.3203125,-44.43359375,-57.12890625,-64.453125
-45.41015625,-18.06640625,-49.8046875,-75.1953125
-53.22265625,-31.25,-46.875,-76.171875
-47.36328125,-19.04296875,-44.43359375,-44.43359375
-36.1328125,-29.78515625,-50.78125,-33.203125
-46.875,-60.05859375,-59.5703125,-68.359375
-44.921875,-34.1796875,-54.19921875,-62.98828125
-44.43359375,-29.78515625,-48.828125,-56.15234375
-45.8984375,-39.0625,-50.29296875,-41.50390625
-27.34375,-41.50390625,-50.29296875,-29.78515625
-26.3671875,-50.78125,-54.6875,-55.17578125
-27.34375,-34.1796875,-52.734375,-52.24609375
-22.4609375,-33.69140625,-46.38671875,-46.38671875
-26.85546875,-33.203125,-49.8046875,-33.203125
-22.4609375,-43.45703125,-52.24609375,-18.5546875
-23.92578125,-47.8515625,-52.24609375,-45.8984375
-21.97265625,-11.71875,-47.8515625,-38.0859375
-36.1328125,-39.55078125,-45.8984375,-36.62109375
-53.22265625,-45.41015625,-45.8984375,-35.15625
-40.52734375,-36.1328125,-46.875,-18.5546875
-41.50390625,-64.453125,-55.6640625,-48.33984375
-42.48046875,-44.43359375,-52.734375,-52.24609375
-42.96875,-28.80859375,-48.828125,-48.828125
-52.734375,-38.0859375,-48.33984375,-42.96875
-41.9921875,-37.59765625,-52.24609375,-20.5078125
-35.64453125,-49.8046875,-58.59375,-39.0625
-35.64453125,-47.8515625,-54.6875,-50.29296875
-35.64453125,-40.0390625,-48.828125,-41.50390625
-43.9453125,-28.3203125,-52.24609375,-35.15625
-42.48046875,-41.015625,-51.26953125,-18.06640625
-44.43359375,-71.2890625,-46.38671875,-39.0625
-48.33984375,-53.22265625,-46.38671875,-58.59375
-50.78125,-45.41015625,-43.9453125,-56.640625
-58.59375,-52.24609375,-40.0390625,-56.15234375
-48.33984375,-41.50390625,-37.59765625,-26.3671875
-35.64453125,-59.08203125,-44.43359375,-40.52734375
-37.109375,-57.6171875,-51.26953125,-63.4765625
-35.15625,-43.9453125,-51.7578125,-50.78125
-46.38671875,-51.7578125,-49.8046875,-52.734375
-41.50390625,-41.9921875,-45.8984375,-32.71484375
-32.71484375,-44.921875,-44.43359375,-39.55078125
-41.50390625,-46.38671875,-47.36328125,-63.96484375
-50.78125,-46.875,-51.26953125,-59.5703125
-65.91796875,-54.19921875,-50.29296875,-68.359375
-59.08203125,-45.41015625,-46.38671875,-44.43359375
-45.8984375,-59.08203125,-55.17578125,-44.43359375
-42.48046875,-61.5234375,-57.6171875,-76.66015625
-37.109375,-42.96875,-53.22265625,-66.89453125
-50.29296875,-39.55078125,-56.640625,-65.91796875
-48.33984375,-28.80859375,-49.31640625,-41.015625
-40.52734375,-43.45703125,-43.45703125,-37.109375
-57.6171875,-57.12890625,-52.734375,-79.1015625
-62.01171875,-21.97265625,-57.6171875,-77.1484375
-65.91796875,-42.48046875,-59.5703125,-77.1484375
-83.0078125,-64.94140625,-61.5234375,-74.70703125
-77.1484375,-48.828125,-54.19921875,-57.12890625
-76.66015625,-69.3359375,-54.6875,-84.9609375
-72.75390625,-51.7578125,-54.6875,-87.890625
-71.77734375,-46.38671875,-50.78125,-77.1484375
-73.2421875,-48.33984375,-49.31640625,-63.4765625
-62.98828125,-47.36328125,-54.19921875,-52.24609375
-53.7109375,-50.29296875,-62.98828125,-73.73046875
-48.828125,-34.66796875,-48.33984375,-60.05859375
-85.44921875,-39.0625,-39.0625,-76.171875
-110.83984375,-29.78515625,-43.45703125,-88.8671875
-106.4453125,-54.6875,-43.9453125,-75.1953125
-118.65234375,-92.28515625,-55.17578125,-112.79296875
-113.76953125,-62.01171875,-50.78125,-115.234375
-116.69921875,-59.08203125,-43.9453125,-108.88671875
-122.55859375,-65.91796875,-46.875,-110.83984375
-107.91015625,-74.70703125,-39.55078125,-84.47265625
-112.79296875,-116.2109375,-41.015625,-105.46875
-103.02734375,-103.515625,-42.48046875,-104.00390625
-99.12109375,-91.30859375,-40.52734375,-85.44921875
-106.93359375,-99.609375,-35.64453125,-79.58984375
-85.9375,-115.234375,-26.3671875,-41.015625
-87.890625,-118.65234375,-22.94921875,-60.05859375
-93.75,-91.30859375,-18.5546875,-82.03125
-88.37890625,-80.56640625,-22.94921875,-64.453125
-86.9140625,-90.33203125,-22.94921875,-52.24609375
-76.171875,-91.30859375,-15.625,-23.92578125
-68.84765625,-97.65625,-19.53125,-32.2265625
-55.17578125,-86.42578125,-24.4140625,-42.48046875
-41.015625,-66.89453125,-20.5078125,-22.4609375
-47.8515625,-69.3359375,-25.390625,-29.78515625
-29.78515625,-62.98828125,-29.296875,4.8828125
-23.92578125,-89.35546875,-31.73828125,9.27734375
-38.57421875,-78.125,-34.66796875,-22.94921875
-35.15625,-44.921875,-33.69140625,-13.671875
-41.015625,-64.94140625,-41.50390625,-15.13671875
-26.85546875,-58.59375,-40.0390625,13.18359375
-18.06640625,-64.94140625,-34.1796875,15.13671875
-44.43359375,-81.54296875,-39.55078125,-29.78515625
-49.31640625,-62.98828125,-43.9453125,-28.80859375
-41.015625,-55.17578125,-35.15625,-23.4375
-35.64453125,-50.78125,-28.80859375,-2.44140625
-24.4140625,-66.40625,-37.59765625,3.41796875
-25.87890625,-73.73046875,-46.38671875,-32.2265625
-26.85546875,-42.48046875,-40.52734375,-23.4375
-33.69140625,-31.25,-37.59765625,-18.06640625
-34.1796875,-27.34375,-40.52734375,-6.34765625
-16.11328125,-51.26953125,-41.50390625,7.32421875
-23.4375,-84.9609375,-45.8984375,-29.296875
-26.85546875,-52.734375,-45.41015625,-25.390625
-25.87890625,-37.109375,-44.43359375,-16.11328125
-29.296875,-45.8984375,-42.48046875,-11.23046875
-17.578125,-58.10546875,-39.55078125,6.8359375
-20.5078125,-70.80078125,-42.96875,-21.97265625
-29.296875,-51.26953125,-49.31640625,-31.73828125
-29.296875,-41.50390625,-38.0859375,-20.99609375
-39.55078125,-41.50390625,-32.2265625,-17.578125
-36.62109375,-41.9921875,-37.109375,-4.8828125
-33.203125,-51.7578125,-40.52734375,-26.85546875
-29.78515625,-50.29296875,-41.015625,-38.0859375
-20.99609375,-40.0390625,-44.43359375,-28.3203125
-37.109375,-35.64453125,-54.19921875,-31.73828125
-38.0859375,-51.7578125,-57.12890625,-15.625
-36.62109375,-65.91796875,-53.22265625,-27.34375
-28.80859375,-38.0859375,-48.828125,-37.109375
-25.390625,-29.78515625,-51.7578125,-28.3203125
-42.48046875,-43.45703125,-51.26953125,-32.2265625
-26.85546875,-30.2734375,-39.55078125,-1.46484375
-19.53125,-49.8046875,-41.015625,-14.16015625
-28.80859375,-47.8515625,-50.29296875,-41.015625
-20.99609375,-21.484375,-43.9453125,-24.90234375
-26.3671875,-34.66796875,-40.52734375,-24.90234375
-34.66796875,-47.36328125,-47.36328125,-8.7890625
-33.69140625,-63.4765625,-50.29296875,-20.99609375
-28.80859375,-57.6171875,-49.8046875,-48.828125
-20.01953125,-33.69140625,-42.48046875,-32.71484375
-27.83203125,-32.2265625,-39.0625,-36.62109375
-31.73828125,-39.0625,-38.0859375,-20.01953125
-34.66796875,-59.5703125,-41.50390625,-23.4375
-46.875,-61.5234375,-49.31640625,-60.546875
-45.8984375,-39.55078125,-46.875,-50.78125
-49.31640625,-34.1796875,-44.43359375,-41.9921875
-50.78125,-16.6015625,-46.38671875,-21.484375
-48.33984375,-49.8046875,-50.29296875,-23.92578125
-59.5703125,-75.1953125,-58.10546875,-64.94140625
-48.828125,-37.59765625,-48.828125,-55.6640625
-41.015625,-39.55078125,-32.71484375,-45.8984375
-47.8515625,-43.9453125,-36.1328125,-33.203125
-46.38671875,-62.5,-49.31640625,-26.85546875
-51.26953125,-71.2890625,-57.6171875,-60.05859375
-38.57421875,-29.296875,-48.828125,-55.17578125
-37.109375,-25.390625,-41.50390625,-47.8515625
-54.6875,-40.52734375,-43.9453125,-41.9921875
-49.31640625,-49.8046875,-46.38671875,-28.80859375
-47.36328125,-58.10546875,-51.26953125,-55.6640625
-39.55078125,-42.96875,-51.7578125,-57.6171875
-49.31640625,-51.26953125,-55.17578125,-51.26953125
-64.453125,-56.15234375,-56.15234375,-53.22265625
-44.921875,-46.38671875,-49.31640625,-28.80859375
-39.0625,-55.17578125,-48.828125,-44.921875
-40.52734375,-41.015625,-49.8046875,-56.15234375
-49.31640625,-36.62109375,-51.26953125,-49.31640625
-65.4296875,-48.33984375,-51.26953125,-50.29296875
-66.89453125,-63.96484375,-50.29296875,-37.59765625
-65.4296875,-68.359375,-44.43359375,-57.12890625
-63.96484375,-46.38671875,-50.78125,-79.1015625
-56.640625,-23.92578125,-57.12890625,-68.359375
-55.17578125,-30.76171875,-46.38671875,-59.5703125
-49.31640625,-58.59375,-41.015625,-41.015625
-54.19921875,-74.70703125,-43.9453125,-60.546875
-54.6875,-48.33984375,-47.8515625,-77.1484375
-48.828125,-38.57421875,-47.8515625,-63.4765625
-64.94140625,-56.15234375,-51.7578125,-66.40625
-47.36328125,-35.64453125,-49.8046875,-31.73828125
-36.62109375,-51.7578125,-47.36328125,-34.66796875
-49.31640625,-53.22265625,-50.78125,-60.546875
-38.0859375,-26.85546875,-52.734375,-42.96875
-39.55078125,-38.0859375,-52.734375,-41.50390625
-35.64453125,-30.2734375,-41.015625,-14.6484375
-35.64453125,-63.4765625,-34.66796875,-18.5546875
-44.921875,-67.3828125,-43.9453125,-55.6640625
-29.78515625,-20.99609375,-38.0859375,-36.62109375
-36.1328125,-36.62109375,-25.390625,-35.64453125
-72.75390625,-56.15234375,-37.59765625,-44.43359375
-80.56640625,-72.265625,-53.22265625,-55.6640625
-63.4765625,-66.40625,-44.43359375,-74.70703125
-49.31640625,-37.59765625,-38.57421875,-62.01171875
-55.17578125,-40.0390625,-48.828125,-70.3125
-62.5,-48.33984375,-50.29296875,-60.05859375
-54.19921875,-56.640625,-36.62109375,-48.33984375
-62.5,-62.5,-42.96875,-83.0078125
-68.359375,-47.8515625,-52.24609375,-74.70703125
-57.12890625,-50.78125,-42.48046875,-57.6171875
-54.6875,-50.78125,-38.57421875,-38.0859375
-47.8515625,-61.03515625,-45.8984375,-17.578125
-52.24609375,-74.70703125,-51.26953125,-43.9453125
-45.41015625,-41.50390625,-40.52734375,-37.109375
-39.55078125,-49.8046875,-33.203125,-21.484375
-53.22265625,-60.05859375,-37.59765625,-19.04296875
-46.875,-57.6171875,-39.55078125,-6.8359375
-43.45703125,-66.40625,-39.0625,-30.76171875
-35.64453125,-38.57421875,-39.55078125,-40.0390625
-32.71484375,-21.97265625,-42.48046875,-34.66796875
-55.6640625,-50.78125,-41.50390625,-36.62109375
-50.78125,-64.94140625,-37.109375,-18.06640625
-50.29296875,-77.63671875,-41.9921875,-44.43359375
-55.17578125,-62.98828125,-46.875,-63.96484375
-43.9453125,-38.57421875,-44.43359375,-47.36328125
-43.45703125,-39.0625,-41.50390625,-43.45703125
-39.55078125,-47.36328125,-43.45703125,-25.390625
-38.57421875,-65.91796875,-51.7578125,-48.33984375
-39.0625,-38.57421875,-52.734375,-61.03515625
-33.203125,-28.80859375,-46.38671875,-37.59765625
-43.9453125,-40.52734375,-46.38671875,-42.48046875
-49.31640625,-40.0390625,-50.78125,-25.390625
-57.6171875,-68.84765625,-54.6875,-38.0859375
-61.5234375,-57.12890625,-53.7109375,-62.98828125
-56.15234375,-38.0859375,-52.24609375,-49.8046875
-71.77734375,-53.7109375,-50.29296875,-56.640625
-63.4765625,-41.50390625,-43.45703125,-32.2265625
-53.7109375,-56.15234375,-43.9453125,-37.59765625
-53.7109375,-53.22265625,-42.96875,-59.08203125
-37.59765625,-22.4609375,-39.0625,-36.1328125
-43.45703125,-35.64453125,-41.9921875,-37.59765625
-44.921875,-44.921875,-44.43359375,-21.97265625
-40.0390625,-62.98828125,-46.38671875,-22.4609375
-48.33984375,-62.98828125,-45.8984375,-57.12890625
-42.96875,-31.25,-43.45703125,-50.78125
-49.8046875,-45.41015625,-44.921875,-54.6875
-62.5,-61.5234375,-57.6171875,-54.19921875
-61.5234375,-72.265625,-55.17578125,-55.17578125
-42.96875,-69.82421875,-39.55078125,-60.05859375
-21.484375,-29.296875,-37.109375,-41.9921875
-67.87109375,-28.80859375,-38.57421875,-95.21484375
-99.12109375,-38.57421875,-44.43359375,-106.4453125
-86.9140625,-46.38671875,-51.26953125,-82.51953125
-101.5625,-55.6640625,-56.640625,-131.34765625
-122.55859375,-25.390625,-59.5703125,-155.2734375
-136.23046875,-8.30078125,-61.5234375,-159.66796875
-151.3671875,-25.87890625,-62.01171875,-161.1328125
-154.78515625,-41.015625,-65.4296875,-155.76171875
-160.64453125,-39.0625,-70.80078125,-189.453125
-168.45703125,-25.87890625,-69.82421875,-203.125
-170.41015625,-16.11328125,-68.84765625,-201.171875
-175.29296875,-10.25390625,-67.3828125,-200.68359375
-171.875,-17.08984375,-70.3125,-181.640625
-170.41015625,-24.4140625,-74.21875,-199.70703125
-176.7578125,-1.46484375,-75.1953125,-213.37890625
-174.8046875,4.39453125,-75.1953125,-202.63671875
-171.38671875,8.30078125,-74.21875,-195.3125
-144.04296875,22.4609375,-78.61328125,-160.64453125
-141.11328125,-16.11328125,-82.51953125,-177.734375
-159.66796875,-22.4609375,-89.84375,-209.9609375
-139.16015625,15.13671875,-87.40234375,-187.01171875
-125.9765625,20.01953125,-80.078125,-174.31640625
-110.83984375,13.671875,-82.03125,-144.53125
-103.515625,-5.37109375,-85.44921875,-145.5078125
-119.140625,-9.27734375,-86.42578125,-164.0625
-106.4453125,13.18359375,-82.03125,-138.18359375
-101.5625,7.8125,-83.0078125,-131.8359375
-76.66015625,4.39453125,-82.03125,-84.9609375
-47.8515625,-15.13671875,-73.2421875,-64.94140625
-58.10546875,-8.7890625,-72.265625,-94.7265625
-62.98828125,-10.25390625,-79.58984375,-86.42578125
-75.1953125,-38.57421875,-80.56640625,-90.33203125
-46.875,-16.11328125,-67.87109375,-52.734375
-23.92578125,-30.76171875,-62.98828125,-43.45703125
-39.55078125,-45.41015625,-65.4296875,-75.68359375
-39.55078125,-18.5546875,-65.91796875,-60.05859375
-39.0625,-25.87890625,-66.89453125,-50.78125
-34.66796875,-32.71484375,-63.4765625,-32.71484375
-17.08984375,-45.8984375,-63.4765625,-22.4609375
-20.01953125,-67.87109375,-64.453125,-54.6875
-17.08984375,-30.76171875,-58.59375,-43.9453125
-15.625,-20.99609375,-50.78125,-31.73828125
-12.20703125,-41.50390625,-49.8046875,-18.5546875
3.41796875,-59.5703125,-50.78125,-3.90625
-6.34765625,-67.87109375,-52.734375,-31.73828125
-13.671875,-39.55078125,-56.640625,-28.80859375
-23.4375,-47.8515625,-64.453125,-35.15625
-23.92578125,-50.78125,-57.12890625,-26.3671875
-1.953125,-50.78125,-47.36328125,5.37109375
-2.9296875,-78.61328125,-52.24609375,-21.484375
-1.46484375,-46.875,-51.7578125,-25.87890625
0.9765625,-32.71484375,-47.8515625,-15.625
-0.48828125,-38.57421875,-44.921875,-6.8359375
12.6953125,-31.73828125,-45.41015625,13.18359375
11.71875,-56.640625,-49.31640625,-13.18359375
4.39453125,-59.08203125,-46.875,-28.3203125
2.44140625,-46.38671875,-41.50390625,-16.6015625
-16.6015625,-54.6875,-45.8984375,-15.625
-13.671875,-61.5234375,-42.48046875,11.71875
2.44140625,-65.4296875,-31.25,2.44140625
1.953125,-44.43359375,-32.71484375,-20.99609375
1.46484375,-30.2734375,-30.76171875,-12.6953125
-14.6484375,-32.2265625,-26.3671875,-7.32421875
-14.6484375,-42.96875,-25.87890625,13.18359375
-9.765625,-70.3125,-32.2265625,-4.8828125
-11.71875,-41.9921875,-36.1328125,-22.4609375
-6.8359375,-33.69140625,-31.25,-7.32421875
-17.578125,-54.6875,-38.57421875,-16.6015625
-5.37109375,-42.48046875,-39.55078125,10.25390625
-4.8828125,-75.68359375,-40.0390625,-1.953125
-17.578125,-65.4296875,-38.0859375,-39.0625
-10.25390625,-29.78515625,-27.83203125,-24.90234375
-16.6015625,-39.0625,-33.203125,-28.80859375
-18.06640625,-43.45703125,-40.52734375,-9.27734375
-11.23046875,-60.546875,-45.8984375,-9.27734375
-21.484375,-57.6171875,-49.8046875,-40.52734375
-31.25,-35.15625,-47.36328125,-38.57421875
-38.57421875,-31.25,-49.31640625,-38.57421875
-34.66796875,-32.71484375,-52.734375,-15.13671875
-26.85546875,-59.5703125,-49.31640625,-8.30078125
-41.9921875,-72.75390625,-59.5703125,-44.43359375
-34.66796875,-44.921875,-62.98828125,-39.0625
-17.08984375,-33.69140625,-48.33984375,-31.73828125
-15.13671875,-33.69140625,-43.9453125,-16.11328125
-7.32421875,-62.98828125,-46.875,-5.37109375
-7.8125,-68.359375,-47.8515625,-30.2734375
-6.8359375,-32.2265625,-46.38671875,-24.4140625
-16.11328125,-32.2265625,-47.8515625,-18.5546875
-20.01953125,-23.92578125,-42.48046875,-3.41796875
-3.90625,-32.71484375,-41.50390625,8.7890625
-17.578125,-66.89453125,-44.43359375,-22.94921875
-34.1796875,-49.31640625,-41.015625,-27.34375
-43.45703125,-42.96875,-46.875,-29.296875
-43.45703125,-46.38671875,-48.828125,-22.94921875
-21.97265625,-51.7578125,-37.59765625,3.90625
-22.94921875,-70.80078125,-37.59765625,-20.5078125
-32.2265625,-54.6875,-33.69140625,-32.2265625
-37.59765625,-46.38671875,-27.34375,-22.94921875
-43.45703125,-39.0625,-24.4140625,-18.5546875
-39.0625,-53.7109375,-25.390625,-7.8125
-40.52734375,-74.21875,-37.59765625,-36.1328125
-38.57421875,-33.69140625,-37.59765625,-48.33984375
-38.57421875,-36.62109375,-40.0390625,-43.45703125
-49.31640625,-55.17578125,-41.9921875,-46.875
-41.50390625,-56.15234375,-34.66796875,-22.94921875
-25.87890625,-67.3828125,-34.1796875,-40.0390625
-36.1328125,-53.7109375,-34.66796875,-62.5
-49.31640625,-40.52734375,-31.25,-49.31640625
-53.7109375,-46.38671875,-33.69140625,-45.41015625
-36.62109375,-41.9921875,-39.55078125,-20.99609375
-23.92578125,-61.5234375,-43.45703125,-36.1328125
-34.1796875,-60.546875,-47.8515625,-61.03515625
-39.0625,-39.55078125,-51.7578125,-49.8046875
-49.31640625,-34.66796875,-52.734375,-45.41015625
-51.7578125,-32.2265625,-46.875,-19.04296875
-72.75390625,-84.9609375,-48.33984375,-33.203125
-91.30859375,-89.84375,-49.31640625,-63.4765625
-71.2890625,-34.66796875,-35.15625,-45.8984375
-70.3125,-41.9921875,-36.62109375,-38.0859375
-59.08203125,-46.875,-35.64453125,-7.8125
-33.69140625,-59.08203125,-31.25,-6.8359375
-20.01953125,-64.94140625,-34.1796875,-35.64453125
-31.25,-42.48046875,-38.0859375,-33.69140625
-48.33984375,-48.33984375,-43.45703125,-49.31640625
-30.76171875,-45.41015625,-37.59765625,-23.4375
-8.30078125,-44.921875,-34.66796875,-7.8125
-22.4609375,-67.87109375,-48.828125,-55.6640625
-52.734375,-51.7578125,-55.17578125,-64.94140625
-60.546875,-42.48046875,-48.828125,-62.5
-54.19921875,-52.24609375,-43.45703125,-46.875
-38.57421875,-59.5703125,-48.33984375,-31.73828125
-34.66796875,-67.3828125,-53.7109375,-59.5703125
-44.43359375,-41.50390625,-44.921875,-52.734375
-61.5234375,-39.0625,-43.9453125,-46.875
-71.2890625,-36.62109375,-51.26953125,-37.109375
-45.8984375,-50.29296875,-52.24609375,-18.06640625
-31.25,-72.75390625,-52.24609375,-43.9453125
-40.0390625,-38.0859375,-47.8515625,-46.875
-50.29296875,-47.36328125,-51.7578125,-47.8515625
-51.7578125,-55.6640625,-51.7578125,-42.48046875
-25.87890625,-44.921875,-40.52734375,-16.11328125
-20.5078125,-69.3359375,-41.50390625,-47.8515625
-41.9921875,-51.7578125,-46.875,-60.546875
-69.82421875,-37.59765625,-47.36328125,-35.15625
-84.9609375,-59.5703125,-46.875,-35.64453125
-64.94140625,-56.640625,-49.8046875,-21.97265625
-52.24609375,-69.82421875,-51.7578125,-50.29296875
-57.6171875,-59.5703125,-46.38671875,-69.3359375
-67.87109375,-45.41015625,-41.50390625,-54.6875
-74.21875,-40.0390625,-43.45703125,-54.19921875
-60.05859375,-46.875,-48.33984375,-30.76171875
-45.41015625,-73.2421875,-49.8046875,-54.6875
-42.96875,-53.22265625,-41.9921875,-71.77734375
-62.01171875,-46.38671875,-49.8046875,-55.17578125
-72.265625,-49.31640625,-53.7109375,-50.78125
-43.9453125,-36.1328125,-42.48046875,-19.53125
-19.04296875,-55.6640625,-47.8515625,-40.0390625
-11.23046875,-42.96875,-54.6875,-73.73046875
-25.87890625,-20.01953125,-54.19921875,-51.26953125
-55.6640625,-46.875,-53.7109375,-47.36328125
-48.33984375,-30.2734375,-47.36328125,-20.99609375
-40.0390625,-41.50390625,-55.17578125,-34.66796875
-43.9453125,-76.171875,-62.01171875,-79.1015625
-45.8984375,-42.48046875,-45.41015625,-48.828125
-60.05859375,-41.9921875,-48.33984375,-47.36328125
-74.70703125,-53.22265625,-46.875,-33.203125
-53.7109375,-53.22265625,-38.0859375,-24.90234375
-34.66796875,-55.6640625,-41.50390625,-62.5
-52.734375,-42.96875,-43.9453125,-54.19921875
-65.4296875,-48.33984375,-43.45703125,-51.26953125
-57.6171875,-38.57421875,-39.0625,-38.0859375
-27.34375,-41.015625,-42.96875,-30.76171875
-12.20703125,-56.15234375,-51.26953125,-70.80078125
-33.69140625,-34.66796875,-43.9453125,-60.546875
-51.26953125,-40.0390625,-41.9921875,-54.6875
-55.17578125,-49.31640625,-47.8515625,-48.33984375
-45.8984375,-61.5234375,-51.7578125,-34.1796875
-40.0390625,-76.66015625,-49.8046875,-77.63671875
-58.10546875,-55.6640625,-35.15625,-81.0546875
-81.54296875,-49.31640625,-31.25,-65.4296875
-85.44921875,-45.8984375,-39.0625,-56.640625
-53.22265625,-49.31640625,-38.0859375,-37.109375
-25.87890625,-67.3828125,-33.69140625,-63.4765625
-41.50390625,-49.8046875,-30.76171875,-62.5
-74.21875,-40.0390625,-34.1796875,-42.48046875
-77.1484375,-29.78515625,-34.1796875,-34.66796875
-45.8984375,-42.48046875,-30.2734375,-12.20703125
-27.83203125,-60.546875,-38.57421875,-45.8984375
-53.7109375,-42.48046875,-39.0625,-60.05859375
-74.21875,-44.921875,-37.109375,-40.0390625
-72.75390625,-45.8984375,-42.48046875,-35.64453125
-58.59375,-49.31640625,-47.36328125,-24.90234375
-37.109375,-61.03515625,-49.8046875,-55.17578125
-41.9921875,-48.828125,-45.8984375,-67.3828125
-53.7109375,-40.0390625,-41.9921875,-38.0859375
-57.6171875,-46.875,-46.38671875,-36.1328125
-47.8515625,-40.0390625,-44.921875,-21.97265625
-18.06640625,-39.55078125,-49.31640625,-43.45703125
-14.6484375,-55.17578125,-58.10546875,-73.73046875
-30.76171875,-50.78125,-55.17578125,-49.8046875
-34.1796875,-46.875,-56.640625,-49.8046875
-23.92578125,-46.875,-55.17578125,-31.25
-17.08984375,-58.10546875,-49.8046875,-47.8515625
-11.23046875,-50.78125,-46.38671875,-79.1015625
-13.18359375,-41.9921875,-39.0625,-41.9921875
-30.2734375,-47.36328125,-41.015625,-37.59765625
-44.43359375,-39.55078125,-38.57421875,-20.99609375
-49.8046875,-66.40625,-41.9921875,-34.66796875
-54.19921875,-64.94140625,-53.22265625,-72.265625
-67.87109375,-27.34375,-43.45703125,-38.0859375
-87.890625,-51.26953125,-40.52734375,-34.1796875
-83.984375,-57.6171875,-42.96875,-21.484375
-56.15234375,-57.6171875,-44.43359375,-22.4609375
-35.15625,-62.01171875,-45.41015625,-64.94140625
-40.52734375,-38.0859375,-43.9453125,-37.59765625
-58.10546875,-42.96875,-47.36328125,-30.2734375
-58.59375,-45.41015625,-49.8046875,-32.2265625
-34.1796875,-44.921875,-48.828125,-33.203125
-27.83203125,-58.10546875,-48.828125,-83.0078125
-51.26953125,-49.31640625,-46.875,-69.82421875
-67.3828125,-45.8984375,-43.9453125,-47.8515625
-83.0078125,-33.203125,-42.48046875,-38.57421875
-79.1015625,-52.734375,-44.921875,-29.78515625
-55.6640625,-83.0078125,-52.24609375,-78.61328125
-53.22265625,-45.8984375,-51.7578125,-65.4296875
-75.68359375,-40.0390625,-52.24609375,-34.66796875
-92.28515625,-56.640625,-55.6640625,-34.66796875
-72.75390625,-55.6640625,-49.31640625,-21.484375
-51.7578125,-60.546875,-44.921875,-64.94140625
-44.921875,-40.0390625,-46.38671875,-65.91796875
-50.78125,-32.2265625,-45.8984375,-33.203125
-66.40625,-43.45703125,-43.45703125,-32.2265625
-56.15234375,-42.48046875,-44.43359375,-18.06640625
-30.2734375,-51.7578125,-47.36328125,-63.96484375
-42.96875,-56.640625,-51.7578125,-83.0078125
-77.1484375,-66.89453125,-52.734375,-48.828125
-100.09765625,-66.40625,-49.31640625,-49.8046875
-85.9375,-62.98828125,-53.22265625,-43.45703125
-57.6171875,-73.73046875,-57.12890625,-90.8203125
-74.21875,-68.359375,-55.6640625,-115.72265625
-103.515625,-57.6171875,-50.29296875,-71.77734375
-115.234375,-54.6875,-50.78125,-84.47265625
-121.58203125,-62.01171875,-47.8515625,-76.66015625
-100.09765625,-77.1484375,-47.8515625,-91.796875
-99.12109375,-56.15234375,-55.6640625,-135.7421875
-128.90625,-38.0859375,-62.01171875,-111.81640625
-150.87890625,-70.80078125,-64.94140625,-121.58203125
-147.94921875,-60.05859375,-58.59375,-109.86328125
-116.69921875,-41.50390625,-54.6875,-126.953125
-118.1640625,-57.12890625,-56.15234375,-177.734375
-135.25390625,-32.71484375,-55.6640625,-133.30078125
-149.90234375,-27.34375,-56.640625,-126.46484375
-148.4375,-34.1796875,-60.546875,-127.9296875
-127.9296875,-34.66796875,-65.91796875,-150.87890625
-117.67578125,-31.73828125,-67.87109375,-198.2421875
-145.01953125,-17.08984375,-65.91796875,-159.1796875
-170.8984375,-16.11328125,-68.359375,-141.11328125
-151.3671875,2.9296875,-66.89453125,-127.9296875
-135.25390625,-24.90234375,-67.87109375,-145.01953125
-126.46484375,-38.0859375,-67.3828125,-200.68359375
-131.8359375,1.953125,-66.40625,-165.52734375
-141.6015625,-4.8828125,-69.3359375,-138.671875
-131.8359375,-0.9765625,-65.91796875,-127.9296875
-114.74609375,8.30078125,-59.08203125,-127.44140625
-101.07421875,-17.578125,-66.89453125,-177.734375
-118.1640625,-1.953125,-77.1484375,-153.3203125
-133.30078125,14.16015625,-81.54296875,-118.1640625
-118.1640625,1.46484375,-86.9140625,-106.4453125
-93.75,-1.46484375,-86.42578125,-94.7265625
-61.5234375,-2.44140625,-76.66015625,-140.625
-67.87109375,-3.90625,-72.265625,-130.859375
-88.37890625,-12.20703125,-75.68359375,-84.47265625
-73.73046875,-14.16015625,-75.68359375,-56.640625
-55.17578125,-17.08984375,-73.73046875,-55.6640625
-17.578125,-25.87890625,-76.171875,-118.1640625
-13.18359375,-9.27734375,-78.61328125,-104.4921875
-29.78515625,0.0,-77.63671875,-33.203125
-17.578125,-3.90625,-74.70703125,-13.671875
5.859375,5.37109375,-75.1953125,9.27734375
32.2265625,-21.97265625,-81.54296875,-32.71484375
28.80859375,-27.83203125,-78.125,-49.8046875
9.27734375,-7.32421875,-69.3359375,15.13671875
-14.16015625,-34.1796875,-71.2890625,26.85546875
5.859375,-34.66796875,-79.1015625,49.31640625
45.41015625,-29.78515625,-79.58984375,12.20703125
39.55078125,-40.52734375,-71.77734375,-24.90234375
20.5078125,-32.71484375,-58.10546875,38.0859375
-2.44140625,-36.1328125,-47.36328125,39.55078125
0.9765625,-42.96875,-47.8515625,43.9453125
35.64453125,-47.8515625,-50.78125,6.8359375
51.26953125,-34.66796875,-53.22265625,-35.64453125
27.83203125,-34.1796875,-53.22265625,31.73828125
4.39453125,-44.921875,-51.26953125,49.8046875
12.6953125,-32.71484375,-46.38671875,60.05859375
47.8515625,-47.8515625,-41.9921875,38.0859375
47.36328125,-76.171875,-47.8515625,-19.53125
16.6015625,-56.640625,-47.8515625,26.3671875
8.30078125,-41.015625,-40.0390625,56.640625
2.9296875,-38.0859375,-42.48046875,66.40625
19.53125,-53.22265625,-43.9453125,42.48046875
31.73828125,-66.89453125,-42.48046875,-20.01953125
17.08984375,-35.64453125,-42.48046875,29.78515625
3.90625,-34.1796875,-43.45703125,62.01171875
4.39453125,-45.8984375,-47.36328125,57.12890625
33.203125,-49.31640625,-39.55078125,35.15625
61.03515625,-52.24609375,-40.52734375,-31.73828125
25.87890625,-51.26953125,-40.52734375,4.8828125
-20.01953125,-51.26953125,-34.66796875,45.8984375
-27.83203125,-56.640625,-37.59765625,44.921875
6.34765625,-64.94140625,-41.50390625,32.71484375
38.0859375,-62.98828125,-45.8984375,-35.64453125
23.4375,-50.78125,-40.52734375,-8.30078125
-8.30078125,-47.8515625,-37.59765625,39.55078125
-19.04296875,-49.8046875,-40.52734375,40.0390625
16.11328125,-46.38671875,-41.015625,41.9921875
48.828125,-58.59375,-41.50390625,-28.3203125
28.3203125,-37.59765625,-41.015625,-25.87890625
-10.25390625,-23.4375,-38.57421875,33.69140625
-23.92578125,-51.7578125,-43.9453125,28.80859375
10.25390625,-56.15234375,-41.50390625,29.296875
37.59765625,-50.78125,-36.62109375,-32.2265625
12.6953125,-37.109375,-40.52734375,-41.9921875
-13.18359375,-30.76171875,-31.25,27.83203125
-29.78515625,-41.50390625,-29.296875,24.4140625
-25.87890625,-44.921875,-34.66796875,24.4140625
6.8359375,-53.22265625,-33.69140625,-25.390625
10.25390625,-45.41015625,-32.71484375,-48.828125
-6.8359375,-38.0859375,-29.78515625,20.01953125
-17.578125,-43.45703125,-30.76171875,24.90234375
-17.578125,-26.85546875,-33.203125,28.3203125
13.671875,-56.15234375,-37.109375,-24.4140625
21.484375,-64.94140625,-37.109375,-68.359375
0.48828125,-33.69140625,-32.2265625,-0.9765625
-20.99609375,-41.9921875,-41.50390625,8.30078125
-28.3203125,-39.0625,-48.33984375,26.85546875
-0.48828125,-44.43359375,-34.1796875,-0.9765625
0.0,-59.08203125,-30.76171875,-68.359375
-19.53125,-28.3203125,-37.109375,-17.08984375
-19.53125,-35.64453125,-38.0859375,-1.953125
-6.34765625,-53.7109375,-39.0625,1.46484375
2.44140625,-38.0859375,-48.33984375,-35.15625
-4.39453125,-40.0390625,-50.29296875,-98.6328125
-22.94921875,-48.828125,-44.921875,-41.9921875
-51.7578125,-55.17578125,-44.43359375,-9.765625
-67.3828125,-50.29296875,-45.41015625,-10.25390625
-32.71484375,-57.6171875,-49.31640625,-30.2734375
-8.7890625,-69.3359375,-48.828125,-93.26171875
-30.76171875,-47.8515625,-46.875,-49.8046875
-46.38671875,-52.734375,-47.8515625,-8.7890625
-53.22265625,-65.4296875,-46.38671875,-2.9296875
-42.48046875,-61.03515625,-41.015625,-14.6484375
-19.53125,-68.359375,-44.43359375,-89.84375
-27.83203125,-46.875,-42.96875,-58.10546875
-46.875,-35.15625,-37.109375,-5.37109375
-53.22265625,-44.921875,-37.59765625,1.46484375
-49.31640625,-64.453125,-42.48046875,-10.25390625
-24.4140625,-70.80078125,-44.43359375,-84.47265625
-29.296875,-46.875,-35.64453125,-62.5
-50.29296875,-45.8984375,-31.25,-4.39453125
-57.12890625,-49.8046875,-34.66796875,-8.30078125
-45.8984375,-47.36328125,-40.0390625,-12.6953125
-19.53125,-63.96484375,-48.33984375,-82.51953125
-32.71484375,-48.33984375,-48.33984375,-79.58984375
-52.734375,-28.3203125,-46.38671875,-11.71875
-59.08203125,-41.9921875,-40.52734375,-11.71875
-44.921875,-34.66796875,-38.57421875,-8.7890625
-7.8125,-57.6171875,-49.31640625,-69.82421875
-13.18359375,-62.01171875,-54.19921875,-87.890625
-46.38671875,-38.0859375,-46.875,-16.11328125
-47.36328125,-43.45703125,-42.96875,-1.46484375
-35.15625,-45.8984375,-45.8984375,0.9765625
-7.8125,-61.5234375,-53.22265625,-60.05859375
-3.90625,-57.12890625,-55.17578125,-87.40234375
-30.2734375,-29.296875,-46.875,-14.16015625
-53.7109375,-42.48046875,-41.9921875,-11.23046875
-53.7109375,-47.36328125,-44.921875,-5.37109375
-12.20703125,-51.26953125,-49.31640625,-48.33984375
8.30078125,-41.9921875,-46.875,-97.65625
-26.3671875,-32.2265625,-41.9921875,-30.2734375
-63.4765625,-51.7578125,-42.96875,-14.16015625
-65.4296875,-45.41015625,-44.921875,-9.765625
-29.78515625,-48.828125,-48.33984375,-46.38671875
-11.23046875,-45.8984375,-51.7578125,-104.00390625
-36.1328125,-34.66796875,-52.734375,-38.0859375
-62.98828125,-53.22265625,-54.19921875,-5.859375
-76.171875,-49.31640625,-49.8046875,-5.859375
-50.78125,-40.52734375,-43.45703125,-31.73828125
-31.25,-46.38671875,-39.55078125,-98.6328125
-48.828125,-32.71484375,-41.9921875,-48.828125
-62.98828125,-28.3203125,-42.96875,-9.27734375
-67.87109375,-40.0390625,-41.50390625,-13.671875
-40.52734375,-52.734375,-45.41015625,-26.3671875
4.39453125,-50.29296875,-50.29296875,-85.44921875
-19.53125,-33.69140625,-50.78125,-68.84765625
-69.3359375,-45.41015625,-48.33984375,-39.55078125
-71.2890625,-34.1796875,-43.45703125,-24.4140625
-45.8984375,-30.76171875,-46.38671875,-27.83203125
-20.99609375,-52.24609375,-50.29296875,-95.703125
-34.1796875,-32.71484375,-41.50390625,-66.89453125
-71.77734375,-38.0859375,-38.0859375,-10.7421875
-98.14453125,-43.9453125,-47.36328125,-15.13671875
-80.56640625,-41.015625,-49.31640625,-27.34375
-41.50390625,-65.4296875,-48.33984375,-102.5390625
-41.50390625,-52.24609375,-49.31640625,-95.703125
-63.96484375,-40.52734375,-52.734375,-27.34375
-81.54296875,-55.6640625,-56.15234375,-27.34375
-61.5234375,-52.24609375,-52.24609375,-23.92578125
-31.25,-60.546875,-53.7109375,-86.9140625
-41.015625,-51.26953125,-49.31640625,-99.12109375
-61.5234375,-29.78515625,-42.48046875,-29.78515625
-73.2421875,-40.52734375,-45.8984375,-30.76171875
-66.89453125,-45.41015625,-47.36328125,-25.87890625
-31.73828125,-58.59375,-53.22265625,-80.078125
-33.69140625,-41.9921875,-59.08203125,-110.83984375
-60.05859375,-31.25,-53.22265625,-37.59765625
-68.359375,-59.08203125,-49.8046875,-25.87890625
-62.5,-47.8515625,-49.8046875,-20.01953125
-40.0390625,-50.78125,-50.29296875,-66.89453125
-54.19921875,-52.734375,-52.24609375,-112.3046875
-77.63671875,-40.0390625,-51.26953125,-45.41015625
-80.078125,-48.33984375,-56.640625,-29.78515625
-72.265625,-44.921875,-55.17578125,-20.99609375
-43.45703125,-51.26953125,-51.26953125,-51.7578125
-25.87890625,-55.17578125,-57.6171875,-110.3515625
-41.50390625,-36.62109375,-52.24609375,-48.33984375
-62.5,-30.2734375,-42.96875,-17.578125
-72.265625,-49.31640625,-39.55078125,-12.20703125
-53.7109375,-75.1953125,-41.50390625,-43.45703125
-41.50390625,-63.96484375,-46.38671875,-108.3984375
-53.7109375,-42.48046875,-46.38671875,-52.24609375
-61.5234375,-50.78125,-47.36328125,-26.85546875
-59.5703125,-48.828125,-43.45703125,-28.80859375
-36.1328125,-50.29296875,-37.109375,-48.828125
-17.08984375,-56.15234375,-42.48046875,-118.1640625
-42.48046875,-36.62109375,-46.875,-72.75390625
-57.6171875,-39.0625,-48.33984375,-29.78515625
-47.8515625,-30.2734375,-52.24609375,-25.87890625
-29.78515625,-24.4140625,-54.6875,-34.1796875
-22.4609375,-56.640625,-56.15234375,-105.95703125
-39.55078125,-48.828125,-49.8046875,-81.0546875
-51.26953125,-30.2734375,-42.96875,-30.2734375
-55.17578125,-34.1796875,-42.96875,-29.296875
-42.96875,-41.015625,-46.875,-40.52734375
-23.92578125,-49.31640625,-49.31640625,-104.00390625
-41.9921875,-45.8984375,-48.33984375,-83.49609375
-67.87109375,-42.96875,-56.640625,-28.80859375
-42.48046875,-35.64453125,-58.59375,0.9765625
-12.6953125,-39.55078125,-37.59765625,15.13671875
-37.109375,-63.96484375,-35.15625,-95.21484375
-71.2890625,-50.29296875,-47.36328125,-117.67578125
-92.7734375,-58.59375,-43.9453125,-45.8984375
-103.02734375,-77.63671875,-38.0859375,-58.59375
-104.00390625,-81.54296875,-43.45703125,-70.3125
-100.5859375,-100.5859375,-48.828125,-135.25390625
-128.90625,-95.703125,-39.0625,-166.9921875
-170.8984375,-89.84375,-30.2734375,-108.3984375
-196.2890625,-104.4921875,-37.109375,-112.3046875
-188.4765625,-104.4921875,-34.66796875,-107.91015625
-163.0859375,-124.0234375,-31.73828125,-166.9921875
-155.76171875,-124.0234375,-31.25,-210.9375
-169.921875,-88.37890625,-18.5546875,-134.765625
-178.7109375,-88.8671875,-17.578125,-124.0234375
-175.29296875,-98.6328125,-20.99609375,-118.65234375
-166.9921875,-117.1875,-20.99609375,-157.2265625
-153.3203125,-119.62890625,-24.4140625,-201.66015625
-148.92578125,-93.26171875,-20.99609375,-128.41796875
-164.55078125,-97.65625,-17.08984375,-107.91015625
-165.52734375,-101.5625,-19.04296875,-98.6328125
-130.37109375,-106.93359375,-20.99609375,-114.2578125
-107.91015625,-110.3515625,-25.87890625,-161.62109375
-132.8125,-83.0078125,-25.87890625,-94.7265625
-146.484375,-78.125,-27.34375,-58.59375
-126.953125,-71.2890625,-31.25,-48.828125
-85.9375,-63.96484375,-34.66796875,-60.546875
-57.6171875,-73.2421875,-44.43359375,-127.9296875
-72.265625,-68.84765625,-44.921875,-80.56640625
-85.44921875,-73.73046875,-43.45703125,-31.73828125
-75.1953125,-61.03515625,-45.8984375,-22.4609375
-46.875,-59.5703125,-44.921875,-36.62109375
-30.2734375,-80.56640625,-46.38671875,-105.95703125
-42.48046875,-59.5703125,-48.828125,-67.3828125
-63.96484375,-49.8046875,-46.38671875,-13.18359375
-82.51953125,-55.17578125,-37.59765625,-14.16015625
-58.10546875,-63.96484375,-38.57421875,-24.90234375
-23.4375,-67.87109375,-44.921875,-87.40234375
-35.15625,-40.52734375,-41.50390625,-64.453125
-62.98828125,-51.26953125,-41.015625,-13.18359375
-73.73046875,-51.7578125,-45.41015625,-16.6015625
-57.12890625,-51.7578125,-43.9453125,-13.671875
-24.90234375,-83.0078125,-51.26953125,-77.63671875
-22.4609375,-58.10546875,-46.875,-76.66015625
-45.8984375,-44.921875,-39.0625,-17.08984375
-53.22265625,-48.33984375,-44.921875,-18.06640625
-25.390625,-38.57421875,-39.55078125,-6.34765625
3.90625,-49.8046875,-44.43359375,-64.453125
-13.671875,-51.7578125,-45.8984375,-80.56640625
-51.26953125,-42.96875,-39.0625,-11.71875
-58.59375,-39.55078125,-45.41015625,-11.23046875
-43.45703125,-47.8515625,-49.8046875,-4.39453125
-17.08984375,-61.03515625,-56.15234375,-53.7109375
-8.30078125,-47.36328125,-58.59375,-84.47265625
-16.11328125,-31.73828125,-42.96875,-3.90625
-51.7578125,-38.0859375,-33.203125,-0.9765625
-89.84375,-45.41015625,-39.55078125,-21.97265625
-72.265625,-72.265625,-42.48046875,-66.40625
-48.33984375,-68.359375,-41.9921875,-101.5625
-60.546875,-41.9921875,-41.015625,-39.55078125
-80.078125,-54.6875,-44.921875,-33.69140625
-83.984375,-50.78125,-49.31640625,-28.3203125
-53.22265625,-41.015625,-53.22265625,-55.6640625
-35.64453125,-60.546875,-57.12890625,-113.76953125
-46.38671875,-48.33984375,-48.828125,-51.7578125
-70.80078125,-42.48046875,-39.55078125,-23.92578125
-90.33203125,-50.78125,-41.015625,-25.390625
-53.7109375,-50.78125,-47.36328125,-44.921875
-31.73828125,-53.7109375,-52.734375,-107.421875
-47.8515625,-33.69140625,-50.78125,-57.6171875
-58.10546875,-37.109375,-47.36328125,-26.85546875
-58.59375,-38.57421875,-48.828125,-29.296875
-41.9921875,-50.78125,-49.31640625,-37.109375
-26.85546875,-62.01171875,-45.8984375,-103.515625
-34.1796875,-22.94921875,-41.015625,-69.3359375
-61.5234375,-36.1328125,-42.96875,-29.296875
-78.61328125,-59.08203125,-45.8984375,-33.69140625
-57.6171875,-50.29296875,-48.33984375,-39.0625
-40.0390625,-55.17578125,-58.10546875,-103.02734375
-50.29296875,-34.1796875,-55.6640625,-83.984375
-59.08203125,-28.80859375,-52.734375,-39.0625
-78.61328125,-46.875,-50.78125,-40.0390625
-65.4296875,-52.24609375,-47.36328125,-38.0859375
-32.2265625,-60.05859375,-53.7109375,-95.21484375
-45.41015625,-49.8046875,-56.640625,-88.8671875
-54.6875,-39.0625,-50.29296875,-34.1796875
-58.59375,-42.48046875,-47.8515625,-33.203125
-53.7109375,-49.8046875,-54.19921875,-32.2265625
-22.94921875,-66.89453125,-55.17578125,-90.33203125
-21.97265625,-51.7578125,-49.8046875,-96.6796875
-37.59765625,-34.66796875,-52.734375,-35.64453125
-55.17578125,-41.9921875,-58.59375,-34.66796875
-49.31640625,-45.41015625,-48.33984375,-24.4140625
-31.25,-60.05859375,-43.45703125,-75.1953125
-43.9453125,-48.828125,-49.31640625,-102.5390625
-52.24609375,-27.83203125,-47.36328125,-42.48046875
-57.6171875,-35.15625,-40.52734375,-35.64453125
-53.22265625,-30.76171875,-38.57421875,-18.06640625
-28.3203125,-35.64453125,-38.57421875,-60.05859375
-23.92578125,-49.31640625,-39.55078125,-104.4921875
-37.109375,-37.59765625,-42.48046875,-38.57421875
-42.48046875,-26.85546875,-44.43359375,-23.4375
-42.48046875,-38.0859375,-41.015625,-14.16015625
-20.99609375,-55.6640625,-44.43359375,-44.43359375
-4.39453125,-51.7578125,-45.8984375,-93.26171875
-13.671875,-26.85546875,-38.57421875,-34.1796875
-26.85546875,-28.80859375,-38.0859375,-12.6953125
-33.203125,-35.15625,-42.96875,-3.90625
-24.90234375,-45.41015625,-46.875,-24.4140625
-16.6015625,-46.875,-45.8984375,-81.0546875
-27.34375,-21.484375,-44.921875,-28.3203125
-36.62109375,-39.0625,-43.9453125,-1.953125
-34.66796875,-46.38671875,-44.43359375,-3.90625
-19.53125,-51.26953125,-45.8984375,-20.99609375
-21.484375,-71.2890625,-45.41015625,-86.9140625
-40.52734375,-34.66796875,-40.52734375,-46.38671875
-48.33984375,-23.4375,-39.0625,-5.859375
-54.19921875,-48.33984375,-46.38671875,-10.25390625
-31.73828125,-50.78125,-44.43359375,-23.4375
-9.765625,-51.7578125,-42.48046875,-90.8203125
-26.3671875,-36.1328125,-43.45703125,-66.89453125
-47.8515625,-29.296875,-47.8515625,-24.4140625
-59.5703125,-23.4375,-57.12890625,-29.78515625
-41.9921875,-34.66796875,-58.59375,-30.76171875
-20.99609375,-53.7109375,-62.5,-87.890625
-31.73828125,-42.48046875,-61.5234375,-81.54296875
-41.50390625,-36.1328125,-47.36328125,-28.3203125
-54.19921875,-41.015625,-42.48046875,-32.2265625
-42.48046875,-46.875,-42.48046875,-38.0859375
-20.5078125,-58.10546875,-43.9453125,-90.8203125
-40.0390625,-44.921875,-49.31640625,-96.6796875
-57.6171875,-34.66796875,-45.41015625,-37.59765625
-71.2890625,-50.78125,-37.59765625,-30.2734375
-70.3125,-51.7578125,-42.96875,-21.97265625
-50.29296875,-53.7109375,-48.33984375,-70.3125
-50.29296875,-52.24609375,-45.41015625,-89.84375
-67.3828125,-45.8984375,-44.43359375,-35.64453125
-81.0546875,-55.17578125,-38.57421875,-34.1796875
-75.68359375,-49.8046875,-32.71484375,-26.85546875
-57.12890625,-53.7109375,-42.48046875,-65.91796875
-55.6640625,-49.31640625,-52.24609375,-104.4921875
-71.77734375,-40.52734375,-51.7578125,-56.640625
-85.9375,-52.24609375,-48.828125,-51.7578125
-78.61328125,-37.59765625,-49.31640625,-36.62109375
-53.7109375,-35.64453125,-51.26953125,-64.94140625
-45.8984375,-41.50390625,-52.734375,-114.2578125
-52.24609375,-14.6484375,-47.8515625,-56.640625
-70.3125,-25.390625,-42.96875,-38.0859375
-87.890625,-50.78125,-46.875,-34.1796875
-66.89453125,-63.96484375,-52.734375,-59.5703125
-48.33984375,-56.15234375,-59.08203125,-112.79296875
-61.5234375,-29.78515625,-55.17578125,-62.5
-79.58984375,-41.015625,-50.29296875,-38.57421875
-85.9375,-48.828125,-51.7578125,-38.0859375
-68.84765625,-59.08203125,-47.8515625,-57.6171875
-50.78125,-58.59375,-45.8984375,-112.79296875
-53.7109375,-28.3203125,-47.8515625,-67.87109375
-51.7578125,-29.78515625,-44.43359375,-36.62109375
-47.8515625,-28.3203125,-39.0625,-30.76171875
-54.6875,-49.8046875,-42.96875,-41.50390625
-56.640625,-69.82421875,-44.43359375,-107.421875
-41.50390625,-16.6015625,-45.8984375,-73.2421875
-20.5078125,-16.6015625,-39.55078125,-11.71875
-35.15625,-45.8984375,-35.64453125,-3.41796875
-59.5703125,-58.10546875,-40.52734375,-32.71484375
-56.15234375,-70.3125,-38.57421875,-102.5390625
-62.98828125,-57.6171875,-34.1796875,-88.8671875
-80.078125,-64.94140625,-32.71484375,-45.41015625
-94.23828125,-69.82421875,-36.62109375,-47.8515625
-87.890625,-66.40625,-34.66796875,-46.38671875
-66.40625,-70.80078125,-34.66796875,-93.26171875
-80.078125,-74.70703125,-34.1796875,-97.65625
-88.8671875,-77.1484375,-24.4140625,-47.8515625
-87.890625,-73.73046875,-21.97265625,-35.15625
-99.12109375,-80.56640625,-27.34375,-39.55078125
-70.3125,-100.5859375,-30.76171875,-84.9609375
-65.91796875,-85.9375,-32.2265625,-92.7734375
-98.6328125,-77.63671875,-29.296875,-46.38671875
-128.90625,-91.30859375,-24.4140625,-42.48046875
-122.0703125,-88.8671875,-25.390625,-29.296875
-93.75,-103.02734375,-34.1796875,-69.3359375
-95.703125,-93.75,-41.015625,-100.09765625
-101.5625,-55.17578125,-36.62109375,-39.55078125
-103.515625,-70.3125,-34.1796875,-26.3671875
-92.7734375,-83.984375,-38.57421875,-18.06640625
-72.265625,-83.984375,-36.62109375,-51.7578125
-61.03515625,-69.82421875,-32.71484375,-84.47265625
-54.6875,-42.48046875,-26.3671875,-24.90234375
-56.15234375,-56.640625,-28.3203125,-13.671875
-43.45703125,-57.6171875,-31.25,-2.44140625
-27.83203125,-62.5,-38.57421875,-26.3671875
-23.92578125,-65.4296875,-45.8984375,-76.66015625
-34.1796875,-50.29296875,-44.43359375,-30.76171875
-57.12890625,-45.41015625,-41.015625,-12.20703125
-59.5703125,-27.34375,-37.59765625,-0.48828125
-53.22265625,-62.5,-42.96875,-20.99609375
-53.7109375,-85.44921875,-49.8046875,-84.47265625
-49.31640625,-38.57421875,-48.828125,-47.8515625
-56.640625,-35.64453125,-46.38671875,-22.94921875
-59.08203125,-42.48046875,-47.36328125,-15.13671875
-54.19921875,-60.05859375,-50.29296875,-23.4375
-51.26953125,-69.82421875,-48.828125,-83.0078125
-42.48046875,-38.0859375,-41.50390625,-49.8046875
-41.50390625,-33.69140625,-40.52734375,-18.5546875
-47.8515625,-39.0625,-44.43359375,-19.53125
-36.1328125,-47.36328125,-48.33984375,-17.08984375
-31.73828125,-54.6875,-47.36328125,-62.98828125
-46.38671875,-38.0859375,-45.8984375,-43.45703125
-55.17578125,-42.96875,-51.26953125,-13.18359375
-61.5234375,-40.0390625,-54.19921875,-18.5546875
-50.78125,-52.734375,-60.546875,-19.53125
-43.9453125,-79.58984375,-63.96484375,-72.75390625
-47.36328125,-35.15625,-55.17578125,-73.73046875
-44.921875,-20.99609375,-51.26953125,-33.203125
-57.6171875,-41.015625,-49.31640625,-32.2265625
-56.640625,-42.96875,-47.8515625,-26.85546875
-51.26953125,-62.5,-53.7109375,-76.171875
-47.8515625,-43.45703125,-53.7109375,-88.8671875
-36.1328125,-17.578125,-48.828125,-40.52734375
-42.48046875,-46.875,-49.8046875,-36.1328125
-39.55078125,-44.43359375,-51.26953125,-26.3671875
-41.9921875,-57.12890625,-48.33984375,-62.98828125
-63.4765625,-60.546875,-51.7578125,-92.7734375
-60.546875,-29.78515625,-47.36328125,-53.22265625
-70.80078125,-37.109375,-44.43359375,-50.78125
-77.63671875,-41.50390625,-49.8046875,-45.8984375
-81.0546875,-67.3828125,-56.15234375,-89.84375
-92.28515625,-67.3828125,-60.546875,-132.8125
-77.1484375,-38.57421875,-57.6171875,-83.49609375
-93.26171875,-44.43359375,-47.8515625,-83.49609375
-117.67578125,-43.45703125,-39.55078125,-96.6796875
-114.74609375,-74.21875,-43.9453125,-126.953125
-127.44140625,-88.8671875,-51.26953125,-172.8515625
-128.41796875,-58.10546875,-43.45703125,-133.7890625
-133.7890625,-61.03515625,-33.203125,-116.69921875
-145.99609375,-56.15234375,-31.73828125,-109.375
-138.18359375,-81.0546875,-33.203125,-125.9765625
-141.6015625,-105.95703125,-23.4375,-171.875
-134.765625,-54.6875,-11.23046875,-134.27734375
-117.1875,-48.33984375,-13.18359375,-109.86328125
-101.07421875,-60.546875,-23.4375,-102.5390625
-100.5859375,-77.63671875,-25.390625,-119.62890625
-135.7421875,-80.56640625,-24.90234375,-177.734375
-141.6015625,-50.78125,-21.97265625,-141.6015625
-151.85546875,-68.359375,-27.34375,-118.1640625
-165.0390625,-67.3828125,-27.34375,-112.3046875
-146.97265625,-72.265625,-18.06640625,-91.796875
-125.0,-95.21484375,-22.4609375,-121.58203125
-108.3984375,-61.03515625,-21.97265625,-104.4921875
-109.86328125,-50.78125,-28.3203125,-84.47265625
-107.91015625,-55.6640625,-32.71484375,-78.125
-93.75,-59.08203125,-36.62109375,-74.70703125
-93.26171875,-86.9140625,-47.8515625,-122.55859375
-84.47265625,-58.59375,-35.64453125,-118.65234375
-72.265625,-25.390625,-32.71484375,-83.0078125
-85.9375,-43.9453125,-40.52734375,-79.58984375
-91.30859375,-67.3828125,-34.66796875,-72.75390625
-84.47265625,-81.54296875,-35.64453125,-105.95703125
-81.0546875,-60.05859375,-38.0859375,-109.375
-71.2890625,-41.015625,-36.62109375,-73.2421875
-73.2421875,-44.43359375,-34.66796875,-69.3359375
-59.08203125,-43.9453125,-36.1328125,-50.78125
-50.29296875,-75.1953125,-50.78125,-77.63671875
-59.08203125,-51.7578125,-58.10546875,-103.02734375
-54.19921875,-14.16015625,-54.6875,-70.80078125
-46.38671875,-34.66796875,-45.8984375,-53.7109375
-36.62109375,-26.3671875,-42.48046875,-35.64453125
-53.7109375,-62.01171875,-59.08203125,-72.265625
-76.171875,-91.30859375,-58.10546875,-106.4453125
-50.29296875,-50.78125,-41.015625,-58.10546875
-37.59765625,-40.0390625,-39.0625,-39.55078125
-43.45703125,-46.38671875,-42.96875,-23.92578125
-44.43359375,-70.80078125,-50.29296875,-34.1796875
-64.453125,-66.89453125,-55.17578125,-69.82421875
-53.22265625,-32.71484375,-54.6875,-39.0625
-41.9921875,-50.78125,-54.19921875,-32.2265625
-27.83203125,-52.734375,-52.734375,-12.20703125
-21.97265625,-47.36328125,-64.94140625,-21.484375
-26.85546875,-47.36328125,-70.3125,-60.546875
-13.671875,-27.83203125,-63.4765625,-29.78515625
-13.671875,-31.25,-55.6640625,-17.08984375
-1.953125,-23.4375,-54.19921875,3.90625
3.41796875,-45.8984375,-65.4296875,4.8828125
-8.30078125,-63.96484375,-69.82421875,-35.15625
7.32421875,-22.94921875,-62.98828125,-4.39453125
9.27734375,-29.296875,-56.640625,9.765625
9.27734375,-30.2734375,-54.6875,17.578125
27.34375,-42.48046875,-55.17578125,28.3203125
17.578125,-81.0546875,-62.01171875,-20.01953125
26.3671875,-38.0859375,-63.4765625,-11.23046875
43.9453125,-8.7890625,-63.96484375,15.13671875
27.34375,-21.484375,-63.96484375,25.390625
12.6953125,-51.7578125,-66.89453125,37.59765625
0.0,-77.1484375,-77.63671875,-0.48828125
4.39453125,-43.45703125,-79.58984375,-1.953125
16.11328125,-26.85546875,-69.82421875,23.92578125
16.6015625,-18.06640625,-56.640625,30.2734375
16.11328125,-34.66796875,-59.08203125,39.55078125
-5.859375,-69.3359375,-66.40625,-4.8828125
1.46484375,-33.203125,-60.05859375,-15.625
23.4375,-11.71875,-51.7578125,20.99609375
11.71875,-16.11328125,-46.875,26.3671875
10.7421875,-17.578125,-49.8046875,38.57421875
0.0,-61.5234375,-55.17578125,10.7421875
1.953125,-41.9921875,-52.734375,-3.41796875
18.5546875,-26.3671875,-52.24609375,20.01953125
4.39453125,-40.0390625,-59.5703125,20.01953125
14.16015625,-31.25,-55.6640625,38.57421875
5.859375,-62.98828125,-53.22265625,12.20703125
-1.953125,-52.734375,-58.10546875,-18.06640625
27.34375,-9.27734375,-56.640625,6.34765625
29.78515625,-0.48828125,-53.7109375,6.8359375
37.109375,-21.97265625,-53.22265625,27.83203125
20.5078125,-54.19921875,-59.08203125,13.671875
-0.48828125,-33.69140625,-58.59375,-19.53125
22.94921875,-10.7421875,-49.8046875,8.7890625
11.23046875,-23.4375,-47.36328125,9.765625
0.9765625,-15.625,-50.78125,23.92578125
-1.46484375,-42.48046875,-57.12890625,19.04296875
-7.32421875,-43.9453125,-58.59375,-16.6015625
17.08984375,-6.8359375,-54.19921875,9.27734375
14.16015625,-22.4609375,-52.734375,13.18359375
0.48828125,-24.90234375,-55.6640625,10.25390625
-10.7421875,-39.0625,-56.640625,12.20703125
-16.11328125,-52.734375,-57.12890625,-13.671875
-14.16015625,-17.08984375,-62.01171875,-15.625
-24.90234375,-2.9296875,-61.03515625,-26.85546875
-23.92578125,-12.20703125,-53.7109375,-19.53125
-36.62109375,-57.12890625,-58.10546875,-29.296875
-70.80078125,-83.984375,-78.61328125,-82.51953125
-47.36328125,-27.83203125,-66.89453125,-57.6171875
-24.4140625,-19.04296875,-53.7109375,-33.203125
-30.76171875,-29.296875,-52.24609375,-28.3203125
-30.76171875,-38.57421875,-47.36328125,-13.671875
-49.8046875,-63.4765625,-48.33984375,-52.24609375
-33.203125,-28.3203125,-44.43359375,-48.33984375
-14.6484375,-19.04296875,-47.36328125,-28.3203125
-29.78515625,-34.1796875,-48.33984375,-24.4140625
-29.296875,-30.76171875,-49.8046875,-9.27734375
-48.33984375,-63.96484375,-56.640625,-41.50390625
-62.98828125,-58.10546875,-67.3828125,-58.59375
-35.64453125,-29.78515625,-65.91796875,-34.1796875
-29.78515625,-38.0859375,-55.17578125,-24.90234375
-35.15625,-39.55078125,-57.12890625,-16.11328125
-53.22265625,-76.66015625,-59.5703125,-51.7578125
-48.828125,-53.7109375,-53.22265625,-65.91796875
-24.4140625,-21.484375,-49.31640625,-31.25
-33.203125,-34.66796875,-48.828125,-22.94921875
-29.296875,-42.96875,-47.36328125,-8.7890625
-42.48046875,-73.2421875,-52.734375,-39.55078125
-45.8984375,-43.9453125,-52.734375,-53.22265625
-13.18359375,-26.3671875,-52.24609375,-22.4609375
-16.6015625,-44.921875,-58.59375,-29.296875
-14.6484375,-33.203125,-53.7109375,-6.8359375
-32.2265625,-60.546875,-52.24609375,-21.484375
-54.6875,-48.828125,-53.22265625,-51.26953125
-28.80859375,-12.20703125,-46.38671875,-14.16015625
-33.69140625,-28.80859375,-39.55078125,-4.39453125
-33.69140625,-22.94921875,-38.57421875,8.7890625
-40.52734375,-56.15234375,-42.96875,-16.11328125
-63.96484375,-71.77734375,-42.48046875,-59.5703125
-41.9921875,-21.484375,-36.62109375,-26.85546875
-34.66796875,-9.765625,-38.57421875,-21.484375
-54.6875,-36.1328125,-48.33984375,-25.390625
-68.359375,-63.96484375,-48.828125,-34.66796875
-69.3359375,-60.546875,-40.0390625,-70.80078125
-45.8984375,-27.34375,-42.96875,-56.15234375
-35.15625,-27.34375,-44.43359375,-38.57421875
-37.59765625,-32.71484375,-38.0859375,-22.4609375
-42.96875,-58.59375,-38.0859375,-24.90234375
-64.94140625,-71.77734375,-43.45703125,-64.94140625
-44.43359375,-20.01953125,-45.8984375,-47.8515625
-28.80859375,-34.66796875,-45.8984375,-32.2265625
-31.25,-39.0625,-44.43359375,-21.484375
-34.66796875,-44.43359375,-48.33984375,-16.11328125
-75.1953125,-89.84375,-67.87109375,-69.82421875
-62.5,-53.22265625,-60.05859375,-62.98828125
-34.1796875,-23.92578125,-44.43359375,-35.15625
-47.36328125,-39.0625,-48.33984375,-34.66796875
-48.828125,-59.5703125,-49.31640625,-27.34375
-66.40625,-81.0546875,-50.29296875,-64.453125
-52.734375,-39.0625,-50.29296875,-65.4296875
-20.99609375,-16.11328125,-50.29296875,-41.015625
-30.2734375,-31.25,-45.8984375,-36.1328125
-39.55078125,-40.0390625,-40.52734375,-21.484375
-62.98828125,-62.5,-43.9453125,-54.6875
-44.921875,-33.203125,-50.78125,-44.921875
-18.5546875,-20.5078125,-54.6875,-25.87890625
-43.45703125,-41.015625,-54.19921875,-51.7578125
-33.203125,-37.59765625,-51.7578125,-24.90234375
-46.38671875,-66.40625,-63.4765625,-51.26953125
-54.6875,-46.38671875,-68.359375,-76.66015625
-15.625,-8.7890625,-51.7578125,-38.0859375
-24.90234375,-24.4140625,-51.26953125,-38.0859375
-43.9453125,-34.1796875,-54.19921875,-29.78515625
-62.5,-55.6640625,-49.31640625,-56.15234375
-67.87109375,-52.734375,-51.26953125,-87.40234375
-31.25,-15.13671875,-48.33984375,-56.640625
-23.92578125,-11.71875,-50.78125,-46.38671875
-40.52734375,-40.0390625,-55.17578125,-42.48046875
-60.05859375,-74.70703125,-52.24609375,-73.2421875
-68.84765625,-65.91796875,-51.26953125,-97.16796875
-45.41015625,-44.921875,-55.17578125,-65.91796875
-31.25,-42.48046875,-52.734375,-53.7109375
-32.2265625,-37.59765625,-46.38671875,-31.25
-50.78125,-56.640625,-51.26953125,-36.62109375
-72.265625,-57.6171875,-54.6875,-73.73046875
-42.96875,-15.625,-47.36328125,-46.875
-25.87890625,-27.83203125,-45.41015625,-39.55078125
-33.203125,-38.0859375,-44.43359375,-30.2734375
-43.45703125,-42.96875,-47.36328125,-25.87890625
-59.08203125,-63.96484375,-56.15234375,-61.5234375
-34.1796875,-34.66796875,-49.8046875,-38.0859375
-29.78515625,-38.0859375,-52.734375,-26.3671875
-41.015625,-47.36328125,-54.6875,-20.01953125
-33.69140625,-50.78125,-49.8046875,-14.6484375
-50.29296875,-62.01171875,-55.6640625,-60.546875
-39.0625,-36.62109375,-56.640625,-58.10546875
-22.94921875,-30.2734375,-49.8046875,-46.38671875
-34.1796875,-33.203125,-45.8984375,-48.33984375
-42.48046875,-42.48046875,-49.31640625,-41.015625
-64.453125,-62.5,-53.7109375,-77.1484375
-47.36328125,-20.5078125,-51.7578125,-73.2421875
-16.6015625,-8.7890625,-46.875,-42.48046875
-32.2265625,-43.45703125,-47.36328125,-47.36328125
-46.38671875,-49.8046875,-54.19921875,-41.50390625
-62.01171875,-63.4765625,-55.6640625,-64.453125
-57.12890625,-41.9921875,-52.24609375,-61.03515625
-36.1328125,-22.94921875,-52.734375,-32.71484375
-38.57421875,-34.1796875,-55.17578125,-28.80859375
-38.57421875,-41.015625,-48.828125,-5.859375
-55.6640625,-58.59375,-46.875,-34.1796875
-59.08203125,-44.43359375,-55.6640625,-57.6171875
-30.2734375,-19.04296875,-59.5703125,-32.71484375
-24.90234375,-9.27734375,-56.640625,-25.87890625
-24.4140625,-31.73828125,-50.29296875,-13.671875
-45.41015625,-74.70703125,-51.26953125,-47.8515625
-53.22265625,-46.875,-55.17578125,-69.3359375
-20.01953125,-6.8359375,-45.41015625,-33.69140625
-25.390625,-21.484375,-45.41015625,-31.25
-42.48046875,-38.0859375,-54.19921875,-25.390625
-54.6875,-71.77734375,-51.7578125,-43.45703125
-60.546875,-62.01171875,-45.41015625,-68.359375
-37.59765625,-24.4140625,-47.36328125,-43.45703125
-37.109375,-35.15625,-50.78125,-40.52734375
-42.96875,-36.62109375,-47.8515625,-22.4609375
-45.8984375,-52.734375,-44.921875,-23.4375
-57.6171875,-59.08203125,-50.78125,-63.4765625
-53.22265625,-43.45703125,-56.15234375,-60.546875
-46.38671875,-44.43359375,-36.1328125,-48.33984375
-43.9453125,-33.203125,-28.80859375,-30.2734375
-62.98828125,-58.59375,-40.52734375,-44.921875
-81.0546875,-65.4296875,-44.921875,-80.078125
-55.6640625,-23.92578125,-50.78125,-53.7109375
-37.109375,-23.4375,-48.33984375,-40.0390625
-47.8515625,-34.1796875,-45.8984375,-34.1796875
-51.7578125,-55.6640625,-48.828125,-36.62109375
-63.96484375,-68.359375,-51.26953125,-74.21875
-39.55078125,-16.11328125,-41.50390625,-50.29296875
-37.109375,-32.71484375,-48.33984375,-39.55078125
-59.08203125,-62.01171875,-55.17578125,-39.55078125
-48.828125,-56.640625,-41.9921875,-20.5078125
-76.171875,-83.49609375,-39.55078125,-64.453125
-70.3125,-54.19921875,-42.96875,-66.40625
-40.0390625,-28.80859375,-39.55078125,-45.41015625
-44.43359375,-38.0859375,-39.0625,-41.9921875
-46.38671875,-59.08203125,-45.8984375,-30.76171875
-62.5,-77.63671875,-49.8046875,-64.94140625
-55.17578125,-44.921875,-45.41015625,-60.05859375
-36.62109375,-31.25,-44.43359375,-31.25
-49.8046875,-39.55078125,-49.31640625,-31.73828125
-56.640625,-70.80078125,-50.29296875,-25.87890625
-64.94140625,-90.8203125,-46.38671875,-50.29296875
-53.22265625,-52.24609375,-43.45703125,-51.7578125
-36.62109375,-37.59765625,-44.43359375,-29.78515625
-52.734375,-46.875,-46.38671875,-33.203125
-53.22265625,-46.875,-43.45703125,-21.484375
-66.40625,-88.8671875,-43.45703125,-49.8046875
-78.125,-78.61328125,-44.43359375,-75.68359375
-51.7578125,-35.64453125,-40.52734375,-54.6875
-46.38671875,-32.2265625,-33.203125,-43.9453125
-45.8984375,-39.55078125,-31.25,-22.94921875
-65.91796875,-65.4296875,-41.9921875,-54.6875
-78.61328125,-69.82421875,-45.41015625,-86.42578125
-46.875,-32.2265625,-39.55078125,-49.8046875
-47.8515625,-35.64453125,-42.48046875,-44.43359375
-59.08203125,-46.38671875,-45.8984375,-35.64453125
-62.5,-63.4765625,-45.41015625,-45.41015625
-66.40625,-60.546875,-48.33984375,-75.1953125
-35.64453125,-28.80859375,-45.41015625,-43.45703125
-35.15625,-34.1796875,-45.8984375,-35.15625
-41.015625,-31.25,-45.41015625,-25.87890625
-38.57421875,-57.6171875,-39.0625,-29.296875
-63.4765625,-72.75390625,-41.50390625,-75.68359375
-50.78125,-27.83203125,-45.8984375,-62.01171875
-46.38671875,-33.203125,-44.921875,-49.31640625
-55.6640625,-53.7109375,-46.875,-45.8984375
-41.015625,-64.94140625,-54.6875,-29.78515625
-88.37890625,-83.0078125,-60.05859375,-89.84375
-115.72265625,-36.1328125,-48.828125,-119.140625
-91.796875,-16.11328125,-42.96875,-96.19140625
-101.07421875,-33.203125,-38.57421875,-90.8203125
-136.71875,-60.546875,-45.41015625,-113.76953125
-163.0859375,-70.3125,-52.24609375,-167.48046875
-155.2734375,-27.34375,-53.7109375,-176.26953125
-163.0859375,-30.2734375,-53.7109375,-178.22265625
-179.6875,-34.66796875,-41.9921875,-178.22265625
-189.453125,-50.29296875,-44.43359375,-181.15234375
-212.890625,-88.37890625,-49.31640625,-228.515625
-223.14453125,-72.75390625,-61.03515625,-243.1640625
-213.8671875,-55.17578125,-63.96484375,-227.5390625
-203.61328125,-37.109375,-46.875,-205.078125
-207.51953125,-56.15234375,-44.43359375,-187.01171875
-211.9140625,-83.49609375,-48.828125,-214.35546875
-197.265625,-42.48046875,-49.31640625,-213.8671875
-177.24609375,-28.80859375,-39.55078125,-184.5703125
-194.3359375,-49.8046875,-39.55078125,-178.22265625
-183.59375,-53.22265625,-42.48046875,-142.08984375
-170.41015625,-71.2890625,-43.45703125,-157.71484375
-165.52734375,-57.6171875,-42.96875,-172.36328125
-133.7890625,-39.55078125,-46.38671875,-138.18359375
-144.04296875,-71.2890625,-57.6171875,-142.578125
-132.32421875,-80.078125,-53.22265625,-110.3515625
-110.83984375,-83.49609375,-52.24609375,-104.4921875
-109.375,-69.82421875,-50.29296875,-121.58203125
-91.30859375,-36.62109375,-47.36328125,-90.33203125
-79.1015625,-44.43359375,-49.31640625,-73.73046875
-69.3359375,-54.19921875,-51.26953125,-54.6875
-74.21875,-76.66015625,-55.17578125,-64.453125
-77.1484375,-71.2890625,-55.6640625,-83.0078125
-50.78125,-34.66796875,-55.6640625,-56.15234375
-45.8984375,-44.43359375,-55.6640625,-41.9921875
-57.6171875,-65.91796875,-65.4296875,-32.71484375
-63.96484375,-86.9140625,-62.5,-41.50390625
-53.7109375,-75.1953125,-49.8046875,-55.6640625
-25.87890625,-37.109375,-49.31640625,-28.3203125
-18.06640625,-42.96875,-46.875,-22.94921875
-20.5078125,-55.17578125,-46.38671875,-4.8828125
-22.4609375,-68.84765625,-49.31640625,1.46484375
-34.66796875,-80.56640625,-54.19921875,-39.55078125
-17.578125,-44.921875,-52.24609375,-24.90234375
-2.44140625,-31.73828125,-48.33984375,-8.30078125
5.859375,-20.5078125,-52.24609375,4.39453125
0.0,-58.59375,-54.6875,7.32421875
-32.2265625,-101.07421875,-61.5234375,-39.0625
-3.41796875,-37.109375,-55.17578125,-18.06640625
21.484375,-19.04296875,-52.24609375,5.37109375
5.37109375,-36.1328125,-53.22265625,6.34765625
0.0,-44.43359375,-50.29296875,17.08984375
-19.04296875,-70.80078125,-54.6875,-17.578125
-9.765625,-38.0859375,-51.26953125,-14.6484375
16.11328125,-8.7890625,-41.9921875,7.32421875
6.34765625,-30.2734375,-42.48046875,17.578125
-4.39453125,-54.6875,-46.875,28.3203125
-13.18359375,-62.5,-45.41015625,-8.30078125
-24.90234375,-58.59375,-54.19921875,-28.80859375
-20.5078125,-58.59375,-57.12890625,-17.08984375
-5.859375,-40.0390625,-40.0390625,-0.48828125
-0.48828125,-41.9921875,-36.62109375,18.06640625
-17.08984375,-69.3359375,-38.57421875,-12.6953125
-25.87890625,-48.33984375,-40.0390625,-30.76171875
-5.859375,-20.99609375,-42.48046875,-7.8125
-0.9765625,-26.3671875,-38.57421875,-0.9765625
2.44140625,-33.203125,-36.1328125,13.671875
-8.30078125,-60.546875,-42.48046875,-9.27734375
-12.20703125,-47.8515625,-46.875,-30.2734375
6.34765625,-8.7890625,-51.7578125,0.0
-15.13671875,-33.203125,-58.10546875,-3.41796875
-23.92578125,-56.640625,-48.33984375,7.8125
-28.3203125,-68.84765625,-39.0625,-9.27734375
-44.43359375,-53.7109375,-45.41015625,-48.828125
-26.85546875,-26.3671875,-47.36328125,-26.3671875
-20.01953125,-34.1796875,-39.0625,-20.01953125
-22.94921875,-36.1328125,-41.015625,-5.859375
-23.92578125,-60.05859375,-51.7578125,-15.625
-35.15625,-60.546875,-56.15234375,-54.6875
-18.06640625,-17.08984375,-44.921875,-26.3671875
-14.6484375,-8.7890625,-30.76171875,-13.671875
-28.3203125,-12.20703125,-31.73828125,-8.7890625
-42.96875,-59.08203125,-39.55078125,-20.01953125
-55.17578125,-72.75390625,-43.45703125,-67.3828125
-31.73828125,-18.06640625,-40.52734375,-42.96875
-39.0625,-46.875,-53.7109375,-37.109375
-46.875,-48.33984375,-61.03515625,-31.73828125
-23.92578125,-44.921875,-46.38671875,-14.16015625
-32.71484375,-64.453125,-50.78125,-53.22265625
-20.01953125,-24.90234375,-50.29296875,-34.1796875
-14.6484375,-18.5546875,-39.55078125,-17.08984375
-24.4140625,-23.92578125,-34.1796875,-14.6484375
-22.94921875,-40.0390625,-34.1796875,-9.27734375
-36.1328125,-50.29296875,-37.109375,-45.8984375
-31.25,-24.4140625,-39.0625,-39.0625
-20.01953125,-18.5546875,-38.0859375,-18.5546875
-38.57421875,-32.2265625,-46.875,-21.484375
-47.8515625,-56.15234375,-54.19921875,-16.11328125
-51.26953125,-61.5234375,-48.33984375,-45.41015625
-42.48046875,-20.5078125,-42.96875,-46.875
-30.76171875,-26.85546875,-49.8046875,-32.71484375
-39.55078125,-38.57421875,-49.31640625,-28.80859375
-35.15625,-37.109375,-35.64453125,-5.37109375
-44.43359375,-71.2890625,-38.57421875,-42.48046875
-42.96875,-39.0625,-40.52734375,-54.6875
-25.390625,-4.8828125,-41.015625,-24.90234375
-30.76171875,-23.92578125,-39.0625,-30.76171875
-33.69140625,-41.9921875,-38.0859375,-19.04296875
-51.7578125,-84.47265625,-50.78125,-48.828125
-55.17578125,-63.4765625,-55.17578125,-65.91796875
-30.76171875,-21.484375,-42.48046875,-34.66796875
-33.69140625,-34.66796875,-36.62109375,-34.66796875
-20.99609375,-44.43359375,-33.69140625,-9.765625
-28.3203125,-65.4296875,-39.0625,-39.55078125
-44.921875,-43.9453125,-49.31640625,-77.1484375
-28.80859375,-25.87890625,-50.78125,-45.8984375
-39.0625,-48.33984375,-52.24609375,-47.8515625
-42.48046875,-38.57421875,-47.8515625,-35.15625
-51.26953125,-65.4296875,-43.9453125,-44.43359375
-70.3125,-80.56640625,-51.7578125,-81.54296875
-53.7109375,-51.26953125,-55.6640625,-54.6875
-42.48046875,-44.43359375,-45.8984375,-41.015625
-43.45703125,-37.109375,-45.41015625,-29.296875
-52.24609375,-65.91796875,-55.6640625,-42.48046875
-64.453125,-69.82421875,-59.08203125,-84.9609375
-44.921875,-19.53125,-54.19921875,-60.546875
-39.55078125,-28.3203125,-46.875,-47.36328125
-43.45703125,-46.38671875,-45.41015625,-36.62109375
-38.0859375,-65.4296875,-46.38671875,-33.69140625
-47.36328125,-58.59375,-47.36328125,-69.3359375
-36.62109375,-18.5546875,-41.9921875,-45.8984375
-40.52734375,-49.8046875,-50.78125,-34.1796875
-51.7578125,-57.6171875,-57.6171875,-31.25
-35.64453125,-46.875,-42.48046875,-18.06640625
-45.41015625,-69.82421875,-48.33984375,-59.5703125
-37.59765625,-38.57421875,-56.640625,-57.12890625
-35.64453125,-27.83203125,-50.29296875,-46.875
-52.24609375,-39.0625,-46.38671875,-46.38671875
-45.41015625,-49.8046875,-47.36328125,-36.62109375
-50.78125,-69.3359375,-50.78125,-68.359375
-45.8984375,-42.48046875,-51.7578125,-65.4296875
-34.66796875,-16.11328125,-45.41015625,-41.50390625
-41.50390625,-39.0625,-44.43359375,-41.015625
-42.48046875,-66.89453125,-49.8046875,-25.87890625
-43.9453125,-61.5234375,-47.8515625,-43.9453125
-40.0390625,-39.0625,-48.828125,-54.6875
-37.109375,-32.71484375,-50.78125,-38.0859375
-56.15234375,-38.57421875,-47.36328125,-34.1796875
-62.98828125,-47.8515625,-45.41015625,-18.5546875
-62.5,-73.2421875,-44.43359375,-50.29296875
-67.3828125,-58.59375,-45.41015625,-70.80078125
-60.05859375,-34.1796875,-46.38671875,-43.45703125
-59.08203125,-35.15625,-42.48046875,-34.1796875
-55.6640625,-29.296875,-40.52734375,-21.484375
-67.87109375,-67.87109375,-47.8515625,-57.6171875
-73.73046875,-74.70703125,-48.33984375,-80.56640625
-48.33984375,-28.3203125,-37.109375,-42.96875
-50.29296875,-26.85546875,-38.0859375,-40.52734375
-51.26953125,-33.69140625,-40.52734375,-32.2265625
-48.828125,-61.03515625,-37.109375,-44.43359375
-54.19921875,-64.453125,-36.62109375,-74.21875
-57.12890625,-35.64453125,-37.109375,-56.15234375
-71.77734375,-48.33984375,-41.015625,-49.8046875
-65.91796875,-46.38671875,-44.43359375,-30.76171875
-60.05859375,-53.22265625,-46.38671875,-41.015625
-65.91796875,-48.33984375,-46.875,-79.58984375
-55.17578125,-37.59765625,-49.31640625,-56.15234375
-51.7578125,-44.921875,-43.9453125,-45.8984375
-51.26953125,-32.2265625,-38.57421875,-32.2265625
-51.7578125,-51.26953125,-47.36328125,-34.66796875
-63.4765625,-63.96484375,-53.7109375,-74.21875
-38.57421875,-24.90234375,-42.96875,-37.109375
-26.85546875,-25.390625,-42.48046875,-21.484375
-62.01171875,-28.80859375,-46.875,-54.19921875
-67.3828125,-43.9453125,-46.875,-67.87109375
-80.56640625,-73.2421875,-55.17578125,-110.83984375
-93.26171875,-22.94921875,-54.19921875,-112.3046875
-108.3984375,-14.6484375,-62.98828125,-113.28125
-133.30078125,-44.43359375,-74.21875,-123.53515625
-125.0,-46.38671875,-66.40625,-116.2109375
-136.71875,-53.22265625,-67.3828125,-162.59765625
-146.97265625,-17.578125,-66.89453125,-167.96875
-143.5546875,-3.41796875,-66.40625,-147.4609375
-154.296875,-6.34765625,-72.75390625,-154.296875
-154.78515625,-11.23046875,-69.82421875,-149.4140625
-148.92578125,-40.0390625,-70.3125,-179.19921875
-147.4609375,-7.32421875,-71.2890625,-190.91796875
-143.06640625,15.625,-65.91796875,-171.875
-139.6484375,8.7890625,-70.80078125,-164.0625
-123.046875,9.765625,-74.70703125,-143.5546875
-125.0,-13.18359375,-77.1484375,-173.828125
-128.41796875,-1.46484375,-79.1015625,-188.96484375
-113.76953125,17.08984375,-79.1015625,-159.66796875
-129.8828125,8.7890625,-82.03125,-150.87890625
-125.9765625,2.44140625,-73.2421875,-125.9765625
-121.58203125,-24.4140625,-64.453125,-147.4609375
-123.046875,-14.6484375,-62.98828125,-158.203125
-103.02734375,0.48828125,-60.05859375,-123.046875
-101.5625,-10.25390625,-62.98828125,-120.60546875
-83.984375,-4.39453125,-63.4765625,-83.0078125
-72.75390625,-33.69140625,-57.12890625,-78.61328125
-75.1953125,-20.99609375,-56.15234375,-105.46875
-50.29296875,-6.34765625,-57.12890625,-72.265625
-52.24609375,-29.78515625,-51.7578125,-58.59375
-57.12890625,-33.69140625,-68.359375,-53.22265625
-56.640625,-78.125,-77.63671875,-77.1484375
-59.08203125,-78.61328125,-59.08203125,-105.95703125
-34.66796875,-29.78515625,-55.6640625,-68.359375
-25.390625,-28.80859375,-54.19921875,-49.31640625
-19.53125,-35.64453125,-53.7109375,-23.92578125
-18.5546875,-61.5234375,-53.7109375,-26.3671875
-26.85546875,-72.75390625,-46.38671875,-60.546875
0.0,-21.97265625,-41.50390625,-21.97265625
5.859375,-17.08984375,-46.875,-3.90625
-0.9765625,-39.55078125,-48.33984375,5.37109375
-5.37109375,-73.2421875,-49.8046875,3.41796875
-22.94921875,-94.23828125,-58.59375,-45.41015625
-6.34765625,-42.48046875,-53.22265625,-16.6015625
1.46484375,-25.87890625,-44.43359375,11.71875
-14.6484375,-39.55078125,-45.8984375,14.6484375
-11.71875,-67.87109375,-49.8046875,17.578125
-17.578125,-83.0078125,-48.33984375,-25.87890625
-17.08984375,-39.55078125,-41.50390625,-19.53125
-14.16015625,-41.9921875,-48.33984375,-5.37109375
-13.671875,-49.31640625,-51.26953125,2.44140625
2.9296875,-43.9453125,-41.50390625,18.06640625
-4.39453125,-73.2421875,-43.45703125,-25.390625
-1.953125,-55.6640625,-47.8515625,-29.78515625
6.34765625,-38.0859375,-46.875,-0.9765625
7.32421875,-36.1328125,-40.0390625,7.32421875
12.6953125,-42.96875,-37.109375,13.671875
8.30078125,-63.4765625,-37.109375,-23.4375
5.859375,-49.31640625,-35.64453125,-31.73828125
5.37109375,-29.78515625,-25.87890625,0.48828125
-10.25390625,-35.64453125,-28.80859375,0.0
-6.8359375,-59.5703125,-37.59765625,8.30078125
-1.46484375,-78.61328125,-39.0625,-21.97265625
2.44140625,-37.109375,-37.59765625,-34.66796875
16.11328125,-20.01953125,-33.69140625,0.9765625
-2.44140625,-54.19921875,-41.015625,-7.32421875
-4.8828125,-53.7109375,-40.52734375,9.765625
-11.71875,-71.77734375,-46.38671875,-8.30078125
-33.69140625,-62.5,-43.9453125,-38.57421875
-16.6015625,-28.80859375,-32.71484375,-8.30078125
-10.25390625,-34.66796875,-40.52734375,-6.34765625
-5.37109375,-41.015625,-44.43359375,9.27734375
-12.6953125,-63.4765625,-43.45703125,-6.8359375
-25.87890625,-57.12890625,-42.48046875,-44.921875
-6.8359375,-20.01953125,-33.203125,-6.34765625
-5.37109375,-11.23046875,-29.78515625,6.8359375
-15.13671875,-36.1328125,-41.9921875,3.90625
-27.83203125,-91.796875,-45.8984375,-22.94921875
-26.3671875,-69.3359375,-37.59765625,-51.7578125
-13.18359375,-23.92578125,-36.62109375,-18.06640625
-16.11328125,-41.015625,-38.57421875,-15.13671875
-20.5078125,-41.015625,-37.109375,-7.8125
-26.3671875,-51.26953125,-36.62109375,-10.7421875
-38.57421875,-64.453125,-46.38671875,-59.5703125
-24.90234375,-30.2734375,-47.8515625,-41.50390625
-22.4609375,-32.71484375,-47.36328125,-24.90234375
-31.25,-37.59765625,-47.8515625,-19.53125
-27.34375,-36.62109375,-45.41015625,-15.13671875
-52.24609375,-83.49609375,-55.6640625,-65.4296875
-51.26953125,-60.546875,-53.22265625,-57.6171875
-37.109375,-26.3671875,-48.33984375,-30.76171875
-45.41015625,-44.921875,-50.78125,-28.3203125
-43.45703125,-66.89453125,-54.6875,-28.80859375
-44.43359375,-75.1953125,-59.08203125,-61.5234375
-43.9453125,-39.0625,-51.26953125,-60.546875
-34.66796875,-20.5078125,-41.50390625,-37.109375
-39.0625,-32.71484375,-38.0859375,-30.2734375
-34.1796875,-49.31640625,-35.15625,-14.16015625
-38.57421875,-66.40625,-38.0859375,-44.43359375
-45.8984375,-36.62109375,-46.38671875,-59.5703125
-40.52734375,-33.203125,-46.38671875,-36.1328125
-42.96875,-49.8046875,-41.015625,-27.34375
-42.48046875,-52.734375,-37.109375,-20.5078125
-51.26953125,-79.58984375,-39.0625,-57.12890625
-53.7109375,-57.12890625,-47.36328125,-73.2421875
-39.55078125,-27.34375,-45.8984375,-43.9453125
-45.41015625,-43.9453125,-47.36328125,-37.59765625
-44.921875,-62.5,-55.6640625,-27.34375
-47.36328125,-77.1484375,-54.19921875,-54.19921875
-41.015625,-57.6171875,-54.6875,-69.82421875
-19.53125,-28.3203125,-54.19921875,-37.59765625
-22.94921875,-21.484375,-44.43359375,-32.71484375
-17.08984375,-44.921875,-40.0390625,-17.08984375
-20.01953125,-68.84765625,-46.875,-36.62109375
-41.50390625,-60.05859375,-48.33984375,-74.21875
-41.50390625,-48.828125,-43.9453125,-57.6171875
-40.0390625,-42.48046875,-37.109375,-49.8046875
-37.109375,-32.2265625,-38.0859375,-32.2265625
-40.0390625,-60.05859375,-47.36328125,-52.734375
-49.8046875,-62.5,-48.828125,-87.890625
-27.83203125,-27.34375,-44.921875,-53.7109375
-26.3671875,-45.8984375,-39.0625,-46.38671875
-33.69140625,-44.43359375,-41.50390625,-30.76171875
-35.64453125,-46.38671875,-50.78125,-29.78515625
-47.8515625,-59.5703125,-47.36328125,-67.3828125
-40.0390625,-32.71484375,-41.50390625,-44.921875
-40.52734375,-26.85546875,-37.59765625,-34.1796875
-46.38671875,-36.1328125,-39.55078125,-27.34375
-38.57421875,-53.22265625,-37.59765625,-24.90234375
-53.22265625,-59.08203125,-38.0859375,-66.89453125
-48.33984375,-30.76171875,-44.921875,-46.875
-48.828125,-37.109375,-45.8984375,-36.1328125
-59.08203125,-25.87890625,-48.828125,-32.71484375
-48.828125,-45.41015625,-46.875,-20.99609375
-58.59375,-83.0078125,-53.22265625,-72.265625
-42.48046875,-26.3671875,-49.31640625,-60.05859375
-26.85546875,-20.01953125,-35.15625,-33.69140625
-49.8046875,-53.7109375,-37.109375,-40.0390625
-48.33984375,-57.6171875,-45.41015625,-28.3203125
-53.7109375,-68.84765625,-46.875,-61.03515625
-51.7578125,-41.50390625,-45.8984375,-62.98828125
-41.50390625,-33.203125,-45.8984375,-41.9921875
-56.640625,-48.33984375,-50.29296875,-42.96875
-46.38671875,-47.8515625,-43.45703125,-21.484375
-47.8515625,-70.80078125,-45.41015625,-50.29296875
-52.734375,-60.05859375,-54.19921875,-61.5234375
-38.57421875,-32.2265625,-47.8515625,-33.203125
-42.96875,-23.4375,-38.57421875,-31.73828125
-42.96875,-43.9453125,-32.71484375,-16.6015625
-53.7109375,-78.125,-41.50390625,-53.7109375
-51.26953125,-54.19921875,-50.29296875,-75.1953125
-26.3671875,-24.4140625,-40.52734375,-27.34375
-45.8984375,-36.1328125,-41.9921875,-22.94921875
-54.19921875,-54.6875,-52.734375,-16.6015625
-58.59375,-74.70703125,-48.828125,-39.55078125
-71.2890625,-58.10546875,-42.96875,-72.265625
-55.6640625,-30.2734375,-37.59765625,-39.55078125
-47.8515625,-39.55078125,-31.25,-26.85546875
-48.33984375,-38.0859375,-37.59765625,-15.625
-43.45703125,-44.43359375,-41.9921875,-32.2265625
-56.15234375,-61.5234375,-50.78125,-72.75390625
-54.19921875,-45.41015625,-57.6171875,-49.31640625
-43.45703125,-31.25,-51.26953125,-35.15625
-41.50390625,-36.62109375,-47.8515625,-20.01953125
-42.48046875,-57.12890625,-48.33984375,-31.73828125
-46.38671875,-47.36328125,-45.41015625,-67.87109375
-33.69140625,-21.484375,-43.9453125,-41.015625
-37.109375,-37.59765625,-42.96875,-33.69140625
-43.9453125,-41.9921875,-41.50390625,-29.78515625
-36.62109375,-61.03515625,-45.41015625,-32.71484375
-44.43359375,-65.4296875,-44.43359375,-69.3359375
-30.2734375,-9.765625,-41.9921875,-45.8984375
-32.71484375,-26.85546875,-42.96875,-37.109375
-50.78125,-46.875,-41.9921875,-35.15625
-46.38671875,-47.8515625,-42.96875,-22.4609375
-53.7109375,-63.96484375,-53.22265625,-63.96484375
-41.015625,-29.78515625,-58.10546875,-58.10546875
-34.1796875,-21.97265625,-54.6875,-34.1796875
-36.1328125,-27.83203125,-48.828125,-27.34375
-31.73828125,-34.1796875,-49.8046875,-20.99609375
-59.5703125,-68.84765625,-51.26953125,-67.87109375
-54.6875,-54.6875,-47.8515625,-72.265625
-33.69140625,-24.4140625,-41.015625,-44.921875
-49.31640625,-26.3671875,-39.55078125,-40.0390625
-57.6171875,-67.3828125,-51.26953125,-34.66796875
-62.98828125,-89.84375,-48.828125,-67.3828125
-57.12890625,-44.921875,-43.45703125,-70.3125
-41.015625,-27.34375,-42.96875,-41.9921875
-48.33984375,-43.9453125,-48.33984375,-39.55078125
-50.29296875,-53.22265625,-48.828125,-24.4140625
-59.08203125,-67.3828125,-41.9921875,-51.7578125
-57.12890625,-43.45703125,-44.921875,-65.91796875
-37.59765625,-21.97265625,-51.26953125,-33.69140625
-47.36328125,-35.15625,-52.24609375,-31.73828125
-55.6640625,-43.9453125,-46.38671875,-18.5546875
-67.87109375,-64.453125,-45.41015625,-42.48046875
-71.77734375,-53.22265625,-50.29296875,-66.40625
-41.9921875,-27.83203125,-50.29296875,-31.73828125
-32.2265625,-32.2265625,-43.45703125,-23.92578125
-47.36328125,-46.875,-51.26953125,-25.87890625
-67.3828125,-80.56640625,-59.08203125,-57.6171875
-66.89453125,-60.546875,-48.828125,-84.47265625
-44.921875,-18.5546875,-44.921875,-50.78125
-46.875,-28.80859375,-49.8046875,-44.921875
-46.38671875,-30.76171875,-50.78125,-31.73828125
-41.9921875,-58.59375,-50.78125,-43.45703125
-53.7109375,-59.08203125,-51.26953125,-86.42578125
-34.66796875,-11.71875,-49.8046875,-58.10546875
-32.71484375,-30.2734375,-53.22265625,-48.828125
-37.59765625,-39.0625,-53.22265625,-41.9921875
-43.45703125,-57.12890625,-58.59375,-45.41015625
-66.40625,-82.03125,-66.89453125,-93.75
-46.875,-33.69140625,-53.22265625,-68.359375
-34.66796875,-25.87890625,-52.24609375,-45.8984375
-46.875,-41.015625,-66.89453125,-47.36328125
-47.36328125,-51.26953125,-63.96484375,-46.875
-58.10546875,-62.5,-55.17578125,-83.49609375
-49.31640625,-23.92578125,-49.31640625,-72.265625
-41.50390625,-25.87890625,-47.36328125,-54.19921875
-50.78125,-37.109375,-47.36328125,-47.36328125
-53.22265625,-57.6171875,-44.43359375,-39.0625
-64.453125,-86.42578125,-50.29296875,-72.265625
-61.03515625,-51.26953125,-59.08203125,-70.3125
-41.015625,-34.1796875,-56.15234375,-49.8046875
-35.64453125,-32.2265625,-47.36328125,-38.57421875
-43.45703125,-50.78125,-46.875,-27.34375
-63.4765625,-89.84375,-51.26953125,-73.73046875
-61.03515625,-47.36328125,-45.8984375,-71.77734375
-44.43359375,-23.4375,-37.59765625,-31.25
-59.5703125,-47.36328125,-42.96875,-38.57421875
-62.5,-49.31640625,-50.78125,-30.76171875
-64.94140625,-54.19921875,-54.6875,-60.05859375
-63.96484375,-46.38671875,-49.31640625,-72.265625
-48.33984375,-37.59765625,-49.8046875,-48.33984375
-60.05859375,-49.31640625,-55.17578125,-59.08203125
-47.36328125,-42.48046875,-47.8515625,-41.50390625
-52.24609375,-62.5,-42.48046875,-63.96484375
-68.359375,-56.15234375,-43.45703125,-91.30859375
-44.921875,-21.484375,-41.9921875,-58.10546875
-39.0625,-23.4375,-43.9453125,-51.26953125
-35.15625,-27.34375,-46.875,-35.15625
-49.8046875,-76.66015625,-50.78125,-54.6875
-63.4765625,-67.87109375,-52.24609375,-83.49609375
-34.66796875,-11.23046875,-50.78125,-47.8515625
-31.73828125,-30.76171875,-48.828125,-41.015625
-42.96875,-62.01171875,-53.22265625,-30.76171875
-59.5703125,-87.40234375,-61.5234375,-46.38671875
-67.3828125,-72.75390625,-51.26953125,-72.265625
-34.66796875,-20.99609375,-39.55078125,-35.15625
-30.2734375,-27.34375,-42.48046875,-26.85546875
-36.1328125,-43.45703125,-43.9453125,-19.04296875
-48.33984375,-69.82421875,-40.0390625,-36.1328125
-72.265625,-71.77734375,-42.96875,-78.61328125
-35.64453125,-21.484375,-44.921875,-48.33984375
-22.4609375,-25.87890625,-47.8515625,-37.59765625
-35.15625,-19.04296875,-44.921875,-29.78515625
-39.0625,-42.96875,-41.9921875,-32.2265625
-70.80078125,-92.7734375,-53.7109375,-88.8671875
-47.8515625,-40.52734375,-48.33984375,-70.80078125
-24.4140625,-20.99609375,-36.62109375,-42.96875
-40.0390625,-32.2265625,-31.25,-40.0390625
-50.78125,-45.8984375,-29.78515625,-35.15625
-79.58984375,-73.73046875,-37.59765625,-78.61328125
-67.3828125,-42.48046875,-36.1328125,-68.359375
-37.59765625,-26.85546875,-36.1328125,-42.48046875
-45.41015625,-44.43359375,-40.0390625,-35.15625
-44.43359375,-53.22265625,-36.1328125,-19.53125
-51.7578125,-54.6875,-33.203125,-51.26953125
-49.8046875,-49.31640625,-42.96875,-54.19921875
-25.87890625,-43.9453125,-46.38671875,-33.69140625
-17.08984375,-20.01953125,-41.015625,-26.85546875
-14.6484375,-41.015625,-50.78125,-17.578125
-42.96875,-83.0078125,-52.24609375,-52.24609375
-47.36328125,-43.9453125,-42.48046875,-64.94140625
-17.08984375,-12.20703125,-37.109375,-41.50390625
-34.66796875,-28.80859375,-37.59765625,-43.45703125
-51.7578125,-44.43359375,-44.43359375,-34.66796875
-74.70703125,-72.75390625,-51.7578125,-66.89453125
-72.75390625,-47.8515625,-48.828125,-84.9609375
-35.64453125,-6.8359375,-42.48046875,-49.31640625
-46.38671875,-34.1796875,-47.36328125,-50.78125
-53.7109375,-50.29296875,-45.8984375,-32.2265625
-60.546875,-62.5,-39.55078125,-52.734375
-68.359375,-52.734375,-50.29296875,-90.8203125
-41.9921875,-15.13671875,-55.6640625,-50.29296875
-41.50390625,-21.484375,-53.7109375,-46.875
-51.7578125,-38.0859375,-52.734375,-42.96875
-71.2890625,-73.2421875,-51.26953125,-58.10546875
-72.75390625,-63.4765625,-52.734375,-90.8203125
-41.9921875,-24.4140625,-53.7109375,-61.5234375
-44.921875,-29.78515625,-52.734375,-51.7578125
-41.9921875,-21.97265625,-51.26953125,-28.3203125
-47.8515625,-55.6640625,-53.7109375,-47.8515625
-57.12890625,-64.94140625,-60.546875,-91.796875
-15.13671875,-10.25390625,-45.41015625,-42.48046875
-40.0390625,-38.0859375,-41.9921875,-53.7109375
-78.125,-53.7109375,-52.24609375,-69.82421875
-80.078125,-69.82421875,-44.921875,-62.01171875
-114.2578125,-97.65625,-47.36328125,-118.1640625
-93.26171875,-42.96875,-45.8984375,-100.5859375
-79.58984375,-44.921875,-40.52734375,-86.9140625
-96.6796875,-71.2890625,-45.41015625,-91.796875
-109.375,-88.37890625,-44.43359375,-85.44921875
-150.87890625,-95.21484375,-44.921875,-141.11328125
-133.30078125,-62.98828125,-50.29296875,-134.765625
-110.3515625,-70.80078125,-41.50390625,-104.4921875
-136.71875,-83.49609375,-41.015625,-110.3515625
-142.578125,-95.703125,-42.96875,-100.5859375
-159.66796875,-122.0703125,-38.0859375,-133.30078125
-133.30078125,-80.078125,-36.62109375,-115.234375
-104.4921875,-64.94140625,-39.0625,-87.40234375
-120.1171875,-94.23828125,-45.8984375,-99.609375
-112.79296875,-93.75,-37.59765625,-71.77734375
-128.90625,-115.234375,-38.0859375,-95.21484375
-108.3984375,-83.984375,-41.9921875,-95.703125
-76.171875,-52.24609375,-34.1796875,-66.40625
-91.796875,-69.3359375,-37.109375,-72.265625
-95.21484375,-94.23828125,-41.50390625,-59.08203125
-112.79296875,-127.9296875,-50.78125,-96.19140625
-113.76953125,-97.16796875,-54.6875,-114.2578125
-65.4296875,-54.19921875,-38.0859375,-62.98828125
-70.80078125,-55.6640625,-42.96875,-58.10546875
-86.9140625,-49.31640625,-45.41015625,-46.875
-114.74609375,-85.9375,-41.50390625,-79.1015625
-127.44140625,-75.68359375,-43.45703125,-111.328125
-92.28515625,-33.203125,-40.52734375,-80.078125
-97.16796875,-37.59765625,-42.48046875,-86.42578125
-103.515625,-36.62109375,-41.9921875,-78.61328125
-116.2109375,-82.51953125,-45.8984375,-95.703125
-125.9765625,-77.63671875,-52.24609375,-132.32421875
-93.26171875,-34.1796875,-59.5703125,-107.91015625
-85.9375,-48.33984375,-53.7109375,-95.21484375
-86.9140625,-42.48046875,-44.921875,-76.66015625
-91.30859375,-70.3125,-51.26953125,-86.42578125
-107.91015625,-79.1015625,-56.640625,-121.58203125
-80.56640625,-35.15625,-47.8515625,-74.70703125
-54.6875,-40.52734375,-40.0390625,-42.96875
-47.36328125,-47.36328125,-43.45703125,-27.34375
-46.38671875,-65.91796875,-42.96875,-21.97265625
-56.640625,-68.359375,-41.9921875,-59.08203125
-20.99609375,-37.109375,-41.9921875,-25.390625
-13.18359375,-50.78125,-48.33984375,-5.37109375
-25.87890625,-52.24609375,-53.7109375,0.9765625
-21.484375,-70.3125,-47.36328125,4.39453125
-47.8515625,-82.03125,-52.24609375,-43.9453125
-25.87890625,-37.59765625,-55.6640625,-21.97265625
-2.44140625,-41.015625,-50.78125,0.9765625
-8.7890625,-46.875,-44.43359375,8.30078125
-4.39453125,-52.734375,-39.0625,23.4375
-21.484375,-82.03125,-44.921875,-20.99609375
-7.32421875,-51.26953125,-51.26953125,-17.08984375
24.90234375,-15.13671875,-46.875,17.08984375
23.92578125,-38.57421875,-43.45703125,21.484375
17.08984375,-70.3125,-45.41015625,29.296875
-5.37109375,-81.54296875,-45.41015625,1.46484375
0.48828125,-41.50390625,-45.41015625,5.37109375
29.78515625,-22.94921875,-42.96875,34.66796875
24.4140625,-33.69140625,-41.9921875,34.1796875
21.484375,-45.41015625,-42.48046875,48.33984375
0.9765625,-73.73046875,-46.38671875,17.578125
-8.30078125,-55.17578125,-51.7578125,-4.8828125
17.08984375,-36.62109375,-46.38671875,24.90234375
11.71875,-37.59765625,-43.9453125,30.2734375
0.48828125,-31.73828125,-41.9921875,36.62109375
-25.87890625,-74.70703125,-46.875,-0.9765625
-32.2265625,-71.2890625,-51.7578125,-24.4140625
10.25390625,-25.390625,-39.55078125,14.16015625
13.671875,-31.25,-35.15625,12.6953125
12.6953125,-31.25,-35.64453125,25.390625
-0.48828125,-58.59375,-39.0625,7.32421875
-22.94921875,-53.7109375,-45.8984375,-31.73828125
2.44140625,-9.765625,-43.9453125,-4.39453125
5.37109375,-23.4375,-48.33984375,-1.46484375
-6.8359375,-40.52734375,-50.29296875,6.34765625
-20.99609375,-62.5,-49.31640625,-5.37109375
-33.69140625,-55.17578125,-59.08203125,-41.015625
-12.20703125,-37.109375,-63.96484375,-14.16015625
-3.41796875,-57.12890625,-50.29296875,1.46484375
2.44140625,-43.45703125,-42.48046875,19.53125
-8.30078125,-58.10546875,-52.24609375,4.39453125
-25.87890625,-75.1953125,-57.6171875,-44.43359375
-1.953125,-28.80859375,-50.29296875,-21.97265625
-5.859375,-30.2734375,-44.43359375,-10.7421875
-20.99609375,-46.875,-42.96875,-6.8359375
-24.90234375,-63.96484375,-47.8515625,-11.71875
-45.41015625,-80.078125,-47.8515625,-53.22265625
-20.99609375,-28.80859375,-42.48046875,-28.80859375
-4.39453125,-22.4609375,-48.33984375,-13.671875
-17.578125,-51.7578125,-47.36328125,-14.6484375
-18.5546875,-61.03515625,-42.96875,-3.41796875
-36.62109375,-76.66015625,-46.38671875,-40.52734375
-34.1796875,-57.6171875,-47.8515625,-42.48046875
-25.87890625,-42.96875,-47.8515625,-18.5546875
-20.99609375,-44.921875,-42.96875,2.44140625
-34.66796875,-60.546875,-32.71484375,-6.34765625
-83.49609375,-82.03125,-37.59765625,-77.63671875
-72.75390625,-41.9921875,-45.8984375,-79.58984375
-38.57421875,-28.3203125,-42.48046875,-44.921875
-46.38671875,-41.015625,-43.9453125,-41.015625
-41.50390625,-39.0625,-45.8984375,-24.90234375
-53.22265625,-77.63671875,-46.875,-61.03515625
-56.640625,-63.96484375,-45.8984375,-71.77734375
-32.2265625,-27.83203125,-43.45703125,-37.109375
-49.31640625,-44.921875,-48.828125,-41.50390625
-47.36328125,-54.19921875,-43.45703125,-22.94921875
-54.19921875,-74.70703125,-48.828125,-47.36328125
-63.4765625,-61.5234375,-54.6875,-65.91796875
-29.78515625,-32.71484375,-48.33984375,-32.2265625
-25.87890625,-38.57421875,-47.36328125,-30.76171875
-27.83203125,-41.9921875,-43.9453125,-11.71875
-40.0390625,-65.4296875,-42.48046875,-33.203125
-47.36328125,-40.52734375,-50.29296875,-63.96484375
-16.6015625,-16.11328125,-47.36328125,-32.2265625
-21.484375,-32.71484375,-38.0859375,-30.2734375
-40.0390625,-42.96875,-50.78125,-29.296875
-46.38671875,-74.21875,-53.7109375,-43.9453125
-42.96875,-60.05859375,-44.43359375,-71.2890625
-13.671875,-18.5546875,-45.41015625,-36.62109375
-10.25390625,-33.69140625,-43.9453125,-27.83203125
-18.5546875,-40.0390625,-43.45703125,-20.5078125
-32.2265625,-57.12890625,-42.48046875,-25.390625
-54.19921875,-73.73046875,-46.875,-62.98828125
-24.90234375,-27.83203125,-48.828125,-35.64453125
-10.25390625,-12.20703125,-40.52734375,-16.6015625
-23.92578125,-34.1796875,-36.62109375,-1.953125
-32.2265625,-66.40625,-48.828125,-6.8359375
-58.59375,-81.0546875,-65.91796875,-56.640625
-40.52734375,-32.71484375,-50.78125,-33.203125
-18.5546875,-17.578125,-31.25,-14.6484375
-22.4609375,-29.296875,-38.57421875,-20.5078125
-37.59765625,-51.26953125,-45.41015625,-20.5078125
-61.03515625,-63.96484375,-47.8515625,-62.98828125
-36.62109375,-20.5078125,-48.33984375,-52.734375
-20.5078125,-19.53125,-45.41015625,-33.203125
-23.92578125,-27.83203125,-43.45703125,-38.57421875
-31.73828125,-32.71484375,-43.9453125,-34.66796875
-69.82421875,-70.3125,-50.29296875,-73.73046875
-60.546875,-50.29296875,-54.19921875,-73.2421875
-35.15625,-29.78515625,-46.38671875,-44.43359375
-41.50390625,-40.0390625,-40.52734375,-39.55078125
-41.9921875,-54.6875,-42.96875,-28.3203125
-58.59375,-74.70703125,-43.45703125,-57.6171875
-49.8046875,-38.57421875,-40.0390625,-59.5703125
-21.484375,-23.92578125,-46.38671875,-33.203125
-28.80859375,-36.1328125,-51.7578125,-25.390625
-35.15625,-56.15234375,-54.6875,-14.16015625
-45.8984375,-83.0078125,-55.6640625,-48.828125
-35.15625,-36.1328125,-42.48046875,-55.17578125
-15.13671875,-26.3671875,-39.0625,-23.4375
-26.85546875,-49.31640625,-47.36328125,-28.3203125
-24.90234375,-32.2265625,-40.52734375,-15.625
-39.55078125,-62.5,-34.66796875,-40.52734375
-46.875,-54.19921875,-38.0859375,-64.94140625
-21.97265625,-21.484375,-38.0859375,-37.109375
-23.92578125,-32.2265625,-34.1796875,-39.0625
-22.94921875,-40.0390625,-35.64453125,-26.3671875
-34.1796875,-67.3828125,-44.921875,-41.50390625
-45.41015625,-62.98828125,-50.78125,-70.80078125
-19.04296875,-21.97265625,-45.8984375,-40.52734375
-13.671875,-12.20703125,-48.33984375,-33.69140625
-28.80859375,-37.109375,-56.15234375,-21.97265625
-47.8515625,-76.66015625,-58.10546875,-32.2265625
-55.17578125,-59.08203125,-49.8046875,-65.91796875
-35.64453125,-22.4609375,-42.48046875,-41.015625
-34.1796875,-26.85546875,-42.48046875,-31.25
-43.45703125,-32.2265625,-41.015625,-16.11328125
-50.78125,-61.03515625,-40.0390625,-24.4140625
-66.40625,-69.3359375,-43.9453125,-72.265625
-46.875,-37.109375,-45.41015625,-49.31640625
-37.59765625,-38.57421875,-48.33984375,-35.15625
-42.96875,-36.1328125,-47.8515625,-31.25
-46.38671875,-44.921875,-49.31640625,-31.25
-73.2421875,-85.9375,-61.5234375,-78.125
-59.08203125,-50.29296875,-54.6875,-64.94140625
-41.015625,-27.83203125,-47.8515625,-41.015625
-45.41015625,-34.66796875,-47.8515625,-34.66796875
-41.50390625,-45.41015625,-37.109375,-25.390625
-63.4765625,-68.84765625,-38.0859375,-68.359375
-55.6640625,-35.15625,-42.48046875,-63.4765625
-37.109375,-19.04296875,-38.57421875,-34.1796875
-47.8515625,-27.34375,-40.52734375,-28.80859375
-55.17578125,-58.10546875,-41.9921875,-22.94921875
-68.84765625,-79.58984375,-39.0625,-61.03515625
-56.640625,-34.66796875,-41.50390625,-61.03515625
-35.64453125,-34.66796875,-43.9453125,-41.50390625
-45.41015625,-47.36328125,-41.50390625,-40.52734375
-41.9921875,-40.52734375,-35.15625,-14.6484375
-53.22265625,-73.73046875,-34.1796875,-47.8515625
-52.24609375,-50.78125,-36.62109375,-60.546875
-21.97265625,-14.16015625,-34.1796875,-28.3203125
-27.83203125,-22.94921875,-37.59765625,-30.76171875
-28.3203125,-37.59765625,-41.50390625,-11.71875
-40.0390625,-70.80078125,-47.8515625,-37.109375
-36.1328125,-44.921875,-50.29296875,-60.05859375
-7.32421875,-8.7890625,-40.52734375,-25.390625
-32.2265625,-10.25390625,-37.59765625,-31.25
-54.6875,-27.34375,-47.36328125,-32.2265625
-57.6171875,-73.2421875,-49.31640625,-48.33984375
-65.4296875,-64.453125,-46.875,-81.0546875
-52.734375,-35.64453125,-47.8515625,-61.5234375
-46.875,-42.48046875,-43.9453125,-49.31640625
-42.48046875,-40.0390625,-43.9453125,-33.203125
-45.8984375,-62.01171875,-44.43359375,-43.45703125
-61.5234375,-60.546875,-48.33984375,-76.171875
-39.0625,-19.04296875,-48.828125,-46.875
-28.80859375,-33.69140625,-39.55078125,-37.109375
-40.52734375,-40.52734375,-39.55078125,-29.296875
-44.43359375,-49.8046875,-38.0859375,-27.83203125
-56.640625,-74.21875,-37.59765625,-65.4296875
-49.31640625,-38.0859375,-39.0625,-48.828125
-48.33984375,-35.15625,-42.96875,-39.55078125
-51.7578125,-56.640625,-45.8984375,-30.2734375
-47.36328125,-68.359375,-40.52734375,-26.3671875
-62.98828125,-82.03125,-46.38671875,-67.87109375
-41.50390625,-39.0625,-46.875,-46.875
-30.2734375,-26.85546875,-40.52734375,-33.69140625
-41.015625,-32.2265625,-37.59765625,-30.76171875
-38.0859375,-57.12890625,-38.57421875,-20.01953125
-53.22265625,-84.9609375,-45.8984375,-63.4765625
-39.55078125,-34.1796875,-48.33984375,-56.640625
-28.3203125,-28.80859375,-46.38671875,-33.203125
-48.33984375,-51.26953125,-46.875,-36.1328125
-54.6875,-59.5703125,-49.8046875,-36.1328125
-68.359375,-77.63671875,-54.19921875,-73.2421875
-59.5703125,-44.921875,-53.22265625,-68.359375
-47.36328125,-32.2265625,-53.22265625,-44.921875
-62.5,-52.24609375,-54.6875,-49.8046875
-57.12890625,-51.26953125,-51.7578125,-35.64453125
-61.5234375,-67.3828125,-51.26953125,-71.77734375
-58.10546875,-43.45703125,-49.31640625,-88.37890625
-42.48046875,-24.4140625,-44.43359375,-51.7578125
-55.17578125,-34.66796875,-38.57421875,-43.9453125
-56.15234375,-48.828125,-38.0859375,-26.3671875
-80.078125,-95.703125,-49.8046875,-59.5703125
-82.51953125,-67.87109375,-52.734375,-70.80078125
-41.015625,-18.5546875,-43.45703125,-17.578125
-43.9453125,-32.71484375,-46.38671875,-21.484375
-51.26953125,-43.45703125,-46.875,-8.30078125
-60.546875,-74.21875,-49.31640625,-28.80859375
-64.453125,-60.546875,-48.33984375,-65.4296875
-42.96875,-21.484375,-40.52734375,-36.62109375
-53.7109375,-50.29296875,-43.45703125,-37.59765625
-60.546875,-51.26953125,-44.921875,-27.83203125
-65.4296875,-62.98828125,-44.921875,-43.45703125
-77.1484375,-75.68359375,-50.78125,-84.47265625
-61.5234375,-48.828125,-54.6875,-61.03515625
-61.03515625,-40.52734375,-53.7109375,-51.26953125
-60.05859375,-39.0625,-51.7578125,-33.69140625
-64.453125,-69.82421875,-52.734375,-45.41015625
-84.9609375,-77.1484375,-54.19921875,-88.8671875
-65.91796875,-30.76171875,-45.8984375,-63.96484375
-53.7109375,-28.3203125,-46.38671875,-54.19921875
-62.5,-39.55078125,-53.7109375,-43.45703125
-64.453125,-64.94140625,-48.828125,-45.8984375
-66.40625,-70.80078125,-45.41015625,-79.58984375
-35.64453125,-16.11328125,-42.48046875,-45.41015625
-40.0390625,-32.2265625,-53.7109375,-46.875
-66.40625,-67.87109375,-63.4765625,-52.734375
-54.6875,-67.87109375,-51.26953125,-28.80859375
-64.94140625,-69.82421875,-49.8046875,-65.91796875
-55.6640625,-30.76171875,-51.7578125,-59.08203125
-41.015625,-25.87890625,-49.31640625,-37.109375
-49.31640625,-33.203125,-46.875,-32.71484375
-48.33984375,-46.38671875,-48.828125,-26.3671875
-54.6875,-66.89453125,-48.828125,-65.4296875
-50.78125,-35.15625,-48.33984375,-60.05859375
-38.0859375,-25.390625,-45.41015625,-31.25
-44.921875,-26.85546875,-50.78125,-27.34375
-55.6640625,-62.01171875,-60.05859375,-21.484375
-72.75390625,-88.37890625,-51.26953125,-60.546875
-66.89453125,-37.59765625,-41.9921875,-67.3828125
-48.828125,-30.76171875,-51.7578125,-42.48046875
-53.7109375,-53.22265625,-54.19921875,-46.875
-51.26953125,-48.33984375,-42.48046875,-35.15625
-66.40625,-69.82421875,-43.9453125,-64.453125
-72.75390625,-52.24609375,-46.38671875,-79.1015625
-44.43359375,-21.97265625,-41.50390625,-42.48046875
-48.828125,-36.62109375,-41.015625,-40.0390625
-55.6640625,-43.9453125,-41.50390625,-28.3203125
-66.40625,-67.87109375,-48.33984375,-57.6171875
-76.66015625,-64.94140625,-53.22265625,-87.890625
-53.22265625,-31.25,-46.875,-56.640625
-59.5703125,-31.73828125,-41.9921875,-52.24609375
-66.89453125,-43.9453125,-46.875,-38.57421875
-70.3125,-78.61328125,-53.7109375,-58.10546875
-72.75390625,-65.4296875,-56.15234375,-89.35546875
-45.41015625,-34.66796875,-49.31640625,-51.7578125
-46.875,-44.921875,-45.8984375,-44.921875
-45.8984375,-44.43359375,-46.38671875,-28.80859375
-44.43359375,-66.40625,-45.8984375,-32.2265625
-57.6171875,-60.05859375,-53.22265625,-72.75390625
-36.1328125,-9.27734375,-51.7578125,-43.9453125
-40.52734375,-32.2265625,-45.8984375,-35.64453125
-49.8046875,-42.48046875,-43.45703125,-26.3671875
-61.03515625,-62.98828125,-47.8515625,-30.76171875
-84.9609375,-75.68359375,-55.17578125,-77.63671875
-60.546875,-27.34375,-43.9453125,-52.24609375
-43.9453125,-26.85546875,-41.9921875,-38.0859375
-49.31640625,-36.1328125,-49.31640625,-31.25
-42.96875,-51.26953125,-46.38671875,-31.25
-54.19921875,-64.94140625,-47.8515625,-75.1953125
-55.17578125,-33.69140625,-45.8984375,-63.96484375
-53.22265625,-24.90234375,-47.36328125,-51.26953125
-55.6640625,-25.87890625,-49.31640625,-48.33984375
-50.29296875,-43.45703125,-44.43359375,-38.57421875
-65.4296875,-75.68359375,-42.48046875,-79.1015625
-61.5234375,-40.52734375,-40.0390625,-71.2890625
-51.7578125,-25.87890625,-37.109375,-48.33984375
-59.08203125,-38.0859375,-36.1328125,-47.8515625
-61.5234375,-52.734375,-35.64453125,-33.69140625
-82.03125,-86.9140625,-37.59765625,-77.1484375
-80.56640625,-56.15234375,-38.0859375,-83.0078125
-59.5703125,-27.83203125,-34.66796875,-51.26953125
-62.01171875,-39.55078125,-37.59765625,-46.875
-50.29296875,-43.9453125,-41.50390625,-26.3671875
-58.10546875,-55.6640625,-38.57421875,-54.6875
-60.546875,-42.96875,-35.64453125,-62.98828125
-41.015625,-40.0390625,-35.64453125,-35.15625
-54.19921875,-50.29296875,-46.38671875,-44.43359375
-44.43359375,-42.48046875,-44.43359375,-23.4375
-50.78125,-76.171875,-41.015625,-44.921875
-62.01171875,-56.15234375,-48.33984375,-68.359375
-34.1796875,-19.53125,-45.8984375,-32.2265625
-38.57421875,-35.15625,-39.0625,-27.34375
-48.33984375,-45.41015625,-43.45703125,-16.11328125
-48.828125,-72.265625,-51.7578125,-39.55078125
-55.6640625,-58.59375,-45.41015625,-71.2890625
-41.015625,-10.7421875,-44.43359375,-37.109375
-41.50390625,-36.1328125,-58.10546875,-32.2265625
-52.734375,-53.7109375,-76.66015625,-35.15625
-57.6171875,-62.98828125,-81.54296875,-61.03515625
-61.03515625,-61.03515625,-73.2421875,-89.35546875
-42.48046875,-21.484375,-73.73046875,-55.6640625
-44.43359375,-34.66796875,-72.265625,-48.33984375
-45.41015625,-38.0859375,-65.4296875,-29.78515625
-48.828125,-63.4765625,-66.89453125,-32.71484375
-64.453125,-81.0546875,-73.2421875,-73.2421875
-42.48046875,-33.203125,-67.3828125,-47.36328125
-37.109375,-26.85546875,-69.3359375,-37.109375
-22.4609375,-23.92578125,-73.73046875,-11.71875
-35.15625,-57.6171875,-66.40625,-16.11328125
-98.6328125,-92.28515625,-70.3125,-94.23828125
-64.94140625,-34.66796875,-66.40625,-67.87109375
-35.64453125,-27.83203125,-58.59375,-35.64453125
-59.5703125,-38.0859375,-63.4765625,-44.43359375
-61.03515625,-47.36328125,-63.4765625,-39.55078125
-66.40625,-79.58984375,-62.98828125,-77.1484375
-47.36328125,-38.57421875,-66.89453125,-67.87109375
-40.52734375,-31.25,-69.82421875,-46.875
-57.6171875,-43.45703125,-70.80078125,-46.875
-46.875,-41.9921875,-67.87109375,-32.2265625
-50.29296875,-58.10546875,-68.84765625,-68.359375
-50.29296875,-57.6171875,-75.1953125,-73.73046875
-47.8515625,-55.6640625,-71.2890625,-48.828125
-47.36328125,-41.50390625,-57.12890625,-32.2265625
-41.015625,-50.78125,-48.828125,-17.578125
-57.6171875,-75.68359375,-47.36328125,-56.640625
-48.33984375,-41.50390625,-50.78125,-63.4765625
-25.87890625,-16.11328125,-47.8515625,-34.1796875
-41.9921875,-25.390625,-48.33984375,-39.0625
-40.52734375,-31.73828125,-49.31640625,-22.94921875
-53.22265625,-80.078125,-54.19921875,-56.15234375
-63.4765625,-68.359375,-56.15234375,-76.171875
-38.57421875,-20.5078125,-45.8984375,-37.59765625
-52.24609375,-47.8515625,-51.7578125,-46.38671875
-52.734375,-54.19921875,-49.8046875,-34.1796875
-53.22265625,-67.87109375,-46.875,-51.26953125
-65.4296875,-63.4765625,-47.8515625,-80.56640625
-43.45703125,-32.2265625,-37.59765625,-47.8515625
-40.52734375,-38.0859375,-39.55078125,-42.48046875
-47.36328125,-37.59765625,-44.921875,-33.203125
-56.15234375,-63.96484375,-48.828125,-51.26953125
-58.59375,-60.05859375,-47.8515625,-82.51953125
-39.55078125,-24.4140625,-42.96875,-56.15234375
-43.9453125,-36.1328125,-49.8046875,-49.31640625
-50.29296875,-32.2265625,-53.22265625,-28.3203125
-56.640625,-57.6171875,-43.9453125,-33.203125
-76.66015625,-83.0078125,-43.45703125,-82.51953125
-62.98828125,-45.41015625,-43.45703125,-57.6171875
-58.59375,-41.9921875,-43.45703125,-40.0390625
-53.7109375,-37.59765625,-41.50390625,-26.85546875
-43.9453125,-51.7578125,-38.0859375,-21.484375
-60.546875,-69.3359375,-43.45703125,-63.4765625
-57.6171875,-43.45703125,-52.24609375,-59.5703125
-52.734375,-42.96875,-51.7578125,-47.8515625
-49.31640625,-36.62109375,-41.015625,-36.1328125
-42.48046875,-41.50390625,-43.9453125,-34.1796875
-57.12890625,-54.6875,-53.22265625,-74.70703125
-52.24609375,-41.50390625,-50.29296875,-63.96484375
-40.0390625,-34.1796875,-43.45703125,-42.96875
-43.9453125,-35.64453125,-49.8046875,-39.55078125
-46.875,-62.98828125,-56.640625,-38.0859375
-61.03515625,-77.1484375,-49.8046875,-71.2890625
-52.24609375,-34.1796875,-44.921875,-60.546875
-43.9453125,-33.203125,-51.7578125,-48.33984375
-62.5,-53.7109375,-58.59375,-54.19921875
-48.828125,-46.875,-52.734375,-33.203125
-52.24609375,-66.89453125,-49.8046875,-65.91796875
-48.33984375,-35.15625,-48.828125,-70.80078125
-25.87890625,-9.765625,-49.31640625,-40.52734375
-41.015625,-36.1328125,-45.8984375,-31.73828125
-41.9921875,-54.19921875,-44.43359375,-11.23046875
-45.41015625,-77.63671875,-54.6875,-45.8984375
-43.9453125,-52.734375,-53.22265625,-64.453125
-20.5078125,-14.16015625,-42.96875,-26.3671875
-29.78515625,-24.90234375,-44.921875,-23.4375
-40.0390625,-53.22265625,-44.921875,-22.4609375
-46.38671875,-77.1484375,-43.45703125,-54.6875
-51.26953125,-56.15234375,-47.8515625,-78.125
-37.109375,-26.3671875,-50.29296875,-50.78125
-33.69140625,-27.34375,-49.8046875,-48.33984375
-29.78515625,-21.97265625,-46.875,-25.87890625
-40.52734375,-63.4765625,-49.8046875,-41.015625
-56.640625,-80.078125,-60.05859375,-79.58984375
-39.0625,-40.52734375,-62.01171875,-60.546875
-31.73828125,-36.62109375,-55.17578125,-51.7578125
-36.62109375,-42.48046875,-49.31640625,-33.203125
-38.57421875,-60.546875,-54.19921875,-43.9453125
-50.78125,-66.89453125,-58.59375,-86.9140625
-39.0625,-32.71484375,-56.640625,-61.5234375
-40.52734375,-30.76171875,-54.6875,-52.24609375
-46.38671875,-45.8984375,-51.7578125,-40.0390625
-46.875,-58.10546875,-50.78125,-34.1796875
-57.12890625,-48.828125,-54.19921875,-65.4296875
-34.66796875,-29.296875,-52.734375,-43.9453125
-36.1328125,-55.17578125,-57.12890625,-41.50390625
-46.875,-49.31640625,-61.5234375,-41.50390625
-36.1328125,-45.41015625,-51.7578125,-34.1796875
-59.08203125,-73.2421875,-48.828125,-68.84765625
-60.546875,-40.52734375,-46.875,-58.10546875
-44.921875,-30.76171875,-44.43359375,-41.9921875
-52.734375,-38.0859375,-53.7109375,-37.59765625
-61.5234375,-56.640625,-57.12890625,-35.64453125
-71.77734375,-73.2421875,-49.31640625,-72.75390625
-54.19921875,-35.15625,-42.96875,-60.546875
-27.83203125,-12.20703125,-38.57421875,-34.66796875
-29.296875,-29.296875,-44.921875,-36.62109375
-47.8515625,-79.1015625,-62.5,-39.0625
-68.84765625,-92.28515625,-64.453125,-71.77734375
-59.5703125,-46.38671875,-50.29296875,-67.87109375
-47.36328125,-34.1796875,-45.41015625,-48.33984375
-54.19921875,-37.109375,-46.875,-48.33984375
-51.26953125,-43.9453125,-50.29296875,-38.0859375
-53.7109375,-74.21875,-52.734375,-67.3828125
-52.734375,-56.640625,-55.17578125,-83.49609375
-43.45703125,-36.1328125,-51.7578125,-60.05859375
-48.828125,-38.57421875,-44.921875,-49.31640625
-52.734375,-30.2734375,-43.45703125,-25.390625
-82.03125,-82.51953125,-55.6640625,-62.01171875
-88.8671875,-76.66015625,-54.6875,-88.8671875
-51.7578125,-30.76171875,-39.0625,-46.38671875
-52.734375,-52.734375,-38.57421875,-35.64453125
-50.29296875,-47.36328125,-41.015625,-17.08984375
-45.8984375,-66.40625,-44.921875,-36.1328125
-52.734375,-61.5234375,-47.36328125,-65.4296875
-39.0625,-21.97265625,-45.8984375,-39.0625
-42.48046875,-31.73828125,-45.8984375,-38.0859375
-44.921875,-41.50390625,-47.36328125,-22.4609375
-52.24609375,-60.546875,-47.8515625,-43.9453125
-68.359375,-57.12890625,-57.12890625,-88.37890625
-51.26953125,-32.2265625,-62.98828125,-57.6171875
-48.33984375,-38.57421875,-55.6640625,-49.8046875
-45.41015625,-31.73828125,-49.31640625,-32.71484375
-42.96875,-58.10546875,-53.22265625,-42.48046875
-56.15234375,-67.3828125,-50.78125,-86.42578125
-33.69140625,-23.4375,-45.41015625,-51.7578125
-23.92578125,-24.4140625,-45.41015625,-37.59765625
-32.2265625,-34.66796875,-46.38671875,-34.1796875
-40.52734375,-58.10546875,-47.36328125,-33.203125
-56.640625,-62.98828125,-44.921875,-71.77734375
-46.38671875,-21.484375,-41.50390625,-56.640625
-41.015625,-18.5546875,-44.921875,-41.50390625
-49.8046875,-41.015625,-47.8515625,-35.15625
-50.78125,-62.98828125,-42.96875,-22.94921875
-61.03515625,-80.078125,-44.921875,-59.08203125
-52.24609375,-50.78125,-49.31640625,-51.7578125
-37.59765625,-47.36328125,-48.828125,-30.76171875
-30.2734375,-44.43359375,-42.48046875,-19.04296875
-19.04296875,-44.921875,-40.52734375,-4.8828125
-37.59765625,-69.82421875,-50.78125,-47.8515625
-37.59765625,-29.78515625,-47.36328125,-50.29296875
-24.90234375,-23.92578125,-35.64453125,-28.3203125
-41.50390625,-34.1796875,-43.9453125,-29.296875
-41.9921875,-35.64453125,-47.36328125,-22.4609375
-53.7109375,-81.54296875,-42.48046875,-67.3828125
-58.10546875,-55.6640625,-41.015625,-80.078125
-49.31640625,-32.2265625,-44.43359375,-55.17578125
-67.3828125,-49.31640625,-52.734375,-57.6171875
-62.01171875,-49.31640625,-52.24609375,-32.2265625
-67.87109375,-67.3828125,-48.33984375,-55.6640625
-77.63671875,-50.78125,-44.921875,-80.078125
-58.59375,-28.3203125,-44.921875,-49.8046875
-59.08203125,-37.109375,-45.8984375,-43.9453125
-52.734375,-44.921875,-39.0625,-27.34375
-52.24609375,-65.4296875,-39.0625,-45.8984375
-55.6640625,-47.8515625,-47.36328125,-70.80078125
-26.85546875,-25.390625,-45.41015625,-40.0390625
-23.92578125,-44.43359375,-45.41015625,-36.62109375
-41.50390625,-60.546875,-55.17578125,-30.76171875
-54.6875,-80.078125,-58.10546875,-46.38671875
-52.24609375,-62.5,-45.41015625,-70.80078125
-25.87890625,-29.78515625,-36.62109375,-41.50390625
-26.85546875,-31.25,-44.921875,-41.9921875
-32.2265625,-33.69140625,-43.9453125,-28.80859375
-32.2265625,-50.78125,-37.109375,-31.73828125
-51.26953125,-57.12890625,-41.50390625,-78.61328125
-41.015625,-21.97265625,-42.48046875,-58.59375
-36.1328125,-16.11328125,-42.96875,-40.0390625
-45.41015625,-40.0390625,-43.9453125,-32.2265625
-55.6640625,-68.84765625,-52.734375,-47.36328125
-74.21875,-81.0546875,-62.98828125,-93.75
-55.6640625,-43.45703125,-60.05859375,-72.75390625
-39.0625,-29.296875,-56.640625,-55.6640625
-39.0625,-38.57421875,-52.734375,-42.48046875
-37.109375,-53.7109375,-47.8515625,-37.109375
-51.26953125,-63.4765625,-50.29296875,-83.984375
-36.62109375,-22.4609375,-49.31640625,-62.01171875
-26.85546875,-30.76171875,-53.22265625,-37.109375
-34.66796875,-41.015625,-52.734375,-41.50390625
-25.87890625,-39.55078125,-44.921875,-28.3203125
-38.0859375,-71.77734375,-43.45703125,-58.59375
-43.9453125,-56.640625,-47.8515625,-59.5703125
-31.25,-36.62109375,-48.33984375,-33.69140625
-19.04296875,-34.66796875,-38.57421875,-22.94921875
-18.06640625,-37.59765625,-39.55078125,-11.71875
-42.48046875,-69.82421875,-46.38671875,-48.828125
-41.9921875,-53.7109375,-44.921875,-60.546875
-32.71484375,-26.3671875,-38.0859375,-36.62109375
-46.38671875,-32.71484375,-38.0859375,-42.48046875
-40.0390625,-40.52734375,-42.48046875,-35.15625
-60.05859375,-69.82421875,-47.36328125,-64.94140625
-61.5234375,-41.50390625,-43.45703125,-75.1953125
-38.57421875,-30.76171875,-41.50390625,-46.875
-52.734375,-55.17578125,-54.6875,-50.78125
-44.921875,-48.33984375,-53.22265625,-30.76171875
-48.828125,-58.59375,-47.36328125,-51.7578125
-62.01171875,-48.33984375,-50.29296875,-76.171875
-44.921875,-24.90234375,-51.7578125,-40.52734375
-47.8515625,-36.62109375,-51.26953125,-36.1328125
-46.875,-39.55078125,-55.17578125,-22.94921875
-58.10546875,-63.96484375,-63.4765625,-46.875
-72.265625,-66.89453125,-61.03515625,-85.44921875
-47.8515625,-29.296875,-47.36328125,-47.36328125
-41.9921875,-22.4609375,-43.9453125,-36.62109375
-54.19921875,-46.38671875,-54.19921875,-36.62109375
-61.03515625,-87.40234375,-57.12890625,-48.33984375
-56.640625,-65.4296875,-53.22265625,-72.265625
-32.71484375,-21.484375,-51.26953125,-43.9453125
-35.64453125,-31.25,-44.921875,-34.1796875
-45.8984375,-31.25,-46.875,-20.99609375
-38.0859375,-50.29296875,-48.828125,-21.484375
-52.734375,-65.4296875,-49.8046875,-62.5
-44.921875,-25.87890625,-45.41015625,-45.41015625
-42.96875,-36.1328125,-43.45703125,-38.0859375
-47.36328125,-42.96875,-42.96875,-28.3203125
-39.0625,-39.55078125,-43.45703125,-28.80859375
-61.5234375,-71.77734375,-60.05859375,-80.56640625
-46.38671875,-52.734375,-58.10546875,-51.7578125
-46.38671875,-30.2734375,-41.50390625,-33.203125
-70.80078125,-29.296875,-46.38671875,-52.24609375
-59.5703125,-56.15234375,-52.24609375,-41.015625
-72.265625,-83.49609375,-47.8515625,-75.68359375
-67.87109375,-40.52734375,-47.8515625,-75.1953125
-55.17578125,-29.78515625,-48.33984375,-47.8515625
-68.84765625,-45.8984375,-47.8515625,-44.921875
-67.87109375,-70.80078125,-40.52734375,-36.62109375
-80.56640625,-96.6796875,-40.52734375,-74.21875
-79.1015625,-54.19921875,-51.26953125,-80.56640625
-55.6640625,-52.24609375,-51.7578125,-54.19921875
-52.24609375,-61.03515625,-44.43359375,-47.8515625
-43.9453125,-58.10546875,-47.36328125,-35.15625
-66.89453125,-104.4921875,-63.96484375,-81.54296875
-74.21875,-74.21875,-66.89453125,-96.6796875
-45.41015625,-26.85546875,-54.19921875,-52.734375
-50.29296875,-33.69140625,-47.36328125,-42.96875
-48.33984375,-44.43359375,-46.875,-26.85546875
-56.640625,-73.73046875,-57.12890625,-52.734375
-54.6875,-53.22265625,-52.734375,-68.359375
-32.2265625,-19.04296875,-49.31640625,-38.0859375
-41.50390625,-26.85546875,-58.10546875,-38.0859375
-35.64453125,-45.8984375,-49.31640625,-18.06640625
-48.828125,-80.078125,-41.9921875,-37.109375
-72.75390625,-75.68359375,-46.875,-72.75390625
-53.7109375,-43.45703125,-46.38671875,-48.828125
-46.875,-34.66796875,-46.38671875,-39.55078125
-41.015625,-33.203125,-50.78125,-21.484375
-54.19921875,-78.61328125,-61.5234375,-48.828125
-74.21875,-78.61328125,-62.01171875,-94.7265625
-42.96875,-23.92578125,-55.6640625,-60.05859375
-36.62109375,-36.62109375,-57.12890625,-48.828125
-37.59765625,-37.109375,-52.734375,-36.62109375
-34.66796875,-44.43359375,-56.640625,-32.2265625
-53.22265625,-75.68359375,-58.59375,-63.96484375
-44.43359375,-51.26953125,-47.8515625,-45.8984375
-50.29296875,-54.19921875,-53.22265625,-41.9921875
-63.4765625,-58.59375,-58.10546875,-37.109375
-57.12890625,-62.5,-43.45703125,-28.80859375
-73.73046875,-70.3125,-38.0859375,-69.82421875
-57.6171875,-29.78515625,-38.0859375,-54.6875
-42.48046875,-26.85546875,-41.9921875,-35.64453125
-51.7578125,-34.1796875,-45.41015625,-34.66796875
-43.9453125,-55.17578125,-39.0625,-30.76171875
-51.26953125,-73.73046875,-37.109375,-69.82421875
-44.43359375,-28.80859375,-40.52734375,-62.5
-28.80859375,-24.4140625,-36.62109375,-32.2265625
-41.9921875,-43.9453125,-37.109375,-32.2265625
-45.8984375,-57.12890625,-42.96875,-32.2265625
-48.33984375,-68.359375,-37.59765625,-59.08203125
-44.921875,-36.1328125,-33.203125,-61.5234375
-41.9921875,-27.83203125,-38.57421875,-47.8515625
-44.921875,-29.78515625,-38.57421875,-41.9921875
-37.109375,-40.0390625,-38.0859375,-25.87890625
-47.36328125,-68.84765625,-52.24609375,-59.08203125
-42.96875,-51.7578125,-52.24609375,-62.5
-23.92578125,-23.92578125,-40.52734375,-30.76171875
-33.69140625,-16.11328125,-37.59765625,-29.296875
-30.2734375,-34.1796875,-34.66796875,-12.20703125
-51.7578125,-83.984375,-47.8515625,-53.22265625
-67.87109375,-70.3125,-55.17578125,-82.03125
-33.69140625,-28.80859375,-41.9921875,-47.36328125
-28.80859375,-27.83203125,-37.59765625,-40.0390625
-33.203125,-36.62109375,-38.0859375,-20.5078125
-49.8046875,-65.91796875,-44.43359375,-47.36328125
-57.12890625,-54.6875,-45.8984375,-73.73046875
-35.64453125,-21.97265625,-43.9453125,-45.41015625
-37.109375,-26.85546875,-53.7109375,-47.8515625
-27.34375,-29.296875,-54.19921875,-25.390625
-23.92578125,-41.9921875,-50.78125,-32.71484375
-42.96875,-62.5,-54.19921875,-69.82421875
-36.1328125,-47.8515625,-56.15234375,-48.828125
-34.1796875,-33.69140625,-54.19921875,-38.57421875
-33.69140625,-45.8984375,-50.29296875,-21.97265625
-39.55078125,-70.80078125,-44.921875,-38.0859375
-54.6875,-66.89453125,-43.9453125,-85.9375
-31.73828125,-20.99609375,-37.109375,-54.6875
-35.15625,-28.3203125,-32.2265625,-41.9921875
-49.8046875,-34.1796875,-38.0859375,-32.2265625
-58.10546875,-54.19921875,-45.41015625,-34.66796875
-76.171875,-66.89453125,-49.8046875,-78.125
-51.26953125,-14.6484375,-47.8515625,-53.22265625
-55.6640625,-42.96875,-59.5703125,-52.734375
-75.1953125,-69.82421875,-64.453125,-55.6640625
-60.546875,-56.640625,-47.36328125,-39.0625
-75.1953125,-72.265625,-46.875,-78.125
-65.4296875,-43.45703125,-48.33984375,-66.89453125
-47.8515625,-31.25,-42.96875,-44.921875
-55.6640625,-41.50390625,-38.0859375,-39.55078125
-52.24609375,-54.19921875,-37.59765625,-29.78515625
-69.82421875,-82.03125,-48.828125,-70.80078125
-58.10546875,-45.41015625,-53.22265625,-61.03515625
-31.73828125,-16.6015625,-46.38671875,-26.85546875
-41.015625,-20.99609375,-47.8515625,-31.73828125
-54.6875,-62.98828125,-55.17578125,-34.66796875
-66.89453125,-88.37890625,-54.6875,-67.3828125
-47.36328125,-41.015625,-54.6875,-67.87109375
-35.64453125,-26.85546875,-53.7109375,-48.33984375
-59.08203125,-40.0390625,-53.22265625,-46.875
-57.12890625,-48.33984375,-52.24609375,-24.4140625
-67.3828125,-76.171875,-53.22265625,-52.24609375
-63.4765625,-41.015625,-50.29296875,-69.3359375
-30.2734375,-9.765625,-44.921875,-38.0859375
-42.48046875,-40.0390625,-46.38671875,-35.15625
-45.41015625,-39.0625,-43.45703125,-21.484375
-57.6171875,-48.828125,-46.38671875,-41.9921875
-74.70703125,-61.5234375,-55.6640625,-66.89453125
-46.875,-41.50390625,-48.33984375,-34.1796875
-45.8984375,-39.0625,-44.43359375,-27.83203125
-45.41015625,-44.43359375,-44.43359375,-15.13671875
-50.78125,-66.89453125,-44.921875,-42.48046875
-66.40625,-59.08203125,-51.26953125,-86.42578125
-52.24609375,-27.34375,-51.26953125,-65.4296875
-57.6171875,-31.73828125,-50.78125,-62.01171875
-57.6171875,-30.76171875,-43.45703125,-44.921875
-57.6171875,-69.3359375,-39.0625,-56.15234375
-74.21875,-70.3125,-50.78125,-92.28515625
-49.31640625,-11.71875,-50.78125,-56.15234375
-43.45703125,-27.83203125,-49.31640625,-45.8984375
-49.31640625,-47.36328125,-52.24609375,-31.25
-53.7109375,-68.359375,-54.6875,-31.73828125
-79.1015625,-83.49609375,-65.4296875,-83.984375
-43.9453125,-32.71484375,-55.6640625,-52.24609375
-20.99609375,-22.4609375,-42.48046875,-27.83203125
-29.78515625,-31.73828125,-47.8515625,-21.484375
-38.57421875,-55.17578125,-53.22265625,-24.90234375
-62.5,-72.75390625,-47.8515625,-73.2421875
-46.875,-28.80859375,-42.48046875,-51.7578125
-39.0625,-25.87890625,-44.921875,-32.71484375
-45.8984375,-31.25,-46.875,-27.83203125
-44.43359375,-59.08203125,-44.43359375,-28.3203125
-63.96484375,-80.56640625,-45.8984375,-76.171875
-62.01171875,-45.41015625,-58.59375,-78.125
-55.17578125,-55.17578125,-59.5703125,-62.01171875
-57.6171875,-48.33984375,-42.96875,-47.8515625
-54.19921875,-53.7109375,-36.1328125,-29.296875
-70.80078125,-76.171875,-44.921875,-66.89453125
-61.5234375,-41.015625,-47.36328125,-65.4296875
-41.50390625,-28.3203125,-41.9921875,-34.1796875
-46.875,-28.80859375,-42.96875,-34.66796875
-43.45703125,-43.9453125,-41.015625,-22.94921875
-62.01171875,-71.2890625,-43.45703125,-61.03515625
-66.89453125,-48.33984375,-43.9453125,-75.68359375
-52.734375,-43.45703125,-42.48046875,-45.8984375
-75.1953125,-64.453125,-48.828125,-51.26953125
-69.3359375,-64.94140625,-44.921875,-32.2265625
-65.4296875,-76.66015625,-43.9453125,-53.7109375
-72.75390625,-67.3828125,-49.8046875,-80.078125
-46.38671875,-45.8984375,-47.36328125,-50.29296875
-35.15625,-31.25,-37.109375,-35.64453125
-30.76171875,-35.15625,-39.55078125,-17.08984375
-39.0625,-67.87109375,-45.41015625,-44.921875
-53.7109375,-49.8046875,-50.78125,-73.73046875
-32.71484375,-9.765625,-53.7109375,-39.0625
-37.109375,-31.73828125,-52.24609375,-40.0390625
-53.7109375,-55.6640625,-52.734375,-40.0390625
-63.4765625,-76.171875,-49.31640625,-59.5703125
-62.5,-59.5703125,-44.921875,-86.42578125
-41.50390625,-21.97265625,-43.9453125,-53.7109375
-43.45703125,-29.78515625,-39.55078125,-41.9921875
-53.22265625,-40.0390625,-43.9453125,-31.73828125
-52.24609375,-49.31640625,-43.45703125,-37.109375
-54.6875,-48.828125,-45.8984375,-67.3828125
-41.015625,-33.203125,-62.5,-48.828125
-43.45703125,-31.73828125,-57.6171875,-42.96875
-44.921875,-21.484375,-40.0390625,-28.80859375
-48.828125,-62.5,-41.015625,-27.34375
-73.73046875,-94.23828125,-48.33984375,-74.70703125
-54.6875,-39.0625,-45.8984375,-55.17578125
-41.015625,-32.71484375,-42.96875,-34.66796875
-51.26953125,-43.9453125,-43.45703125,-29.296875
-49.31640625,-60.05859375,-43.45703125,-24.90234375
-59.5703125,-79.1015625,-47.8515625,-72.75390625
-51.26953125,-43.45703125,-48.33984375,-65.4296875
-41.50390625,-27.83203125,-39.55078125,-41.9921875
-47.8515625,-38.0859375,-33.203125,-41.50390625
-44.921875,-49.8046875,-36.1328125,-34.1796875
-50.78125,-52.734375,-38.57421875,-65.4296875
-49.8046875,-42.96875,-49.31640625,-71.77734375
-48.33984375,-58.10546875,-61.5234375,-57.6171875
-46.875,-46.875,-48.828125,-37.109375
-40.52734375,-48.828125,-45.41015625,-20.5078125
-51.7578125,-81.54296875,-51.7578125,-57.12890625
-50.78125,-51.7578125,-47.8515625,-61.5234375
-34.1796875,-27.34375,-38.0859375,-30.76171875
-45.8984375,-37.59765625,-33.69140625,-27.83203125
-43.45703125,-42.48046875,-37.59765625,-12.20703125
-50.29296875,-68.84765625,-45.41015625,-49.8046875
-56.640625,-49.8046875,-47.36328125,-72.265625
-29.296875,-18.06640625,-40.52734375,-34.66796875
-33.69140625,-43.45703125,-42.96875,-37.59765625
-42.48046875,-46.38671875,-48.828125,-27.34375
-40.0390625,-51.26953125,-50.78125,-43.9453125
-46.875,-51.7578125,-54.19921875,-67.3828125
-40.52734375,-30.2734375,-52.734375,-41.9921875
-42.96875,-40.52734375,-41.50390625,-36.62109375
-39.0625,-41.015625,-39.55078125,-20.01953125
-45.8984375,-60.546875,-49.31640625,-41.9921875
-58.59375,-67.3828125,-48.828125,-78.125
-40.0390625,-27.83203125,-39.0625,-43.9453125
-44.921875,-26.85546875,-39.55078125,-34.1796875
-48.828125,-28.80859375,-41.50390625,-20.01953125
-53.7109375,-63.96484375,-43.9453125,-32.71484375
-67.87109375,-76.171875,-47.8515625,-76.171875
-45.41015625,-25.390625,-45.41015625,-49.8046875
-52.24609375,-35.64453125,-58.10546875,-48.828125
-66.40625,-45.8984375,-58.10546875,-37.59765625
-52.24609375,-49.31640625,-46.875,-27.83203125
-58.59375,-61.5234375,-45.8984375,-69.82421875
-42.48046875,-25.390625,-42.96875,-58.59375
-35.64453125,-30.76171875,-44.921875,-47.8515625
-42.48046875,-37.109375,-45.8984375,-38.57421875
-41.50390625,-51.7578125,-46.875,-34.66796875
-61.03515625,-67.3828125,-50.29296875,-76.66015625
-49.31640625,-40.0390625,-47.8515625,-66.89453125
-38.0859375,-35.15625,-42.48046875,-45.41015625
-53.7109375,-36.62109375,-48.33984375,-38.57421875
-55.6640625,-61.5234375,-63.4765625,-35.64453125
-56.640625,-71.77734375,-59.08203125,-67.87109375
-37.59765625,-28.80859375,-41.9921875,-53.22265625
-25.390625,-33.203125,-38.57421875,-34.66796875
-35.15625,-38.0859375,-38.57421875,-33.69140625
-32.71484375,-37.109375,-38.57421875,-20.99609375
