TP9,AF7,AF8,TP10
-60.546875,-51.7578125,-41.015625,-38.0859375
-33.69140625,-46.875,-49.31640625,32.2265625
-24.4140625,-47.8515625,-53.22265625,41.9921875
-42.48046875,-50.78125,-50.29296875,-12.20703125
-59.08203125,-50.29296875,-51.26953125,-56.15234375
-41.50390625,-50.78125,-52.734375,-25.390625
-17.578125,-49.31640625,-51.7578125,37.109375
-20.99609375,-42.96875,-50.78125,43.45703125
-51.26953125,-46.38671875,-54.6875,-8.7890625
-83.0078125,-62.01171875,-56.640625,-59.5703125
-71.2890625,-61.03515625,-53.22265625,-44.43359375
-40.52734375,-52.24609375,-56.15234375,21.97265625
-30.76171875,-50.29296875,-54.6875,55.6640625
-52.734375,-50.29296875,-43.9453125,8.7890625
-87.890625,-60.05859375,-44.43359375,-57.12890625
-77.63671875,-60.546875,-51.26953125,-49.31640625
-43.9453125,-53.22265625,-51.7578125,15.13671875
-32.71484375,-48.828125,-45.8984375,44.921875
-52.24609375,-43.9453125,-47.8515625,-1.46484375
-82.51953125,-52.734375,-59.5703125,-74.70703125
-79.58984375,-58.10546875,-65.4296875,-85.44921875
-45.41015625,-51.7578125,-62.98828125,-18.5546875
-25.390625,-44.921875,-53.22265625,42.48046875
-46.38671875,-44.921875,-51.7578125,7.32421875
-71.2890625,-49.31640625,-53.22265625,-59.5703125
-71.2890625,-52.24609375,-51.26953125,-64.453125
-47.8515625,-47.36328125,-54.6875,-11.71875
-25.87890625,-44.43359375,-51.26953125,42.48046875
-37.59765625,-51.26953125,-43.9453125,16.11328125
-60.05859375,-48.828125,-45.8984375,-46.38671875
-66.40625,-50.78125,-52.734375,-65.4296875
-45.8984375,-56.640625,-53.22265625,-21.97265625
-22.94921875,-51.7578125,-48.828125,46.38671875
-32.71484375,-46.875,-41.50390625,32.71484375
-58.10546875,-45.8984375,-32.71484375,-34.66796875
-69.3359375,-54.6875,-31.73828125,-64.453125
-58.10546875,-59.5703125,-44.43359375,-35.15625
-40.0390625,-50.29296875,-48.33984375,25.87890625
-55.17578125,-45.8984375,-48.33984375,18.5546875
-80.56640625,-53.22265625,-47.8515625,-50.78125
-82.51953125,-56.640625,-49.8046875,-88.8671875
-70.3125,-46.38671875,-52.734375,-48.33984375
-54.6875,-47.36328125,-56.15234375,17.08984375
-54.6875,-55.17578125,-58.59375,16.6015625
-72.265625,-51.7578125,-54.6875,-40.52734375
-90.8203125,-59.5703125,-54.19921875,-83.0078125
-76.171875,-57.12890625,-49.8046875,-49.31640625
-58.10546875,-51.26953125,-45.8984375,18.5546875
-60.05859375,-49.8046875,-45.8984375,21.484375
-69.3359375,-50.29296875,-45.41015625,-36.62109375
-82.51953125,-57.12890625,-50.78125,-85.9375
-69.82421875,-49.8046875,-53.7109375,-62.98828125
-38.57421875,-44.43359375,-52.734375,11.23046875
-33.69140625,-53.22265625,-54.19921875,39.0625
-49.31640625,-43.45703125,-54.6875,-19.53125
-78.61328125,-43.45703125,-54.19921875,-83.984375
-63.96484375,-54.6875,-48.828125,-72.265625
-34.1796875,-53.22265625,-48.828125,-2.9296875
-34.1796875,-50.78125,-44.921875,29.296875
-47.36328125,-52.24609375,-42.48046875,-25.87890625
-72.265625,-54.6875,-51.26953125,-85.9375
-67.87109375,-60.546875,-52.734375,-81.54296875
-48.828125,-61.5234375,-55.17578125,-30.2734375
-30.2734375,-47.36328125,-61.03515625,17.578125
-39.55078125,-40.0390625,-59.08203125,-11.71875
-65.4296875,-39.0625,-51.26953125,-71.77734375
-67.3828125,-44.43359375,-51.7578125,-76.66015625
-49.8046875,-53.7109375,-56.640625,-28.80859375
-29.296875,-48.33984375,-51.7578125,23.4375
-48.828125,-49.8046875,-52.24609375,-8.30078125
-83.0078125,-61.03515625,-52.24609375,-82.51953125
-70.80078125,-62.01171875,-51.7578125,-81.0546875
-32.71484375,-57.6171875,-64.94140625,-13.18359375
-20.99609375,-56.640625,-62.98828125,29.78515625
-41.50390625,-48.828125,-51.7578125,-8.7890625
-71.2890625,-41.9921875,-52.24609375,-86.9140625
-77.1484375,-41.50390625,-61.03515625,-108.3984375
-59.5703125,-34.66796875,-67.3828125,-61.5234375
-47.36328125,-38.0859375,-68.84765625,-16.11328125
-61.03515625,-37.59765625,-59.08203125,-32.2265625
-88.8671875,-38.0859375,-59.08203125,-90.8203125
-86.42578125,-47.36328125,-65.4296875,-118.1640625
-58.10546875,-45.41015625,-55.6640625,-72.75390625
-33.69140625,-35.64453125,-46.875,4.39453125
-36.1328125,-34.66796875,-47.36328125,8.7890625
-65.91796875,-45.8984375,-55.6640625,-57.12890625
-81.0546875,-54.6875,-57.12890625,-100.09765625
-61.5234375,-54.6875,-53.22265625,-62.5
-39.55078125,-49.8046875,-53.22265625,6.8359375
-42.48046875,-39.55078125,-48.33984375,11.71875
-64.94140625,-41.9921875,-39.55078125,-42.96875
-82.51953125,-54.19921875,-37.59765625,-87.890625
-65.91796875,-48.828125,-42.48046875,-62.98828125
-36.1328125,-40.52734375,-47.8515625,2.9296875
-31.73828125,-39.0625,-46.875,17.578125
-51.26953125,-40.0390625,-48.33984375,-41.9921875
-68.84765625,-41.015625,-57.12890625,-94.7265625
-63.96484375,-41.9921875,-57.6171875,-79.58984375
-39.55078125,-40.52734375,-51.26953125,-10.25390625
-33.69140625,-49.8046875,-54.6875,7.8125
-57.6171875,-58.59375,-60.546875,-47.36328125
-85.44921875,-55.17578125,-60.05859375,-103.515625
-77.63671875,-56.15234375,-55.6640625,-89.84375
-48.828125,-48.828125,-54.6875,-10.25390625
-33.69140625,-43.9453125,-46.875,32.2265625
-44.43359375,-47.36328125,-39.55078125,-10.25390625
-68.84765625,-51.7578125,-44.43359375,-65.91796875
-56.640625,-53.7109375,-44.43359375,-57.6171875
-27.83203125,-49.31640625,-50.78125,3.41796875
-20.99609375,-42.48046875,-51.26953125,50.29296875
-41.50390625,-49.31640625,-42.96875,14.6484375
-72.75390625,-56.640625,-48.33984375,-56.15234375
-79.1015625,-59.08203125,-56.640625,-65.91796875
-62.5,-53.7109375,-50.78125,-0.48828125
-37.59765625,-34.1796875,-38.57421875,55.17578125
-50.29296875,-42.96875,-48.33984375,28.3203125
-83.984375,-62.01171875,-61.5234375,-46.875
-76.66015625,-60.05859375,-58.10546875,-66.89453125
-48.33984375,-60.05859375,-53.22265625,-13.18359375
-38.57421875,-62.98828125,-47.36328125,41.015625
-43.9453125,-61.5234375,-41.9921875,16.6015625
-59.08203125,-60.05859375,-44.43359375,-52.24609375
-65.4296875,-58.59375,-48.828125,-79.1015625
-49.31640625,-53.7109375,-49.8046875,-35.15625
-21.484375,-48.828125,-52.24609375,29.296875
-25.390625,-44.43359375,-54.6875,11.71875
-53.22265625,-44.43359375,-56.15234375,-65.4296875
-66.89453125,-56.640625,-60.546875,-101.5625
-54.19921875,-54.19921875,-59.08203125,-62.5
-25.390625,-44.43359375,-57.6171875,5.859375
-31.73828125,-38.57421875,-57.6171875,12.6953125
-62.5,-41.50390625,-54.19921875,-51.7578125
-82.03125,-50.29296875,-54.6875,-95.703125
-72.75390625,-55.17578125,-59.5703125,-66.40625
-46.875,-46.38671875,-58.59375,-3.41796875
-40.52734375,-42.96875,-52.24609375,-2.44140625
-59.08203125,-50.29296875,-52.24609375,-68.84765625
-82.51953125,-45.41015625,-50.29296875,-120.60546875
-70.3125,-43.9453125,-50.29296875,-100.09765625
-42.96875,-43.45703125,-50.78125,-36.1328125
-45.8984375,-41.015625,-47.36328125,-18.06640625
-63.96484375,-46.38671875,-46.875,-74.70703125
-93.26171875,-53.7109375,-48.828125,-135.7421875
-78.61328125,-56.15234375,-46.38671875,-120.1171875
-37.109375,-52.734375,-43.9453125,-55.6640625
-33.203125,-49.8046875,-48.33984375,-34.66796875
-55.17578125,-49.8046875,-48.828125,-83.0078125
-81.54296875,-60.05859375,-43.45703125,-133.30078125
-72.75390625,-70.3125,-44.921875,-124.0234375
-43.9453125,-51.7578125,-46.38671875,-56.15234375
-39.55078125,-43.9453125,-52.734375,-24.4140625
-42.96875,-49.8046875,-49.31640625,-63.96484375
-63.96484375,-50.78125,-42.96875,-122.0703125
-66.89453125,-56.640625,-48.828125,-121.09375
-38.0859375,-52.734375,-47.36328125,-59.5703125
-22.4609375,-41.50390625,-45.8984375,-14.16015625
-43.9453125,-41.015625,-51.26953125,-48.33984375
-78.61328125,-47.36328125,-50.78125,-114.74609375
-83.49609375,-45.8984375,-48.828125,-124.51171875
-63.4765625,-45.41015625,-53.7109375,-74.21875
-42.48046875,-43.9453125,-57.12890625,-16.11328125
-57.12890625,-42.96875,-61.03515625,-39.0625
-92.28515625,-57.12890625,-63.4765625,-108.88671875
-98.6328125,-64.453125,-53.7109375,-129.8828125
-69.3359375,-56.15234375,-50.78125,-78.61328125
-35.15625,-52.734375,-60.546875,-6.34765625
-44.921875,-51.26953125,-68.84765625,-25.87890625
-83.984375,-50.29296875,-65.4296875,-98.6328125
-94.23828125,-50.29296875,-61.5234375,-121.09375
-68.84765625,-45.8984375,-68.359375,-81.0546875
-33.203125,-42.48046875,-68.359375,-11.23046875
-27.83203125,-41.015625,-64.94140625,-16.11328125
-48.33984375,-44.921875,-59.08203125,-68.84765625
-54.6875,-42.96875,-52.24609375,-91.796875
-44.921875,-36.1328125,-54.19921875,-60.05859375
-28.80859375,-42.96875,-54.19921875,2.44140625
-24.4140625,-50.78125,-52.734375,1.953125
-48.33984375,-54.6875,-49.31640625,-59.08203125
-68.84765625,-52.734375,-46.38671875,-98.6328125
-57.6171875,-43.9453125,-52.734375,-64.453125
-27.34375,-30.76171875,-54.6875,2.9296875
-29.78515625,-27.34375,-49.8046875,10.25390625
-56.640625,-32.71484375,-52.734375,-42.96875
-70.3125,-39.55078125,-53.7109375,-88.8671875
-50.29296875,-46.38671875,-45.8984375,-65.91796875
-13.18359375,-44.43359375,-46.875,6.34765625
-24.90234375,-46.875,-54.6875,21.97265625
-52.734375,-48.828125,-47.8515625,-28.80859375
-73.2421875,-52.24609375,-54.19921875,-89.35546875
-73.73046875,-56.640625,-74.21875,-93.26171875
-41.015625,-49.31640625,-64.94140625,-24.90234375
-28.80859375,-44.43359375,-48.828125,14.6484375
-51.7578125,-45.41015625,-45.8984375,-26.85546875
-79.58984375,-47.36328125,-48.33984375,-87.40234375
-69.82421875,-49.8046875,-47.8515625,-81.54296875
-39.55078125,-48.828125,-45.41015625,-21.97265625
-20.99609375,-46.38671875,-43.9453125,20.5078125
-33.203125,-42.96875,-39.55078125,-8.30078125
-67.3828125,-45.41015625,-47.8515625,-72.75390625
-68.84765625,-57.12890625,-57.12890625,-94.23828125
-41.015625,-56.640625,-56.640625,-48.828125
-27.34375,-47.36328125,-58.10546875,6.8359375
-32.2265625,-48.828125,-53.7109375,-19.53125
-53.22265625,-52.24609375,-58.59375,-88.8671875
-61.5234375,-46.875,-60.05859375,-98.14453125
-33.69140625,-38.57421875,-51.7578125,-45.8984375
-20.5078125,-36.1328125,-54.19921875,-1.46484375
-33.69140625,-42.48046875,-50.29296875,-19.53125
-53.7109375,-43.9453125,-42.48046875,-78.61328125
-62.98828125,-40.0390625,-41.9921875,-96.19140625
-46.38671875,-42.96875,-42.48046875,-53.22265625
-35.15625,-48.33984375,-52.24609375,-5.859375
-44.43359375,-42.48046875,-55.17578125,-21.97265625
-63.96484375,-40.52734375,-50.78125,-81.54296875
-78.61328125,-52.734375,-54.6875,-116.69921875
-56.15234375,-54.6875,-50.78125,-79.58984375
-28.80859375,-44.43359375,-51.7578125,-3.41796875
-23.92578125,-41.015625,-50.78125,5.37109375
-46.875,-39.55078125,-50.78125,-57.6171875
-67.3828125,-42.96875,-55.17578125,-101.07421875
-55.17578125,-41.9921875,-54.19921875,-76.66015625
-25.87890625,-29.296875,-54.6875,-7.32421875
-28.80859375,-43.45703125,-59.5703125,2.44140625
-54.19921875,-61.5234375,-61.5234375,-65.4296875
-65.4296875,-57.6171875,-56.15234375,-108.88671875
-57.6171875,-53.22265625,-55.17578125,-79.58984375
-23.92578125,-42.96875,-57.6171875,-11.71875
-20.5078125,-33.69140625,-59.08203125,4.39453125
-45.8984375,-33.69140625,-56.15234375,-46.875
-63.96484375,-40.52734375,-56.640625,-97.65625
-59.5703125,-51.7578125,-57.6171875,-83.0078125
-33.69140625,-59.08203125,-52.24609375,-17.08984375
-27.83203125,-53.7109375,-47.8515625,9.27734375
-38.57421875,-41.50390625,-51.7578125,-29.296875
-63.4765625,-44.921875,-53.7109375,-86.42578125
-63.96484375,-56.640625,-52.734375,-94.23828125
-34.66796875,-47.8515625,-45.8984375,-27.83203125
-24.90234375,-45.41015625,-46.875,15.13671875
-41.9921875,-49.8046875,-52.24609375,-27.34375
-63.4765625,-49.8046875,-50.78125,-84.47265625
-53.7109375,-49.8046875,-47.8515625,-83.49609375
-26.85546875,-51.7578125,-52.734375,-30.76171875
-13.671875,-48.828125,-55.17578125,0.9765625
-35.15625,-41.015625,-50.29296875,-28.80859375
-66.89453125,-37.109375,-44.921875,-79.1015625
-61.5234375,-35.15625,-36.1328125,-82.51953125
-45.41015625,-39.0625,-39.0625,-31.73828125
-33.203125,-37.109375,-40.0390625,14.16015625
-39.0625,-33.69140625,-45.8984375,-16.6015625
-67.3828125,-48.33984375,-62.98828125,-89.84375
-67.3828125,-59.08203125,-57.6171875,-98.14453125
-45.8984375,-51.7578125,-44.43359375,-40.52734375
-23.92578125,-39.55078125,-42.96875,16.6015625
-40.52734375,-31.73828125,-46.38671875,-0.48828125
-69.3359375,-39.55078125,-48.828125,-66.40625
-76.171875,-50.78125,-48.828125,-95.21484375
-65.91796875,-45.8984375,-52.734375,-61.03515625
-30.2734375,-35.15625,-50.29296875,3.90625
-34.1796875,-38.0859375,-46.38671875,-6.8359375
-80.56640625,-44.43359375,-48.33984375,-77.63671875
-80.078125,-46.875,-47.8515625,-108.88671875
-51.26953125,-51.7578125,-46.875,-70.80078125
-32.71484375,-45.41015625,-45.41015625,-3.41796875
-18.06640625,-33.69140625,-46.38671875,0.9765625
-51.26953125,-48.828125,-51.7578125,-60.546875
-84.9609375,-62.5,-48.828125,-104.98046875
-63.96484375,-57.12890625,-43.45703125,-72.265625
-38.0859375,-48.828125,-48.33984375,-4.39453125
-36.1328125,-48.33984375,-53.7109375,3.41796875
-58.59375,-48.33984375,-55.6640625,-55.17578125
-79.1015625,-56.15234375,-62.5,-105.95703125
-65.4296875,-64.453125,-68.359375,-85.9375
-27.34375,-53.7109375,-67.3828125,-27.83203125
-21.484375,-48.33984375,-61.03515625,-15.13671875
-49.8046875,-48.828125,-52.24609375,-65.91796875
-78.125,-52.24609375,-48.33984375,-113.76953125
-72.75390625,-55.17578125,-49.8046875,-90.33203125
-37.109375,-44.921875,-51.26953125,-29.296875
-29.78515625,-26.85546875,-49.8046875,-1.953125
-57.6171875,-35.15625,-46.875,-49.31640625
-82.51953125,-58.59375,-57.12890625,-118.1640625
-77.63671875,-51.26953125,-66.89453125,-109.86328125
-54.6875,-44.921875,-59.08203125,-45.8984375
-41.50390625,-57.6171875,-51.7578125,-9.765625
-53.7109375,-60.05859375,-56.15234375,-48.33984375
-81.0546875,-51.26953125,-58.59375,-103.02734375
-80.078125,-47.36328125,-64.453125,-105.46875
-51.26953125,-52.24609375,-68.359375,-56.640625
-31.73828125,-53.22265625,-60.05859375,-12.20703125
-51.26953125,-52.734375,-59.5703125,-41.9921875
-83.49609375,-53.7109375,-60.546875,-107.91015625
-77.1484375,-58.10546875,-55.17578125,-114.2578125
-53.7109375,-60.05859375,-53.7109375,-54.19921875
-45.8984375,-49.8046875,-49.8046875,1.953125
-53.22265625,-39.0625,-41.9921875,-18.5546875
-83.49609375,-53.22265625,-48.828125,-89.35546875
-101.07421875,-69.82421875,-57.6171875,-114.74609375
-74.21875,-71.77734375,-55.17578125,-69.82421875
-43.9453125,-64.453125,-56.15234375,-5.37109375
-41.50390625,-48.33984375,-52.24609375,-15.13671875
-66.40625,-53.7109375,-43.45703125,-79.58984375
-82.03125,-63.96484375,-37.109375,-104.00390625
-64.94140625,-53.7109375,-37.59765625,-62.01171875
-47.36328125,-45.8984375,-41.50390625,3.41796875
-59.08203125,-41.9921875,-43.45703125,-1.46484375
-77.63671875,-39.55078125,-42.48046875,-63.4765625
-84.9609375,-47.36328125,-41.015625,-103.515625
-74.21875,-55.17578125,-45.8984375,-78.61328125
-48.33984375,-43.9453125,-51.26953125,-10.25390625
-45.41015625,-38.0859375,-52.734375,-1.953125
-58.10546875,-46.875,-53.7109375,-64.453125
-80.56640625,-60.546875,-62.5,-115.234375
-70.3125,-55.6640625,-65.4296875,-81.54296875
-35.15625,-41.50390625,-62.5,-2.44140625
-41.015625,-43.45703125,-54.6875,15.13671875
-68.359375,-47.36328125,-54.6875,-36.62109375
-84.47265625,-46.875,-55.6640625,-84.9609375
-66.89453125,-44.921875,-51.7578125,-66.89453125
-31.25,-48.33984375,-57.6171875,-6.8359375
-18.5546875,-45.41015625,-61.03515625,9.765625
-38.57421875,-44.921875,-57.6171875,-40.52734375
-74.70703125,-48.828125,-54.19921875,-91.30859375
-72.265625,-43.45703125,-51.7578125,-75.1953125
-44.921875,-40.52734375,-52.24609375,-13.18359375
-32.2265625,-50.29296875,-47.36328125,23.4375
-49.8046875,-57.6171875,-54.6875,-20.5078125
-81.0546875,-61.03515625,-60.546875,-85.9375
-78.61328125,-63.4765625,-48.828125,-83.0078125
-51.26953125,-55.6640625,-42.48046875,-22.94921875
-37.59765625,-41.015625,-41.50390625,17.08984375
-52.24609375,-48.828125,-47.8515625,-34.66796875
-80.56640625,-60.546875,-45.8984375,-108.3984375
-79.58984375,-59.08203125,-41.9921875,-120.60546875
-53.7109375,-60.546875,-44.921875,-76.66015625
-40.52734375,-56.640625,-42.96875,-27.34375
-56.15234375,-53.22265625,-39.55078125,-50.29296875
-81.0546875,-56.640625,-42.48046875,-108.88671875
-83.984375,-58.10546875,-46.875,-120.60546875
-62.5,-52.24609375,-48.828125,-68.84765625
-36.1328125,-47.8515625,-46.38671875,-14.16015625
-44.43359375,-49.8046875,-44.43359375,-31.25
-74.70703125,-54.19921875,-41.9921875,-86.9140625
-84.47265625,-61.03515625,-41.015625,-100.09765625
-66.40625,-67.87109375,-41.015625,-52.24609375
-50.78125,-58.59375,-40.0390625,1.46484375
-61.5234375,-54.6875,-41.9921875,-13.18359375
-85.44921875,-65.91796875,-42.96875,-63.4765625
-82.03125,-64.453125,-41.50390625,-91.30859375
-58.59375,-57.12890625,-37.59765625,-53.22265625
-45.8984375,-60.546875,-34.1796875,18.5546875
-51.26953125,-60.546875,-32.71484375,17.578125
-73.2421875,-61.03515625,-27.34375,-33.69140625
-70.80078125,-64.94140625,-20.5078125,-50.29296875
-46.38671875,-53.22265625,-29.78515625,-16.6015625
-39.55078125,-41.50390625,-40.52734375,31.73828125
-43.9453125,-39.0625,-41.015625,24.90234375
-60.05859375,-41.015625,-43.45703125,-42.96875
-84.47265625,-49.31640625,-44.43359375,-81.0546875
-73.2421875,-43.9453125,-50.29296875,-42.48046875
-35.15625,-23.92578125,-54.19921875,24.4140625
-39.55078125,-20.5078125,-50.29296875,33.69140625
-78.61328125,-23.4375,-51.7578125,-32.71484375
-107.421875,-21.484375,-54.19921875,-105.46875
-107.421875,-20.01953125,-57.6171875,-111.328125
-94.23828125,-21.97265625,-65.91796875,-64.94140625
-96.6796875,-17.08984375,-65.4296875,-43.45703125
-115.234375,-20.01953125,-67.3828125,-91.30859375
-128.90625,-26.85546875,-70.3125,-151.3671875
-139.6484375,-23.92578125,-71.77734375,-144.53125
-123.046875,-24.90234375,-68.359375,-83.984375
-88.37890625,-13.671875,-68.359375,-49.31640625
-103.515625,-8.7890625,-78.61328125,-99.12109375
-145.99609375,-22.4609375,-82.03125,-166.015625
-140.625,-25.87890625,-83.0078125,-165.0390625
-97.65625,-8.30078125,-82.51953125,-107.91015625
-76.171875,-3.41796875,-78.61328125,-68.84765625
-90.8203125,-11.23046875,-77.1484375,-94.7265625
-104.4921875,-7.32421875,-75.68359375,-141.6015625
-109.86328125,-15.13671875,-74.21875,-153.80859375
-84.47265625,-10.7421875,-74.21875,-123.53515625
-62.98828125,-3.41796875,-78.125,-79.1015625
-97.16796875,-12.20703125,-76.171875,-108.3984375
-123.53515625,-9.765625,-70.80078125,-174.31640625
-119.62890625,-7.8125,-66.40625,-196.2890625
-116.69921875,-20.99609375,-72.75390625,-174.8046875
-80.56640625,-14.16015625,-80.078125,-124.0234375
-69.82421875,-2.44140625,-71.77734375,-142.08984375
-98.6328125,-13.18359375,-71.77734375,-227.5390625
-104.00390625,-16.6015625,-75.68359375,-278.80859375
-98.14453125,-6.8359375,-67.87109375,-278.80859375
-68.359375,-11.23046875,-68.359375,-272.4609375
-67.87109375,-24.4140625,-83.49609375,-375.9765625
-86.9140625,-26.3671875,-91.30859375,-569.82421875
-75.1953125,-45.41015625,-75.68359375,-704.1015625
-62.5,-48.828125,-66.89453125,-749.51171875
-21.97265625,-17.08984375,-72.75390625,-706.54296875
-52.734375,-10.25390625,-76.171875,-643.06640625
-109.375,-18.06640625,-73.2421875,-701.66015625
-96.6796875,-24.4140625,-63.4765625,-737.79296875
-79.1015625,-62.01171875,-68.359375,-616.2109375
-30.76171875,-64.453125,-78.61328125,-435.546875
-17.08984375,-14.16015625,-68.84765625,-314.453125
-75.1953125,-17.578125,-58.59375,-295.8984375
-88.37890625,-39.55078125,-62.5,-274.4140625
-59.5703125,-50.29296875,-53.22265625,-183.10546875
-33.203125,-67.3828125,-56.640625,-43.45703125
-28.3203125,-46.875,-68.84765625,74.70703125
-21.484375,-18.5546875,-68.359375,93.75
-45.41015625,-24.90234375,-68.84765625,67.3828125
-50.78125,-48.828125,-61.03515625,116.2109375
1.953125,-63.96484375,-62.5,196.2890625
-5.37109375,-54.6875,-60.546875,274.90234375
-49.8046875,-53.22265625,-64.453125,291.50390625
-52.734375,-58.10546875,-72.75390625,253.41796875
-46.38671875,-56.640625,-61.03515625,272.94921875
-33.69140625,-71.77734375,-54.19921875,375.48828125
-3.90625,-84.9609375,-67.87109375,453.61328125
10.25390625,-70.3125,-63.96484375,436.03515625
-20.5078125,-50.29296875,-52.24609375,381.34765625
-15.13671875,-42.48046875,-69.82421875,364.2578125
-15.13671875,-35.64453125,-82.03125,386.23046875
-10.7421875,-40.52734375,-83.49609375,468.75
-4.39453125,-55.17578125,-66.40625,483.88671875
-52.24609375,-69.82421875,-59.5703125,395.01953125
-62.5,-62.5,-61.5234375,350.5859375
-69.3359375,-51.7578125,-62.5,384.765625
-65.4296875,-45.41015625,-62.01171875,470.21484375
-69.82421875,-46.38671875,-72.265625,472.16796875
-81.0546875,-46.875,-80.078125,400.87890625
-74.21875,-55.6640625,-77.63671875,349.609375
-45.41015625,-64.94140625,-93.75,387.6953125
-1.953125,-51.26953125,-97.16796875,474.609375
-24.90234375,-37.109375,-71.77734375,490.234375
-97.65625,-40.52734375,-49.31640625,443.359375
-64.453125,-43.9453125,-63.4765625,375.0
-32.2265625,-60.546875,-70.80078125,384.765625
-45.41015625,-56.15234375,-72.265625,451.66015625
-41.9921875,-45.8984375,-92.7734375,438.96484375
-29.296875,-52.24609375,-85.9375,363.76953125
-61.5234375,-41.50390625,-78.61328125,270.01953125
-76.66015625,-63.4765625,-74.70703125,264.16015625
-4.8828125,-85.44921875,-67.3828125,356.4453125
-12.6953125,-41.015625,-78.61328125,361.328125
-76.171875,-4.39453125,-63.96484375,252.44140625
-100.09765625,-31.73828125,-66.89453125,142.08984375
-54.6875,-54.6875,-75.1953125,98.6328125
-40.0390625,-51.7578125,-79.58984375,145.01953125
-72.265625,-56.15234375,-91.30859375,180.6640625
-60.05859375,-67.3828125,-81.0546875,95.703125
-99.12109375,-83.49609375,-81.0546875,-31.25
-119.140625,-84.47265625,-89.84375,-47.36328125
-62.98828125,-76.66015625,-95.703125,40.0390625
-71.2890625,-80.078125,-76.66015625,104.4921875
-83.49609375,-86.9140625,-73.73046875,46.875
-98.14453125,-87.890625,-76.171875,-61.03515625
-122.55859375,-98.6328125,-73.73046875,-109.86328125
-75.68359375,-87.890625,-83.49609375,-40.0390625
-55.6640625,-68.359375,-73.73046875,49.8046875
-72.75390625,-98.14453125,-80.078125,19.53125
-83.49609375,-121.09375,-102.05078125,-80.56640625
-80.56640625,-93.75,-76.66015625,-105.95703125
-57.6171875,-85.9375,-53.22265625,-46.38671875
-53.7109375,-78.125,-48.828125,34.1796875
-99.609375,-80.078125,-54.6875,40.52734375
-121.58203125,-100.5859375,-64.453125,-59.08203125
-102.05078125,-83.0078125,-65.4296875,-107.421875
-54.19921875,-72.265625,-73.73046875,-25.390625
-9.27734375,-68.84765625,-77.63671875,43.9453125
-72.75390625,-77.63671875,-75.1953125,13.671875
-138.18359375,-97.65625,-83.0078125,-74.21875
-82.03125,-103.02734375,-81.0546875,-135.25390625
-83.49609375,-118.65234375,-85.44921875,-104.98046875
-87.40234375,-113.28125,-96.19140625,-31.73828125
-70.3125,-89.84375,-86.42578125,-17.578125
-94.7265625,-98.6328125,-84.9609375,-94.7265625
-94.23828125,-105.95703125,-79.1015625,-154.296875
-90.8203125,-104.4921875,-62.01171875,-135.25390625
-69.3359375,-93.75,-63.96484375,-43.45703125
-32.71484375,-83.49609375,-70.3125,1.953125
-59.5703125,-103.515625,-73.73046875,-87.40234375
-106.4453125,-130.859375,-88.8671875,-191.89453125
-61.5234375,-119.62890625,-103.515625,-185.546875
-53.7109375,-73.73046875,-83.984375,-87.40234375
-67.3828125,-56.640625,-68.359375,-30.2734375
-77.1484375,-58.10546875,-71.77734375,-87.40234375
-107.421875,-71.2890625,-73.73046875,-195.80078125
-82.51953125,-92.28515625,-64.94140625,-203.61328125
-23.92578125,-102.5390625,-48.828125,-100.09765625
-40.52734375,-87.40234375,-44.921875,-21.484375
-103.02734375,-79.1015625,-70.3125,-51.7578125
-133.7890625,-94.23828125,-67.3828125,-168.45703125
-94.23828125,-89.35546875,-47.36328125,-201.66015625
-31.25,-75.1953125,-44.43359375,-96.6796875
-45.41015625,-76.66015625,-51.7578125,-17.578125
-77.63671875,-86.42578125,-66.89453125,-60.546875
-89.35546875,-88.8671875,-69.82421875,-166.9921875
-70.80078125,-94.7265625,-73.73046875,-187.98828125
-26.85546875,-81.54296875,-76.171875,-102.05078125
-21.97265625,-82.03125,-71.77734375,-10.25390625
-53.22265625,-99.12109375,-82.51953125,-23.92578125
-90.8203125,-95.703125,-78.61328125,-119.140625
-81.54296875,-90.8203125,-81.0546875,-175.78125
-39.55078125,-74.70703125,-91.796875,-127.9296875
19.04296875,-64.94140625,-76.171875,-24.4140625
-12.20703125,-78.61328125,-72.265625,-6.8359375
-86.9140625,-95.703125,-74.70703125,-108.3984375
-79.58984375,-102.05078125,-71.77734375,-175.29296875
-41.50390625,-107.91015625,-66.89453125,-122.0703125
-11.23046875,-91.30859375,-75.1953125,-23.92578125
0.48828125,-58.10546875,-71.2890625,-5.37109375
-52.24609375,-69.3359375,-56.640625,-81.54296875
-91.796875,-104.98046875,-61.03515625,-173.33984375
-40.52734375,-82.51953125,-66.89453125,-153.80859375
-18.5546875,-54.19921875,-62.01171875,-39.0625
-45.41015625,-64.94140625,-62.98828125,-11.23046875
-64.453125,-83.49609375,-64.94140625,-87.890625
-59.08203125,-81.0546875,-65.4296875,-155.76171875
-25.87890625,-68.84765625,-71.77734375,-131.8359375
1.46484375,-59.5703125,-72.265625,-36.1328125
-7.32421875,-62.5,-56.15234375,18.5546875
-41.9921875,-72.265625,-44.921875,-44.921875
-65.91796875,-60.546875,-46.875,-136.71875
-54.6875,-55.17578125,-53.22265625,-133.30078125
-21.97265625,-63.4765625,-60.05859375,-60.546875
-14.6484375,-66.89453125,-59.5703125,-11.71875
-50.78125,-66.40625,-57.6171875,-62.01171875
-78.125,-68.84765625,-53.7109375,-155.2734375
-49.31640625,-68.84765625,-49.31640625,-161.1328125
-26.85546875,-66.40625,-57.6171875,-74.21875
-27.83203125,-62.5,-67.3828125,-7.8125
-54.19921875,-63.96484375,-66.40625,-51.26953125
-66.40625,-65.91796875,-60.546875,-150.87890625
-38.0859375,-58.10546875,-59.5703125,-169.43359375
-21.484375,-59.5703125,-61.5234375,-77.63671875
-29.296875,-54.19921875,-49.8046875,1.953125
-60.546875,-51.7578125,-47.36328125,-34.1796875
-73.73046875,-62.01171875,-47.8515625,-136.71875
-58.59375,-62.5,-41.9921875,-168.9453125
-32.2265625,-59.08203125,-41.015625,-94.7265625
-1.953125,-47.36328125,-39.0625,-17.08984375
-44.921875,-55.6640625,-39.0625,-16.6015625
-88.37890625,-63.4765625,-39.0625,-96.6796875
-62.5,-54.6875,-42.96875,-162.109375
-19.04296875,-46.38671875,-46.38671875,-102.05078125
-2.44140625,-41.50390625,-45.8984375,4.39453125
-29.296875,-46.38671875,-43.45703125,9.765625
-63.4765625,-58.10546875,-47.8515625,-93.26171875
-65.4296875,-58.59375,-43.9453125,-148.92578125
-14.16015625,-52.734375,-31.25,-88.37890625
3.90625,-54.6875,-32.2265625,3.41796875
-32.2265625,-54.6875,-31.73828125,0.0
-60.546875,-50.29296875,-17.578125,-85.44921875
-36.62109375,-47.36328125,-14.6484375,-137.6953125
-15.13671875,-47.36328125,-24.90234375,-92.28515625
0.48828125,-32.2265625,-23.92578125,10.25390625
6.34765625,-25.390625,-34.66796875,29.78515625
-45.8984375,-38.57421875,-46.38671875,-67.87109375
-67.87109375,-35.15625,-38.57421875,-148.4375
-28.3203125,-40.52734375,-32.2265625,-112.3046875
2.44140625,-51.7578125,-30.76171875,-12.20703125
-15.625,-41.50390625,-45.8984375,32.2265625
-46.875,-40.0390625,-59.5703125,-23.4375
-44.43359375,-43.9453125,-42.96875,-123.046875
-18.06640625,-51.26953125,-30.76171875,-123.53515625
-8.30078125,-54.19921875,-33.69140625,-18.5546875
-10.7421875,-44.43359375,-33.69140625,41.9921875
-37.59765625,-48.33984375,-36.62109375,-23.4375
-68.359375,-51.7578125,-42.96875,-123.046875
-47.8515625,-41.015625,-43.45703125,-114.74609375
-8.30078125,-27.83203125,-41.015625,-14.6484375
-6.8359375,-29.296875,-46.38671875,53.22265625
-32.71484375,-43.9453125,-48.33984375,3.41796875
-53.7109375,-57.6171875,-50.29296875,-100.09765625
-41.015625,-59.08203125,-55.6640625,-118.65234375
-14.16015625,-42.48046875,-61.5234375,-28.80859375
-13.671875,-32.2265625,-63.96484375,45.8984375
-25.87890625,-30.2734375,-60.546875,10.25390625
-48.828125,-44.921875,-61.03515625,-84.47265625
-37.59765625,-55.17578125,-55.6640625,-125.0
-28.80859375,-45.41015625,-48.33984375,-47.8515625
-46.38671875,-41.015625,-47.36328125,30.2734375
-50.78125,-35.64453125,-55.6640625,1.953125
-66.40625,-40.52734375,-56.15234375,-89.84375
-60.546875,-58.10546875,-57.6171875,-138.671875
-9.765625,-56.640625,-77.1484375,-63.4765625
-12.6953125,-47.8515625,-77.63671875,44.43359375
-35.64453125,-49.31640625,-57.12890625,38.0859375
-54.19921875,-47.8515625,-56.640625,-60.05859375
-65.4296875,-44.43359375,-54.6875,-117.1875
-11.23046875,-38.57421875,-53.22265625,-68.359375
-10.7421875,-35.15625,-61.03515625,25.87890625
-28.80859375,-32.2265625,-55.6640625,31.73828125
-51.26953125,-41.9921875,-50.29296875,-66.89453125
-76.66015625,-48.33984375,-46.875,-129.39453125
-41.015625,-35.15625,-45.41015625,-74.21875
-14.6484375,-38.57421875,-53.22265625,25.390625
-14.6484375,-41.9921875,-52.734375,43.45703125
-59.08203125,-49.8046875,-47.36328125,-43.9453125
-73.2421875,-54.19921875,-54.19921875,-121.09375
-38.57421875,-45.41015625,-58.59375,-89.35546875
-2.9296875,-42.96875,-55.17578125,19.04296875
-14.16015625,-38.0859375,-50.29296875,62.01171875
-68.84765625,-33.69140625,-55.17578125,-34.66796875
-77.63671875,-36.62109375,-55.17578125,-131.8359375
-39.55078125,-33.69140625,-56.640625,-103.02734375
-0.48828125,-22.4609375,-56.15234375,-1.46484375
-15.625,-30.76171875,-47.8515625,34.1796875
-66.89453125,-49.8046875,-47.8515625,-25.390625
-61.03515625,-52.734375,-49.8046875,-116.2109375
-50.78125,-56.15234375,-45.41015625,-116.69921875
-24.4140625,-48.828125,-57.12890625,-21.97265625
-17.578125,-31.25,-59.5703125,35.64453125
-51.7578125,-41.50390625,-43.9453125,-20.01953125
-70.80078125,-49.8046875,-42.48046875,-111.81640625
-49.31640625,-41.015625,-43.9453125,-118.65234375
-21.97265625,-38.0859375,-42.96875,-27.34375
-36.1328125,-40.0390625,-43.9453125,42.48046875
-47.8515625,-37.109375,-46.875,-0.48828125
-50.29296875,-43.9453125,-52.734375,-86.42578125
-47.36328125,-52.24609375,-59.5703125,-121.09375
-20.01953125,-43.9453125,-49.8046875,-34.66796875
11.71875,-26.3671875,-38.57421875,60.05859375
-21.484375,-21.97265625,-37.109375,26.3671875
-52.734375,-32.2265625,-43.9453125,-70.80078125
-36.62109375,-42.48046875,-54.6875,-101.07421875
-8.7890625,-40.0390625,-53.7109375,-34.66796875
14.16015625,-29.296875,-49.8046875,41.50390625
-23.92578125,-36.62109375,-59.5703125,20.99609375
-63.96484375,-34.66796875,-58.59375,-74.70703125
-47.8515625,-22.4609375,-52.24609375,-133.30078125
-13.18359375,-35.15625,-56.640625,-76.171875
-1.46484375,-36.62109375,-62.98828125,14.16015625
-35.64453125,-27.83203125,-58.10546875,0.48828125
-71.2890625,-26.85546875,-41.015625,-86.9140625
-62.98828125,-34.66796875,-48.828125,-144.04296875
-34.1796875,-37.109375,-61.03515625,-89.35546875
-22.94921875,-36.1328125,-55.17578125,11.71875
-27.83203125,-35.15625,-48.33984375,23.4375
-66.89453125,-36.62109375,-48.828125,-61.03515625
-79.58984375,-46.38671875,-49.31640625,-126.46484375
-55.6640625,-45.41015625,-49.31640625,-92.7734375
-25.87890625,-31.73828125,-40.52734375,3.90625
-42.48046875,-34.66796875,-38.57421875,28.80859375
-77.63671875,-42.96875,-45.8984375,-48.828125
-71.2890625,-39.55078125,-40.0390625,-125.0
-51.26953125,-41.015625,-40.0390625,-102.05078125
-20.5078125,-43.45703125,-40.0390625,-2.44140625
-16.11328125,-41.50390625,-45.41015625,27.83203125
-65.91796875,-37.59765625,-57.6171875,-55.6640625
-72.75390625,-36.62109375,-50.78125,-132.8125
-39.0625,-37.109375,-45.8984375,-110.83984375
3.41796875,-28.80859375,-45.8984375,-9.765625
-9.27734375,-22.4609375,-38.57421875,44.43359375
-62.5,-25.87890625,-41.9921875,-32.71484375
-58.10546875,-33.203125,-51.7578125,-125.48828125
-21.97265625,-34.66796875,-45.8984375,-118.1640625
2.9296875,-34.1796875,-44.921875,-20.5078125
11.71875,-28.3203125,-46.875,45.41015625
-19.53125,-23.92578125,-42.96875,-2.9296875
-55.17578125,-32.71484375,-41.50390625,-95.703125
-29.296875,-35.64453125,-36.1328125,-103.515625
-2.44140625,-39.55078125,-39.55078125,-23.4375
-3.90625,-32.2265625,-49.8046875,37.59765625
-21.97265625,-24.90234375,-50.29296875,-1.46484375
-68.359375,-37.109375,-42.48046875,-96.19140625
-66.89453125,-30.76171875,-33.203125,-115.234375
-17.08984375,-20.01953125,-27.83203125,-37.59765625
-14.6484375,-24.90234375,-24.90234375,46.875
-35.64453125,-22.4609375,-26.85546875,20.99609375
-53.7109375,-33.69140625,-35.15625,-87.890625
-47.8515625,-47.36328125,-33.203125,-128.90625
-27.34375,-43.9453125,-25.87890625,-66.40625
-10.7421875,-33.203125,-20.01953125,34.66796875
-20.99609375,-22.94921875,-22.94921875,21.97265625
-69.82421875,-36.1328125,-20.01953125,-94.23828125
-41.50390625,-45.41015625,-17.578125,-135.7421875
2.9296875,-31.73828125,-26.85546875,-82.03125
-24.90234375,-22.94921875,-20.5078125,10.7421875
-37.109375,-18.5546875,-9.765625,19.04296875
-61.03515625,-24.90234375,-14.16015625,-72.265625
-68.359375,-39.0625,-25.390625,-142.08984375
-38.0859375,-41.015625,-21.97265625,-89.35546875
-12.20703125,-34.1796875,-20.99609375,14.6484375
-7.32421875,-31.73828125,-35.15625,22.94921875
-58.59375,-42.96875,-35.15625,-53.22265625
-83.0078125,-47.36328125,-32.2265625,-125.0
-32.71484375,-39.0625,-39.55078125,-100.09765625
-7.32421875,-30.76171875,-33.69140625,8.7890625
-24.90234375,-25.390625,-22.4609375,48.828125
-47.8515625,-19.04296875,-21.484375,-24.90234375
-59.08203125,-32.2265625,-26.85546875,-113.28125
-42.96875,-54.6875,-35.64453125,-103.515625
-20.99609375,-50.78125,-42.48046875,-11.23046875
-29.78515625,-32.71484375,-36.62109375,29.296875
-60.05859375,-26.85546875,-31.25,-43.45703125
-70.3125,-41.015625,-34.1796875,-132.8125
-41.9921875,-46.38671875,-35.15625,-125.9765625
-16.6015625,-37.59765625,-39.0625,-25.87890625
-25.390625,-35.64453125,-35.64453125,30.76171875
-52.734375,-44.921875,-28.3203125,-23.4375
-62.5,-44.43359375,-36.1328125,-112.3046875
-40.52734375,-34.1796875,-45.41015625,-117.67578125
-7.32421875,-32.2265625,-31.73828125,-23.4375
-13.18359375,-36.62109375,-21.97265625,46.38671875
-45.41015625,-37.109375,-33.203125,-4.39453125
-65.91796875,-41.50390625,-44.43359375,-111.328125
-40.0390625,-46.38671875,-46.875,-131.34765625
4.8828125,-40.0390625,-46.875,-39.55078125
-12.6953125,-39.0625,-44.43359375,38.57421875
-54.6875,-41.9921875,-48.33984375,-0.9765625
-77.63671875,-43.45703125,-49.31640625,-98.6328125
-70.80078125,-45.41015625,-45.8984375,-132.32421875
-37.109375,-36.62109375,-47.36328125,-54.6875
-20.99609375,-30.2734375,-42.96875,35.15625
-49.31640625,-34.66796875,-49.8046875,12.6953125
-74.21875,-45.8984375,-53.7109375,-83.984375
-62.01171875,-55.6640625,-46.875,-134.765625
-33.203125,-54.19921875,-48.828125,-66.40625
-19.04296875,-47.36328125,-48.828125,37.109375
-42.48046875,-48.33984375,-43.45703125,30.2734375
-67.87109375,-51.26953125,-44.921875,-67.87109375
-57.6171875,-53.7109375,-49.31640625,-125.9765625
-23.92578125,-48.33984375,-46.875,-60.546875
-3.90625,-31.73828125,-47.8515625,48.33984375
-23.4375,-29.78515625,-45.41015625,57.6171875
-61.5234375,-41.9921875,-46.875,-36.1328125
-54.6875,-47.36328125,-54.6875,-114.2578125
-23.4375,-47.36328125,-48.828125,-72.75390625
-9.27734375,-38.57421875,-41.50390625,30.76171875
-16.6015625,-28.3203125,-36.1328125,53.7109375
-52.24609375,-33.69140625,-38.0859375,-33.203125
-61.5234375,-42.48046875,-51.7578125,-113.28125
-38.0859375,-42.96875,-59.08203125,-79.1015625
-18.06640625,-41.015625,-50.29296875,29.296875
-31.73828125,-38.0859375,-38.0859375,63.4765625
-62.5,-42.96875,-31.73828125,-7.8125
-66.89453125,-45.8984375,-38.57421875,-96.6796875
-51.26953125,-36.62109375,-50.78125,-90.8203125
-20.99609375,-31.25,-46.875,12.20703125
-25.390625,-37.109375,-43.45703125,56.640625
-65.91796875,-40.0390625,-44.921875,-4.8828125
-73.73046875,-40.0390625,-46.875,-96.6796875
-50.29296875,-38.57421875,-41.9921875,-95.703125
-21.484375,-34.1796875,-37.109375,1.953125
-28.80859375,-38.57421875,-44.43359375,62.5
-60.546875,-48.33984375,-35.64453125,6.8359375
-75.68359375,-50.29296875,-24.90234375,-88.37890625
-59.5703125,-46.38671875,-30.76171875,-98.6328125
-16.11328125,-41.015625,-21.97265625,-7.32421875
-23.92578125,-37.59765625,-19.04296875,66.89453125
-68.359375,-42.96875,-28.80859375,23.4375
-74.70703125,-47.36328125,-31.73828125,-79.58984375
-66.40625,-51.26953125,-29.78515625,-110.83984375
-39.0625,-50.29296875,-30.76171875,-31.25
-11.23046875,-44.921875,-28.3203125,50.29296875
-40.0390625,-46.875,-30.2734375,18.5546875
-77.63671875,-52.24609375,-34.66796875,-77.1484375
-59.08203125,-46.875,-28.3203125,-110.3515625
-24.4140625,-30.76171875,-22.4609375,-33.203125
-12.20703125,-32.71484375,-19.53125,63.96484375
-33.203125,-41.015625,-20.99609375,45.41015625
-62.5,-42.96875,-25.87890625,-52.734375
-54.6875,-44.43359375,-31.25,-100.5859375
-20.99609375,-41.9921875,-32.2265625,-40.52734375
-10.7421875,-36.62109375,-29.78515625,60.546875
-24.4140625,-29.78515625,-25.87890625,58.59375
-56.640625,-33.69140625,-30.2734375,-40.52734375
-62.5,-41.015625,-37.59765625,-100.09765625
-35.15625,-42.48046875,-35.15625,-47.8515625
-17.578125,-36.62109375,-28.3203125,42.48046875
-22.4609375,-31.25,-25.390625,46.875
-57.12890625,-35.15625,-31.73828125,-38.57421875
-67.3828125,-39.0625,-33.203125,-103.515625
-43.45703125,-36.62109375,-35.64453125,-54.6875
-16.6015625,-30.2734375,-39.0625,40.0390625
-27.83203125,-38.0859375,-42.48046875,55.17578125
-47.8515625,-41.015625,-43.9453125,-18.5546875
-54.6875,-32.71484375,-43.45703125,-97.65625
-39.0625,-32.71484375,-36.62109375,-73.73046875
-12.6953125,-29.78515625,-35.64453125,23.4375
-27.83203125,-29.296875,-40.52734375,59.5703125
-60.05859375,-36.1328125,-45.8984375,-13.671875
-70.80078125,-40.52734375,-58.59375,-104.98046875
-44.921875,-37.59765625,-61.03515625,-93.26171875
-20.99609375,-36.1328125,-63.96484375,-1.953125
-24.90234375,-28.80859375,-61.5234375,54.19921875
-48.33984375,-29.78515625,-59.08203125,0.0
-64.94140625,-45.41015625,-61.03515625,-89.35546875
-42.96875,-50.78125,-50.78125,-91.30859375
-12.20703125,-48.828125,-43.45703125,-9.27734375
-10.25390625,-38.57421875,-42.48046875,55.6640625
-38.57421875,-40.0390625,-49.31640625,0.9765625
-74.21875,-50.29296875,-56.640625,-104.00390625
-62.98828125,-46.38671875,-58.10546875,-117.67578125
-27.34375,-44.43359375,-53.7109375,-23.92578125
-20.5078125,-40.52734375,-46.875,56.15234375
-56.640625,-46.38671875,-55.6640625,10.25390625
-85.9375,-50.78125,-67.3828125,-88.37890625
-66.40625,-47.8515625,-63.96484375,-115.234375
-34.1796875,-51.26953125,-50.78125,-36.62109375
-28.80859375,-44.921875,-40.0390625,52.734375
-47.8515625,-37.59765625,-39.55078125,26.3671875
-65.4296875,-34.66796875,-38.0859375,-69.3359375
-61.5234375,-40.0390625,-44.921875,-117.1875
-39.55078125,-48.828125,-49.8046875,-58.10546875
-25.390625,-41.50390625,-42.48046875,35.15625
-49.31640625,-37.109375,-44.921875,20.99609375
-80.078125,-40.52734375,-48.828125,-80.56640625
-66.40625,-38.0859375,-52.24609375,-130.37109375
-31.73828125,-26.85546875,-56.15234375,-65.4296875
-22.4609375,-33.203125,-56.15234375,26.3671875
-36.1328125,-43.45703125,-54.6875,21.484375
-54.19921875,-32.71484375,-54.19921875,-65.4296875
-50.29296875,-29.78515625,-47.8515625,-119.140625
-25.390625,-27.83203125,-43.45703125,-61.5234375
-2.9296875,-20.99609375,-43.45703125,41.015625
-22.94921875,-24.90234375,-37.109375,58.59375
-54.6875,-28.80859375,-38.57421875,-29.78515625
-54.6875,-31.73828125,-48.828125,-109.86328125
-34.66796875,-36.1328125,-52.734375,-81.0546875
-3.41796875,-28.80859375,-45.8984375,22.94921875
-12.20703125,-19.04296875,-41.50390625,62.01171875
-44.921875,-26.3671875,-46.38671875,-21.484375
-56.15234375,-38.0859375,-51.26953125,-113.28125
-41.015625,-38.57421875,-50.78125,-92.28515625
-17.08984375,-36.62109375,-46.38671875,14.16015625
-30.76171875,-37.109375,-45.8984375,61.5234375
-64.94140625,-41.9921875,-47.36328125,-13.18359375
-78.125,-48.828125,-46.875,-103.515625
-62.98828125,-49.31640625,-47.8515625,-100.5859375
-35.15625,-48.33984375,-43.9453125,-11.23046875
-39.55078125,-44.921875,-34.66796875,50.29296875
-71.77734375,-46.38671875,-31.25,-11.71875
-95.21484375,-46.875,-35.64453125,-104.00390625
-71.2890625,-42.48046875,-36.1328125,-106.4453125
-34.1796875,-44.921875,-32.2265625,-21.484375
-44.43359375,-49.31640625,-32.71484375,40.52734375
-74.70703125,-51.26953125,-35.64453125,-9.27734375
-87.890625,-54.19921875,-36.62109375,-107.421875
-71.77734375,-58.59375,-39.0625,-127.44140625
-41.50390625,-53.22265625,-39.0625,-36.62109375
-32.2265625,-39.0625,-41.015625,42.96875
-53.22265625,-36.62109375,-38.57421875,9.27734375
-80.56640625,-45.8984375,-27.34375,-86.9140625
-65.91796875,-50.78125,-29.78515625,-122.55859375
-28.3203125,-38.57421875,-37.59765625,-45.41015625
-21.484375,-35.64453125,-38.0859375,46.38671875
-41.015625,-47.36328125,-42.48046875,22.94921875
-65.91796875,-51.7578125,-44.43359375,-74.21875
-58.59375,-55.17578125,-45.41015625,-124.51171875
-30.2734375,-50.78125,-45.41015625,-57.12890625
-14.16015625,-40.0390625,-39.0625,36.1328125
-24.90234375,-34.66796875,-37.59765625,31.73828125
-71.77734375,-43.45703125,-44.43359375,-58.59375
-61.5234375,-46.875,-45.41015625,-116.69921875
-27.83203125,-39.0625,-42.96875,-61.03515625
-20.5078125,-28.80859375,-40.52734375,38.0859375
-25.390625,-23.4375,-36.1328125,41.50390625
-57.12890625,-39.0625,-34.1796875,-47.8515625
-61.5234375,-43.45703125,-38.0859375,-123.53515625
-39.55078125,-44.921875,-39.55078125,-83.0078125
-13.671875,-40.0390625,-37.109375,26.3671875
-15.625,-23.4375,-32.71484375,51.26953125
-49.8046875,-24.90234375,-32.2265625,-24.4140625
-63.96484375,-40.0390625,-41.015625,-109.86328125
-40.0390625,-41.50390625,-39.0625,-87.40234375
-18.06640625,-33.69140625,-29.78515625,14.16015625
-36.1328125,-34.66796875,-25.87890625,50.29296875
-68.84765625,-39.55078125,-25.87890625,-27.83203125
-80.56640625,-42.96875,-28.80859375,-115.234375
-57.6171875,-47.36328125,-25.390625,-96.6796875
-31.73828125,-54.6875,-32.71484375,0.0
-34.1796875,-51.26953125,-39.0625,45.41015625
-58.10546875,-43.45703125,-32.2265625,-19.53125
-79.1015625,-50.29296875,-32.2265625,-109.86328125
-64.94140625,-55.17578125,-36.1328125,-112.79296875
-27.83203125,-52.734375,-34.1796875,-20.99609375
-29.296875,-41.50390625,-28.80859375,41.50390625
-55.17578125,-33.69140625,-34.66796875,-15.13671875
-75.68359375,-42.96875,-38.0859375,-111.81640625
-62.98828125,-47.36328125,-37.59765625,-125.9765625
-18.5546875,-38.0859375,-40.52734375,-41.50390625
-27.34375,-29.78515625,-35.64453125,38.0859375
-71.77734375,-35.64453125,-31.73828125,-6.34765625
-85.9375,-44.921875,-33.69140625,-105.95703125
-65.91796875,-44.43359375,-31.73828125,-119.62890625
-33.69140625,-46.875,-36.62109375,-41.015625
-25.390625,-38.57421875,-41.015625,36.62109375
-46.38671875,-31.73828125,-41.015625,15.625
-68.359375,-40.52734375,-38.0859375,-77.63671875
-46.38671875,-39.55078125,-33.203125,-113.76953125
-20.5078125,-34.1796875,-36.62109375,-34.1796875
3.90625,-30.2734375,-28.80859375,59.5703125
-11.71875,-26.3671875,-21.484375,40.52734375
-66.40625,-32.71484375,-25.390625,-55.6640625
-57.6171875,-41.015625,-31.73828125,-109.375
-27.34375,-37.109375,-33.69140625,-50.78125
-16.6015625,-24.4140625,-28.80859375,39.55078125
-27.34375,-21.484375,-31.25,32.71484375
-63.4765625,-32.2265625,-40.52734375,-62.98828125
-58.59375,-35.64453125,-47.8515625,-124.0234375
-25.87890625,-38.0859375,-45.8984375,-67.87109375
-11.23046875,-32.2265625,-37.59765625,38.57421875
-20.99609375,-19.53125,-39.0625,47.36328125
-49.8046875,-26.3671875,-44.921875,-48.828125
-49.8046875,-24.4140625,-43.45703125,-117.1875
-27.83203125,-23.92578125,-46.38671875,-86.42578125
-16.11328125,-34.66796875,-47.36328125,12.6953125
-29.78515625,-29.78515625,-47.36328125,41.015625
-61.5234375,-29.78515625,-50.78125,-48.828125
-64.94140625,-34.66796875,-51.7578125,-126.46484375
-45.41015625,-30.2734375,-48.828125,-91.796875
-26.85546875,-27.83203125,-45.8984375,11.23046875
-38.0859375,-28.3203125,-48.828125,44.921875
-75.68359375,-32.71484375,-51.26953125,-34.66796875
-89.35546875,-45.8984375,-48.828125,-115.72265625
-71.2890625,-50.78125,-49.8046875,-100.09765625
-42.48046875,-41.015625,-55.17578125,-2.9296875
-41.015625,-39.55078125,-54.19921875,44.921875
-68.359375,-45.8984375,-55.17578125,-25.87890625
-79.1015625,-52.24609375,-60.546875,-118.1640625
-55.17578125,-55.17578125,-54.6875,-109.86328125
-16.11328125,-49.8046875,-46.38671875,-6.8359375
-17.578125,-44.921875,-47.36328125,53.7109375
-54.19921875,-51.7578125,-53.22265625,-7.32421875
-70.3125,-56.15234375,-58.10546875,-107.91015625
-45.8984375,-46.875,-54.19921875,-120.1171875
-18.06640625,-37.109375,-50.29296875,-20.5078125
-21.97265625,-35.15625,-50.78125,48.828125
-49.31640625,-37.59765625,-51.7578125,-4.8828125
-68.359375,-41.9921875,-56.640625,-97.16796875
-53.7109375,-47.8515625,-55.6640625,-112.3046875
-35.15625,-41.50390625,-50.29296875,-27.34375
-43.9453125,-40.52734375,-44.921875,42.96875
-63.4765625,-42.48046875,-52.24609375,-1.953125
-86.42578125,-40.52734375,-58.59375,-107.421875
-78.61328125,-39.0625,-45.41015625,-136.71875
-42.48046875,-32.2265625,-40.0390625,-51.26953125
-31.25,-28.3203125,-41.9921875,32.2265625
-55.6640625,-34.66796875,-45.8984375,-1.46484375
-85.44921875,-47.8515625,-47.8515625,-100.5859375
-70.3125,-43.45703125,-43.9453125,-134.27734375
-35.64453125,-44.921875,-43.45703125,-68.359375
-24.4140625,-43.9453125,-41.9921875,17.08984375
-41.9921875,-35.15625,-37.59765625,8.7890625
-72.265625,-43.45703125,-44.921875,-90.33203125
-61.03515625,-45.8984375,-52.734375,-143.5546875
-23.4375,-34.66796875,-51.26953125,-77.1484375
-16.6015625,-32.71484375,-48.33984375,18.5546875
-47.8515625,-38.0859375,-49.31640625,9.765625
-76.66015625,-44.43359375,-49.31640625,-81.54296875
-84.47265625,-52.24609375,-43.9453125,-139.6484375
-53.7109375,-52.734375,-39.55078125,-99.609375
-23.92578125,-39.0625,-40.0390625,-0.48828125
-30.2734375,-25.390625,-37.59765625,12.20703125
-69.82421875,-39.55078125,-40.0390625,-79.58984375
-89.35546875,-56.15234375,-39.55078125,-147.4609375
-61.5234375,-51.26953125,-41.015625,-109.375
-24.90234375,-39.0625,-41.50390625,-9.27734375
-33.203125,-40.0390625,-40.52734375,13.18359375
-71.2890625,-42.96875,-43.45703125,-63.96484375
-84.47265625,-46.38671875,-47.8515625,-137.6953125
-69.82421875,-51.7578125,-47.36328125,-115.72265625
-45.8984375,-51.26953125,-39.55078125,-13.18359375
-57.12890625,-47.8515625,-36.62109375,17.08984375
-82.51953125,-42.96875,-38.0859375,-55.17578125
-93.75,-48.828125,-41.9921875,-131.8359375
-73.73046875,-54.19921875,-43.9453125,-122.0703125
-43.9453125,-48.828125,-50.29296875,-30.2734375
-47.36328125,-45.8984375,-46.875,11.71875
-67.3828125,-50.29296875,-47.36328125,-53.22265625
-81.54296875,-56.640625,-53.22265625,-128.41796875
-64.94140625,-52.734375,-50.78125,-117.1875
-33.203125,-38.57421875,-43.9453125,-25.87890625
-28.80859375,-35.64453125,-40.52734375,27.34375
-52.24609375,-39.55078125,-41.9921875,-25.390625
-82.03125,-45.41015625,-41.9921875,-105.46875
-65.4296875,-38.57421875,-42.96875,-110.3515625
-33.69140625,-31.73828125,-44.921875,-33.69140625
-31.25,-39.55078125,-40.0390625,15.13671875
-45.41015625,-39.55078125,-38.0859375,-26.85546875
-69.3359375,-41.50390625,-41.9921875,-96.6796875
-60.546875,-44.43359375,-43.9453125,-115.72265625
-30.76171875,-38.0859375,-41.015625,-48.828125
-25.390625,-39.55078125,-37.59765625,5.37109375
-47.8515625,-42.96875,-40.0390625,-43.45703125
-76.66015625,-40.52734375,-42.96875,-113.28125
-61.03515625,-41.015625,-46.875,-113.28125
-27.83203125,-40.0390625,-48.33984375,-35.15625
-21.484375,-36.1328125,-50.78125,45.41015625
-43.45703125,-44.43359375,-52.734375,32.2265625
-74.70703125,-62.98828125,-54.19921875,-49.31640625
-67.87109375,-59.5703125,-48.828125,-90.8203125
-47.36328125,-59.08203125,-44.43359375,-53.7109375
-41.50390625,-63.96484375,-46.875,-3.41796875
-60.546875,-64.94140625,-57.6171875,-41.015625
-65.4296875,-62.5,-55.17578125,-99.609375
-56.15234375,-59.08203125,-39.55078125,-113.28125
-69.82421875,-58.10546875,-29.78515625,-102.05078125
-62.98828125,-57.6171875,-30.2734375,-62.01171875
-65.91796875,-57.6171875,-32.71484375,-87.40234375
-112.3046875,-53.7109375,-31.25,-189.453125
-133.30078125,-62.5,-33.69140625,-244.62890625
-123.53515625,-69.82421875,-32.71484375,-222.16796875
-111.328125,-67.3828125,-33.203125,-174.8046875
-120.1171875,-66.40625,-33.69140625,-176.26953125
-166.50390625,-72.265625,-29.296875,-261.23046875
-195.3125,-82.03125,-26.3671875,-345.703125
-182.6171875,-77.1484375,-21.484375,-316.40625
-166.50390625,-76.66015625,-20.01953125,-236.81640625
-182.6171875,-80.078125,-15.13671875,-236.328125
-225.09765625,-84.9609375,-10.7421875,-312.98828125
-249.51171875,-91.30859375,-13.671875,-384.27734375
-230.95703125,-90.33203125,-14.6484375,-379.39453125
-192.87109375,-86.42578125,-20.5078125,-308.10546875
-198.73046875,-92.28515625,-26.85546875,-288.0859375
-232.91015625,-98.6328125,-31.73828125,-343.75
-244.62890625,-102.05078125,-34.1796875,-378.90625
-224.609375,-96.6796875,-41.015625,-350.5859375
-186.5234375,-84.47265625,-40.0390625,-256.8359375
-184.08203125,-83.984375,-35.64453125,-194.3359375
-215.33203125,-89.84375,-37.109375,-222.16796875
-240.72265625,-99.609375,-32.71484375,-263.18359375
-221.6796875,-98.14453125,-31.25,-245.60546875
-188.96484375,-84.47265625,-29.78515625,-170.8984375
-184.08203125,-73.73046875,-22.94921875,-117.1875
-208.0078125,-76.171875,-28.3203125,-144.04296875
-239.2578125,-84.9609375,-32.71484375,-208.0078125
-225.09765625,-83.984375,-35.15625,-210.9375
-189.94140625,-82.51953125,-41.015625,-139.6484375
-192.87109375,-83.0078125,-37.59765625,-84.9609375
-209.47265625,-77.63671875,-37.59765625,-105.95703125
-213.37890625,-70.3125,-36.1328125,-152.34375
-209.47265625,-67.3828125,-26.3671875,-162.109375
-180.6640625,-60.05859375,-22.94921875,-99.12109375
-151.3671875,-52.734375,-31.25,-25.390625
-172.8515625,-55.17578125,-31.25,-38.0859375
-204.1015625,-61.03515625,-24.4140625,-95.703125
-187.01171875,-64.94140625,-31.25,-105.95703125
-157.71484375,-66.89453125,-34.1796875,-17.08984375
-133.7890625,-58.10546875,-30.2734375,96.19140625
-143.06640625,-61.5234375,-28.80859375,86.42578125
-169.921875,-65.4296875,-30.76171875,-2.9296875
-167.48046875,-63.4765625,-30.76171875,-54.6875
-132.32421875,-65.4296875,-28.80859375,-33.69140625
-98.14453125,-61.03515625,-25.87890625,12.20703125
-101.07421875,-52.24609375,-20.01953125,-19.04296875
-130.37109375,-56.640625,-21.97265625,-107.421875
-141.11328125,-63.4765625,-27.83203125,-177.24609375
-117.67578125,-65.91796875,-36.62109375,-180.6640625
-79.58984375,-65.91796875,-41.50390625,-131.8359375
-90.33203125,-66.40625,-43.9453125,-164.55078125
-115.72265625,-70.80078125,-45.8984375,-265.13671875
-113.76953125,-73.73046875,-48.33984375,-346.19140625
-93.75,-78.125,-47.36328125,-367.1875
-63.4765625,-81.54296875,-50.29296875,-329.58984375
-63.96484375,-80.56640625,-55.17578125,-350.5859375
-88.8671875,-83.0078125,-57.6171875,-444.82421875
-104.98046875,-97.65625,-67.3828125,-531.73828125
-87.890625,-109.86328125,-79.1015625,-552.24609375
-54.19921875,-115.72265625,-76.66015625,-500.0
-47.8515625,-123.046875,-70.80078125,-495.60546875
-69.3359375,-132.8125,-77.1484375,-576.66015625
-88.8671875,-144.53125,-76.171875,-645.01953125
-78.125,-157.71484375,-71.2890625,-626.46484375
-42.48046875,-168.9453125,-77.63671875,-504.39453125
-45.8984375,-175.78125,-88.8671875,-416.015625
-79.1015625,-184.5703125,-95.703125,-435.546875
-87.40234375,-192.3828125,-93.26171875,-441.89453125
-71.77734375,-195.80078125,-95.21484375,-392.578125
-40.0390625,-190.91796875,-101.07421875,-298.33984375
-26.3671875,-181.15234375,-101.5625,-211.9140625
-41.9921875,-178.7109375,-105.95703125,-228.515625
-58.10546875,-178.22265625,-112.3046875,-281.25
-42.96875,-175.78125,-112.3046875,-265.625
-11.23046875,-167.48046875,-109.375,-189.453125
-11.23046875,-160.64453125,-112.79296875,-122.55859375
-29.296875,-161.1328125,-108.3984375,-125.0
-45.41015625,-154.78515625,-102.5390625,-167.48046875
-42.96875,-148.92578125,-111.81640625,-201.66015625
-8.30078125,-139.16015625,-106.4453125,-156.25
10.25390625,-125.48828125,-100.09765625,-93.26171875
-10.25390625,-120.60546875,-105.95703125,-114.2578125
-25.87890625,-112.3046875,-102.05078125,-164.0625
-23.4375,-116.2109375,-95.703125,-184.08203125
16.11328125,-106.93359375,-86.42578125,-113.76953125
46.38671875,-82.51953125,-77.63671875,-19.04296875
24.90234375,-79.1015625,-72.265625,-1.46484375
6.8359375,-74.70703125,-68.84765625,-30.2734375
4.8828125,-66.40625,-61.03515625,-46.38671875
26.3671875,-62.5,-57.12890625,-1.953125
70.3125,-50.78125,-55.6640625,70.3125
88.8671875,-40.0390625,-54.6875,70.80078125
83.0078125,-29.296875,-54.19921875,19.04296875
85.9375,-23.92578125,-46.38671875,-6.34765625
111.328125,-23.4375,-41.9921875,48.33984375
141.6015625,-13.18359375,-43.9453125,142.08984375
140.13671875,-4.39453125,-41.50390625,171.875
119.140625,-13.671875,-38.0859375,126.953125
102.05078125,-22.94921875,-38.57421875,61.03515625
151.3671875,-16.6015625,-34.1796875,78.61328125
208.0078125,-2.9296875,-32.71484375,159.66796875
196.2890625,9.27734375,-33.69140625,176.26953125
192.3828125,16.11328125,-33.69140625,121.58203125
206.54296875,23.4375,-30.76171875,97.65625
224.12109375,27.34375,-28.80859375,121.09375
265.13671875,28.80859375,-25.390625,187.5
288.0859375,36.1328125,-24.90234375,244.140625
279.78515625,41.9921875,-31.73828125,190.91796875
275.87890625,43.9453125,-36.62109375,113.76953125
315.91796875,47.8515625,-38.57421875,151.3671875
359.375,50.78125,-32.2265625,245.60546875
370.60546875,54.6875,-29.296875,287.109375
339.35546875,50.78125,-40.52734375,250.0
313.96484375,49.31640625,-41.50390625,195.80078125
353.02734375,54.6875,-29.296875,195.80078125
406.73828125,61.5234375,-22.4609375,267.578125
429.6875,57.6171875,-18.06640625,320.3125
411.1328125,49.31640625,-17.578125,274.4140625
379.39453125,46.875,-21.484375,208.984375
380.859375,46.38671875,-15.13671875,199.21875
385.7421875,44.43359375,-1.46484375,257.32421875
388.18359375,44.921875,11.71875,317.87109375
375.0,57.12890625,13.18359375,281.25
325.1953125,61.5234375,8.7890625,195.3125
303.22265625,60.05859375,11.71875,160.64453125
328.61328125,70.3125,10.7421875,198.2421875
341.30859375,80.078125,11.71875,258.7890625
300.29296875,70.80078125,12.6953125,242.67578125
247.55859375,57.12890625,10.7421875,177.24609375
236.328125,58.59375,5.859375,153.80859375
248.53515625,62.98828125,1.953125,188.96484375
251.953125,60.05859375,11.23046875,257.32421875
228.515625,63.96484375,18.06640625,242.67578125
187.98828125,65.91796875,6.34765625,149.90234375
175.29296875,58.59375,1.953125,109.375
176.26953125,52.24609375,6.34765625,147.94921875
187.01171875,52.24609375,2.9296875,221.19140625
175.78125,53.22265625,4.8828125,227.5390625
142.08984375,52.24609375,3.90625,162.109375
131.34765625,52.24609375,1.953125,115.72265625
155.76171875,55.6640625,8.7890625,148.92578125
177.24609375,57.12890625,7.32421875,228.515625
151.3671875,53.7109375,4.8828125,238.76953125
117.67578125,52.734375,7.32421875,174.8046875
97.65625,63.4765625,1.46484375,118.65234375
103.515625,66.89453125,-12.6953125,119.62890625
138.671875,62.5,-2.44140625,210.44921875
125.0,56.15234375,6.34765625,246.09375
83.0078125,40.52734375,-1.953125,181.15234375
62.98828125,35.15625,-3.90625,137.20703125
67.87109375,46.875,-14.16015625,150.87890625
91.30859375,54.6875,-15.13671875,225.09765625
88.8671875,48.828125,-7.32421875,261.71875
59.08203125,44.921875,-14.16015625,201.66015625
30.2734375,41.015625,-19.53125,117.67578125
36.1328125,32.2265625,-23.4375,106.93359375
60.05859375,35.15625,-29.296875,165.52734375
62.98828125,41.9921875,-28.80859375,187.5
41.50390625,35.64453125,-31.25,119.62890625
4.8828125,25.87890625,-33.69140625,32.2265625
5.37109375,17.08984375,-30.76171875,12.6953125
34.1796875,11.71875,-26.85546875,70.3125
48.828125,16.11328125,-27.83203125,113.28125
32.2265625,19.04296875,-30.76171875,44.43359375
8.7890625,0.9765625,-29.78515625,-62.5
18.06640625,-10.7421875,-30.76171875,-80.078125
41.015625,-6.34765625,-27.83203125,-18.06640625
57.6171875,-3.90625,-19.04296875,32.71484375
33.69140625,-10.7421875,-21.97265625,-16.6015625
-8.7890625,-23.92578125,-31.25,-124.0234375
-5.37109375,-29.78515625,-30.76171875,-166.50390625
19.53125,-25.87890625,-30.76171875,-104.4921875
28.3203125,-20.99609375,-38.0859375,-32.71484375
7.32421875,-24.90234375,-43.9453125,-62.01171875
-25.390625,-35.15625,-47.36328125,-152.34375
-30.2734375,-41.50390625,-55.17578125,-198.73046875
-8.7890625,-39.55078125,-56.15234375,-138.671875
22.4609375,-31.73828125,-43.9453125,-32.71484375
13.671875,-33.69140625,-41.50390625,-27.34375
-29.296875,-36.1328125,-49.31640625,-119.62890625
-35.15625,-40.52734375,-48.33984375,-173.828125
-4.39453125,-50.78125,-38.57421875,-118.1640625
20.99609375,-44.43359375,-37.59765625,-18.06640625
3.41796875,-38.0859375,-43.9453125,-29.296875
-30.2734375,-50.78125,-40.52734375,-122.0703125
-29.296875,-53.22265625,-41.015625,-166.50390625
-3.90625,-45.41015625,-39.55078125,-116.2109375
21.97265625,-43.9453125,-32.71484375,-0.9765625
15.13671875,-41.9921875,-35.64453125,23.92578125
-28.80859375,-47.8515625,-43.45703125,-71.2890625
-45.41015625,-54.6875,-48.828125,-142.578125
-18.5546875,-50.29296875,-40.52734375,-105.95703125
6.34765625,-38.0859375,-35.15625,-2.9296875
-3.41796875,-29.78515625,-39.55078125,21.484375
-36.1328125,-41.9921875,-43.9453125,-66.89453125
-53.22265625,-53.7109375,-39.55078125,-144.53125
-43.9453125,-50.78125,-44.921875,-134.765625
-10.25390625,-44.921875,-45.8984375,-41.9921875
-3.90625,-36.62109375,-44.43359375,18.06640625
-34.1796875,-40.52734375,-42.96875,-41.9921875
-60.546875,-55.17578125,-41.015625,-135.25390625
-50.78125,-48.33984375,-47.36328125,-139.16015625
-22.4609375,-40.0390625,-41.9921875,-51.7578125
-8.7890625,-34.66796875,-34.66796875,13.18359375
-27.83203125,-26.3671875,-35.64453125,-31.73828125
-66.40625,-38.57421875,-43.9453125,-137.20703125
-57.12890625,-52.24609375,-43.45703125,-157.71484375
-12.20703125,-46.38671875,-34.66796875,-52.24609375
-7.8125,-41.9921875,-40.0390625,24.4140625
-41.015625,-42.48046875,-37.59765625,-15.13671875
-61.5234375,-43.9453125,-36.62109375,-96.6796875
-54.6875,-40.52734375,-49.8046875,-127.9296875
-24.4140625,-37.59765625,-46.875,-47.8515625
1.953125,-36.1328125,-32.2265625,59.08203125
-17.08984375,-33.69140625,-32.71484375,23.4375
-62.5,-40.52734375,-35.64453125,-83.984375
-69.3359375,-42.48046875,-41.9921875,-126.953125
-22.4609375,-41.015625,-47.8515625,-57.12890625
10.25390625,-38.57421875,-34.1796875,57.6171875
-19.53125,-36.1328125,-33.203125,38.0859375
-49.8046875,-49.31640625,-37.59765625,-66.40625
-50.29296875,-56.15234375,-41.015625,-118.65234375
-32.2265625,-43.9453125,-42.48046875,-71.77734375
2.44140625,-33.69140625,-41.9921875,23.4375
-1.46484375,-33.203125,-45.8984375,22.4609375
-41.50390625,-47.36328125,-46.38671875,-70.3125
-48.828125,-57.12890625,-47.36328125,-138.18359375
-30.76171875,-56.15234375,-49.8046875,-100.09765625
-3.41796875,-40.52734375,-42.48046875,2.44140625
-10.25390625,-29.296875,-39.55078125,2.44140625
-52.734375,-39.0625,-46.38671875,-91.796875
-59.5703125,-45.41015625,-44.921875,-147.4609375
-35.15625,-51.7578125,-40.52734375,-108.3984375
-8.7890625,-48.828125,-40.52734375,1.46484375
-6.8359375,-35.64453125,-44.921875,28.80859375
-23.92578125,-32.2265625,-44.921875,-46.875
-40.0390625,-32.2265625,-44.43359375,-126.46484375
-29.78515625,-37.109375,-45.8984375,-111.81640625
9.765625,-38.57421875,-42.48046875,-0.9765625
13.18359375,-31.25,-40.52734375,39.55078125
-21.97265625,-23.92578125,-45.8984375,-42.48046875
-52.24609375,-35.64453125,-54.19921875,-142.08984375
-35.64453125,-40.52734375,-53.22265625,-135.7421875
-0.9765625,-39.0625,-49.8046875,-33.203125
3.41796875,-39.0625,-48.828125,21.97265625
-20.5078125,-33.203125,-45.41015625,-36.1328125
-67.3828125,-45.8984375,-45.8984375,-128.90625
-59.5703125,-58.10546875,-46.875,-136.71875
-12.6953125,-48.33984375,-42.96875,-45.41015625
-12.20703125,-41.9921875,-41.9921875,7.32421875
-40.0390625,-50.29296875,-45.8984375,-41.9921875
-78.61328125,-59.5703125,-47.36328125,-130.859375
-76.66015625,-57.6171875,-47.36328125,-145.99609375
-25.87890625,-45.41015625,-43.9453125,-45.8984375
-0.9765625,-41.015625,-39.0625,43.45703125
-27.34375,-50.29296875,-36.1328125,13.18359375
-55.6640625,-64.453125,-29.78515625,-81.0546875
-32.71484375,-57.6171875,-32.2265625,-113.28125
-4.39453125,-46.875,-41.015625,-39.55078125
-0.48828125,-36.62109375,-49.31640625,45.8984375
3.90625,-34.66796875,-49.31640625,27.83203125
-26.3671875,-38.57421875,-46.38671875,-72.75390625
-62.01171875,-52.24609375,-54.19921875,-133.7890625
-15.13671875,-58.10546875,-59.08203125,-65.91796875
32.2265625,-41.50390625,-61.03515625,37.59765625
13.671875,-39.55078125,-54.19921875,25.390625
-11.71875,-40.52734375,-51.26953125,-74.70703125
-30.76171875,-38.57421875,-54.6875,-139.16015625
-11.23046875,-36.1328125,-51.26953125,-84.47265625
30.76171875,-29.78515625,-43.45703125,23.4375
26.85546875,-32.2265625,-42.48046875,31.25
-7.8125,-36.62109375,-43.9453125,-63.4765625
-58.59375,-55.6640625,-42.96875,-144.04296875
-33.203125,-54.19921875,-45.41015625,-107.421875
2.44140625,-25.390625,-57.12890625,-9.765625
-17.08984375,-19.04296875,-56.15234375,4.8828125
-40.52734375,-32.71484375,-51.7578125,-76.66015625
-53.7109375,-38.0859375,-57.12890625,-150.87890625
-37.59765625,-46.875,-57.6171875,-110.83984375
-4.39453125,-41.50390625,-55.17578125,9.765625
-5.859375,-28.80859375,-48.33984375,45.41015625
-28.3203125,-33.69140625,-47.36328125,-48.828125
-46.875,-46.875,-51.26953125,-140.625
-41.9921875,-57.12890625,-49.31640625,-114.2578125
2.44140625,-49.31640625,-45.41015625,8.7890625
19.04296875,-35.15625,-42.48046875,69.3359375
-6.8359375,-35.64453125,-46.875,-9.27734375
-43.45703125,-34.66796875,-53.22265625,-114.74609375
-35.15625,-39.0625,-52.734375,-122.0703125
10.7421875,-48.828125,-50.29296875,-6.8359375
21.484375,-35.64453125,-48.828125,57.6171875
-5.37109375,-33.69140625,-44.43359375,-5.859375
-32.71484375,-34.66796875,-49.8046875,-111.328125
-27.34375,-39.55078125,-53.7109375,-131.8359375
3.90625,-45.41015625,-48.33984375,-22.4609375
17.578125,-23.92578125,-41.9921875,65.4296875
-8.7890625,-25.87890625,-42.96875,14.16015625
-35.15625,-41.50390625,-49.31640625,-90.33203125
-35.15625,-50.29296875,-48.33984375,-114.2578125
-11.23046875,-47.8515625,-50.29296875,-23.4375
20.99609375,-31.25,-47.36328125,67.3828125
0.0,-21.97265625,-45.41015625,31.73828125
-49.8046875,-39.0625,-47.8515625,-75.68359375
-36.62109375,-50.78125,-49.31640625,-115.72265625
0.0,-46.875,-43.9453125,-34.1796875
12.20703125,-25.390625,-38.0859375,70.3125
-16.11328125,-24.90234375,-42.96875,45.8984375
-57.12890625,-51.26953125,-45.8984375,-91.796875
-43.45703125,-59.08203125,-46.38671875,-159.1796875
0.0,-46.875,-48.33984375,-77.63671875
30.76171875,-22.4609375,-42.96875,46.38671875
11.23046875,-15.625,-47.8515625,32.71484375
-29.296875,-30.2734375,-54.6875,-80.56640625
-26.85546875,-38.57421875,-42.96875,-140.625
-12.6953125,-46.875,-41.50390625,-94.7265625
4.39453125,-43.9453125,-43.45703125,30.2734375
1.953125,-37.109375,-44.43359375,43.45703125
-30.2734375,-44.921875,-52.24609375,-81.0546875
-39.55078125,-49.8046875,-56.640625,-151.3671875
-12.6953125,-44.43359375,-48.828125,-82.51953125
11.71875,-34.66796875,-43.45703125,40.0390625
-0.9765625,-28.80859375,-45.8984375,65.4296875
-35.64453125,-25.390625,-53.22265625,-41.50390625
-46.875,-39.0625,-56.15234375,-129.8828125
-22.94921875,-42.96875,-53.22265625,-108.3984375
12.6953125,-26.3671875,-52.24609375,2.44140625
17.578125,-26.3671875,-46.875,55.6640625
-16.11328125,-26.85546875,-56.640625,-43.9453125
-57.12890625,-44.43359375,-68.359375,-169.921875
-33.69140625,-48.33984375,-64.453125,-155.76171875
28.80859375,-36.1328125,-60.05859375,-23.92578125
42.48046875,-23.92578125,-55.6640625,40.52734375
11.23046875,-27.83203125,-58.10546875,-43.45703125
-22.4609375,-43.45703125,-63.4765625,-159.1796875
-17.578125,-42.96875,-60.546875,-142.578125
25.390625,-29.296875,-49.31640625,-7.32421875
42.48046875,-22.94921875,-44.43359375,60.546875
2.9296875,-34.66796875,-51.26953125,-10.25390625
-41.015625,-52.24609375,-57.6171875,-118.65234375
-33.69140625,-48.33984375,-64.453125,-136.71875
13.671875,-35.15625,-62.01171875,-25.87890625
41.015625,-30.2734375,-47.8515625,79.58984375
20.99609375,-27.83203125,-53.7109375,18.5546875
-21.484375,-48.828125,-64.453125,-107.91015625
-21.97265625,-56.15234375,-62.5,-136.23046875
20.99609375,-40.0390625,-60.05859375,-41.015625
50.78125,-24.4140625,-52.734375,68.359375
36.1328125,-18.5546875,-46.38671875,46.875
-4.39453125,-25.390625,-54.6875,-78.61328125
-8.7890625,-40.0390625,-67.3828125,-132.8125
28.80859375,-47.8515625,-60.546875,-35.64453125
51.26953125,-37.59765625,-50.78125,78.61328125
26.85546875,-32.2265625,-50.78125,57.12890625
-18.06640625,-46.875,-52.734375,-59.5703125
-24.90234375,-58.59375,-57.12890625,-122.0703125
14.6484375,-54.19921875,-49.31640625,-39.0625
62.5,-41.50390625,-44.43359375,84.9609375
45.8984375,-37.59765625,-42.96875,76.171875
-5.859375,-48.828125,-43.9453125,-29.296875
-25.87890625,-62.01171875,-49.8046875,-105.46875
-1.46484375,-57.12890625,-51.26953125,-55.6640625
42.48046875,-41.015625,-46.38671875,85.9375
38.57421875,-37.109375,-41.9921875,101.5625
1.46484375,-51.26953125,-42.96875,-16.11328125
-20.5078125,-57.6171875,-51.26953125,-104.98046875
-2.9296875,-54.19921875,-52.734375,-57.12890625
38.0859375,-41.50390625,-44.921875,79.1015625
31.25,-28.3203125,-41.015625,105.46875
-19.53125,-33.69140625,-48.828125,-9.27734375
-49.31640625,-53.22265625,-60.546875,-105.95703125
-20.5078125,-58.59375,-59.08203125,-71.77734375
26.85546875,-42.48046875,-54.19921875,57.12890625
30.76171875,-33.203125,-41.50390625,118.65234375
-8.7890625,-38.57421875,-37.59765625,19.04296875
-39.0625,-52.734375,-50.78125,-103.515625
-19.53125,-58.10546875,-50.29296875,-91.30859375
22.4609375,-47.36328125,-38.0859375,42.48046875
23.92578125,-34.66796875,-36.1328125,104.4921875
-12.6953125,-41.50390625,-37.59765625,18.06640625
-44.921875,-59.08203125,-33.69140625,-93.26171875
-49.31640625,-62.01171875,-37.59765625,-98.6328125
-13.18359375,-55.6640625,-42.48046875,17.08984375
11.71875,-44.43359375,-39.0625,97.65625
-8.30078125,-48.828125,-38.0859375,20.5078125
-46.875,-56.640625,-38.57421875,-107.91015625
-45.41015625,-63.4765625,-42.96875,-118.1640625
0.48828125,-52.24609375,-46.875,-8.30078125
31.25,-30.76171875,-36.62109375,89.35546875
0.48828125,-36.62109375,-37.109375,30.2734375
-52.734375,-56.640625,-52.24609375,-114.74609375
-44.43359375,-62.5,-54.19921875,-129.39453125
-0.48828125,-46.38671875,-42.96875,-24.4140625
26.85546875,-30.76171875,-30.2734375,83.49609375
-3.41796875,-33.69140625,-27.83203125,51.26953125
-50.29296875,-49.31640625,-36.1328125,-89.84375
-46.875,-56.15234375,-39.0625,-130.859375
-16.11328125,-50.78125,-34.66796875,-36.62109375
13.18359375,-47.8515625,-34.1796875,82.51953125
-0.48828125,-51.26953125,-38.57421875,66.89453125
-47.8515625,-65.4296875,-41.9921875,-61.03515625
-61.5234375,-67.3828125,-42.96875,-125.0
-27.83203125,-53.7109375,-38.57421875,-50.29296875
25.390625,-34.66796875,-29.296875,84.9609375
19.04296875,-31.73828125,-25.390625,85.44921875
-29.296875,-44.921875,-31.73828125,-44.921875
-37.59765625,-56.15234375,-33.69140625,-118.65234375
-3.41796875,-62.5,-30.76171875,-60.546875
39.0625,-48.33984375,-21.97265625,67.87109375
32.2265625,-32.71484375,-20.99609375,93.26171875
-15.13671875,-44.43359375,-33.203125,-22.4609375
-48.33984375,-64.94140625,-42.48046875,-129.39453125
-29.78515625,-60.546875,-46.38671875,-83.49609375
14.6484375,-48.33984375,-41.9921875,47.36328125
16.6015625,-44.43359375,-37.109375,83.0078125
-25.390625,-39.0625,-38.0859375,-21.484375
-54.6875,-56.640625,-42.48046875,-131.8359375
-40.0390625,-64.453125,-44.921875,-107.421875
9.27734375,-41.015625,-33.203125,26.85546875
24.90234375,-23.92578125,-28.80859375,80.078125
-11.23046875,-31.25,-33.69140625,-14.16015625
-48.828125,-39.55078125,-30.76171875,-125.0
-40.0390625,-50.78125,-29.296875,-114.74609375
-0.48828125,-48.828125,-28.3203125,11.23046875
9.27734375,-29.78515625,-33.69140625,74.21875
-33.203125,-30.2734375,-44.43359375,-19.04296875
-81.0546875,-42.96875,-43.9453125,-137.6953125
-69.3359375,-53.22265625,-41.015625,-133.7890625
-27.83203125,-46.875,-48.828125,-20.99609375
-15.625,-28.80859375,-44.921875,60.05859375
-44.921875,-32.2265625,-38.0859375,-2.9296875
-84.47265625,-45.41015625,-42.96875,-125.0
-76.171875,-46.875,-52.734375,-150.87890625
-34.66796875,-41.015625,-43.9453125,-41.50390625
-3.90625,-28.80859375,-27.34375,70.3125
-23.92578125,-33.69140625,-36.62109375,20.99609375
-69.3359375,-52.734375,-47.36328125,-108.88671875
-61.5234375,-56.640625,-43.9453125,-141.11328125
-25.87890625,-50.78125,-35.64453125,-38.57421875
-1.953125,-39.0625,-31.73828125,74.70703125
-16.6015625,-26.85546875,-37.59765625,39.55078125
-42.48046875,-31.73828125,-42.48046875,-76.171875
-49.8046875,-47.36328125,-41.015625,-120.1171875
-36.62109375,-52.24609375,-44.921875,-47.8515625
-0.48828125,-31.25,-47.8515625,74.70703125
-11.71875,-10.7421875,-43.45703125,60.546875
-59.08203125,-26.85546875,-47.8515625,-66.40625
-69.3359375,-48.828125,-46.875,-133.7890625
-47.8515625,-42.96875,-48.828125,-80.56640625
-10.25390625,-25.87890625,-50.29296875,47.36328125
-14.16015625,-18.06640625,-47.8515625,55.17578125
-57.12890625,-26.3671875,-54.6875,-72.265625
-68.359375,-39.55078125,-58.10546875,-149.90234375
-30.76171875,-40.0390625,-50.29296875,-95.21484375
11.71875,-27.34375,-43.9453125,41.50390625
4.39453125,-19.04296875,-47.36328125,65.91796875
-41.50390625,-32.2265625,-52.734375,-52.24609375
-63.96484375,-41.9921875,-58.10546875,-150.87890625
-33.69140625,-41.015625,-59.08203125,-105.46875
11.71875,-33.203125,-54.6875,32.2265625
16.11328125,-21.484375,-46.38671875,77.63671875
-16.6015625,-20.99609375,-46.38671875,-17.578125
-45.41015625,-32.2265625,-52.734375,-122.0703125
-27.34375,-36.1328125,-53.22265625,-101.07421875
13.671875,-29.296875,-45.41015625,26.85546875
15.13671875,-23.4375,-40.52734375,83.0078125
-22.94921875,-26.85546875,-39.0625,-1.46484375
-60.05859375,-40.0390625,-41.9921875,-115.234375
-52.734375,-46.38671875,-48.33984375,-119.62890625
-11.23046875,-39.0625,-43.9453125,2.9296875
2.9296875,-26.85546875,-42.96875,77.1484375
-24.90234375,-35.64453125,-47.36328125,7.8125
-62.5,-48.828125,-51.7578125,-106.93359375
-60.546875,-51.26953125,-55.17578125,-125.48828125
-15.13671875,-44.43359375,-52.734375,-18.06640625
6.34765625,-31.25,-47.8515625,74.21875
-23.92578125,-30.2734375,-53.7109375,13.18359375
-56.640625,-42.48046875,-61.03515625,-110.3515625
-40.0390625,-48.828125,-50.29296875,-112.79296875
-14.16015625,-46.875,-44.921875,-14.6484375
3.90625,-32.71484375,-53.22265625,67.3828125
0.48828125,-25.390625,-42.96875,42.48046875
-48.33984375,-49.8046875,-39.55078125,-82.51953125
-66.89453125,-64.94140625,-53.22265625,-131.8359375
-26.85546875,-57.12890625,-50.78125,-46.875
7.8125,-46.875,-43.9453125,65.4296875
-12.6953125,-34.66796875,-42.48046875,36.1328125
-59.5703125,-41.50390625,-46.875,-95.21484375
-70.80078125,-60.05859375,-47.8515625,-146.97265625
-41.50390625,-59.5703125,-43.45703125,-75.1953125
-9.765625,-40.0390625,-40.52734375,46.38671875
-24.4140625,-32.2265625,-42.96875,38.57421875
-65.4296875,-37.59765625,-49.8046875,-83.984375
-80.078125,-42.48046875,-55.17578125,-150.87890625
-57.6171875,-46.38671875,-48.33984375,-88.8671875
-20.5078125,-42.48046875,-37.109375,36.1328125
-23.92578125,-35.64453125,-35.15625,48.33984375
-67.3828125,-43.9453125,-42.48046875,-65.91796875
-97.16796875,-68.359375,-47.36328125,-149.90234375
-68.84765625,-65.91796875,-42.48046875,-92.7734375
-18.06640625,-42.48046875,-37.109375,44.43359375
-23.4375,-38.57421875,-33.203125,65.4296875
-55.17578125,-46.38671875,-32.2265625,-36.62109375
-78.125,-60.05859375,-37.59765625,-131.8359375
-59.5703125,-64.94140625,-38.0859375,-104.00390625
-11.71875,-49.31640625,-40.0390625,32.71484375
-1.46484375,-41.50390625,-38.57421875,84.47265625
-34.1796875,-49.8046875,-34.1796875,-10.25390625
-67.3828125,-58.10546875,-41.50390625,-122.0703125
-50.29296875,-60.05859375,-44.921875,-108.3984375
-7.32421875,-57.12890625,-38.57421875,19.04296875
8.7890625,-42.48046875,-29.78515625,82.03125
-22.4609375,-40.0390625,-38.57421875,-0.48828125
-68.359375,-56.640625,-52.734375,-119.62890625
-52.734375,-61.5234375,-51.26953125,-117.1875
-10.7421875,-50.78125,-43.45703125,5.37109375
-2.9296875,-38.57421875,-40.52734375,79.58984375
-29.78515625,-38.0859375,-41.015625,11.71875
-72.265625,-51.26953125,-43.45703125,-108.88671875
-66.40625,-63.4765625,-41.9921875,-127.9296875
-26.85546875,-56.640625,-41.9921875,-25.87890625
-6.34765625,-37.59765625,-37.109375,70.80078125
-22.4609375,-31.73828125,-40.0390625,22.4609375
-58.59375,-41.9921875,-47.36328125,-104.98046875
-63.4765625,-53.22265625,-48.828125,-140.625
-44.921875,-54.19921875,-46.38671875,-52.24609375
-20.5078125,-41.9921875,-41.50390625,46.875
-33.69140625,-37.109375,-44.43359375,10.25390625
-81.54296875,-49.8046875,-51.26953125,-121.09375
-82.51953125,-53.22265625,-42.48046875,-162.109375
-45.41015625,-50.29296875,-38.57421875,-77.63671875
-16.6015625,-52.24609375,-45.8984375,21.97265625
-20.99609375,-43.9453125,-43.45703125,10.25390625
-66.89453125,-46.38671875,-45.41015625,-111.328125
-84.47265625,-57.12890625,-45.8984375,-172.8515625
-49.31640625,-53.7109375,-44.43359375,-90.8203125
-11.23046875,-36.1328125,-41.50390625,31.25
-31.73828125,-28.80859375,-41.9921875,18.5546875
-69.82421875,-33.69140625,-51.26953125,-104.4921875
-83.0078125,-47.8515625,-50.29296875,-170.41015625
-70.80078125,-60.546875,-47.8515625,-115.72265625
-27.83203125,-43.45703125,-42.96875,20.5078125
-29.78515625,-30.76171875,-41.9921875,46.38671875
-70.3125,-45.41015625,-49.31640625,-63.4765625
-98.6328125,-65.91796875,-52.24609375,-147.94921875
-75.68359375,-73.2421875,-50.29296875,-111.81640625
-16.11328125,-54.6875,-45.8984375,32.71484375
-14.16015625,-37.109375,-41.50390625,66.89453125
-57.6171875,-36.62109375,-47.36328125,-55.17578125
-78.125,-48.828125,-51.26953125,-150.87890625
-57.12890625,-55.17578125,-53.7109375,-119.62890625
-9.765625,-44.43359375,-50.29296875,8.30078125
13.671875,-30.2734375,-43.9453125,68.359375
-19.53125,-30.2734375,-47.8515625,-16.6015625
-60.05859375,-43.45703125,-47.8515625,-128.90625
-50.78125,-51.7578125,-45.8984375,-125.9765625
-18.5546875,-45.8984375,-41.9921875,-12.6953125
5.37109375,-31.73828125,-34.1796875,70.80078125
-15.13671875,-33.203125,-31.25,8.30078125
-68.359375,-54.6875,-41.50390625,-117.67578125
-52.734375,-63.96484375,-46.38671875,-131.34765625
1.953125,-48.33984375,-38.57421875,-4.8828125
14.16015625,-29.296875,-34.66796875,91.30859375
-10.7421875,-30.76171875,-38.0859375,26.3671875
-54.6875,-48.828125,-44.921875,-104.00390625
-55.17578125,-52.24609375,-47.8515625,-127.9296875
-10.25390625,-43.45703125,-45.8984375,-16.11328125
14.16015625,-35.15625,-43.45703125,82.03125
-9.27734375,-31.73828125,-47.36328125,31.25
-54.19921875,-40.0390625,-49.8046875,-91.796875
-61.03515625,-52.734375,-49.31640625,-129.8828125
-26.85546875,-49.8046875,-47.36328125,-38.57421875
2.44140625,-32.2265625,-40.52734375,76.171875
-21.484375,-26.85546875,-41.50390625,39.0625
-66.89453125,-37.109375,-52.24609375,-93.26171875
-71.2890625,-46.875,-50.29296875,-145.5078125
-40.52734375,-45.8984375,-42.48046875,-62.5
-8.30078125,-26.85546875,-41.9921875,60.05859375
-34.1796875,-29.296875,-47.36328125,36.1328125
-83.49609375,-48.828125,-48.33984375,-99.609375
-89.84375,-56.15234375,-47.36328125,-160.15625
-64.94140625,-58.10546875,-43.9453125,-90.8203125
-23.4375,-41.50390625,-37.109375,34.66796875
-28.3203125,-28.3203125,-40.52734375,41.50390625
-74.70703125,-41.50390625,-42.48046875,-82.03125
-90.8203125,-56.640625,-38.0859375,-157.71484375
-68.84765625,-58.10546875,-38.0859375,-108.3984375
-24.90234375,-44.921875,-34.66796875,23.4375
-27.83203125,-36.62109375,-31.73828125,53.22265625
-60.05859375,-40.0390625,-36.62109375,-55.17578125
-70.80078125,-55.6640625,-36.62109375,-143.06640625
-57.12890625,-64.453125,-40.52734375,-115.234375
-16.6015625,-43.45703125,-40.52734375,7.32421875
-9.27734375,-34.1796875,-31.25,61.03515625
-42.48046875,-37.59765625,-33.69140625,-29.296875
-81.0546875,-40.0390625,-46.38671875,-145.01953125
-63.4765625,-41.015625,-48.33984375,-128.90625
-5.37109375,-29.78515625,-40.0390625,10.25390625
-7.32421875,-23.4375,-30.2734375,75.1953125
-57.12890625,-40.0390625,-31.73828125,-12.20703125
-86.42578125,-56.15234375,-41.50390625,-125.0
-68.359375,-48.33984375,-43.9453125,-118.1640625
-30.2734375,-41.9921875,-35.15625,4.39453125
-11.71875,-42.96875,-30.2734375,84.47265625
-35.15625,-39.55078125,-38.57421875,12.20703125
-82.03125,-48.33984375,-42.96875,-121.58203125
-75.68359375,-55.17578125,-49.31640625,-138.671875
-30.76171875,-41.9921875,-49.8046875,-22.94921875
-13.671875,-28.3203125,-42.48046875,70.3125
-35.64453125,-29.78515625,-38.57421875,13.18359375
-77.63671875,-44.921875,-42.48046875,-114.74609375
-79.1015625,-56.15234375,-49.8046875,-138.671875
-26.3671875,-41.50390625,-50.29296875,-30.76171875
5.859375,-18.06640625,-44.921875,80.56640625
-17.578125,-15.625,-45.41015625,30.2734375
-61.5234375,-41.015625,-50.29296875,-104.00390625
-74.21875,-59.5703125,-56.15234375,-146.484375
-35.64453125,-52.734375,-50.29296875,-60.05859375
1.46484375,-38.0859375,-36.1328125,63.4765625
-18.06640625,-32.71484375,-36.62109375,41.9921875
-58.59375,-42.96875,-42.48046875,-82.03125
-67.3828125,-57.12890625,-44.43359375,-135.7421875
-45.41015625,-55.17578125,-43.45703125,-63.4765625
-16.11328125,-38.57421875,-40.52734375,63.4765625
-32.71484375,-35.15625,-40.52734375,57.12890625
-74.70703125,-43.9453125,-43.9453125,-64.94140625
-90.33203125,-52.24609375,-50.78125,-139.16015625
-59.5703125,-59.08203125,-45.41015625,-76.66015625
-11.23046875,-44.921875,-36.1328125,65.4296875
-12.6953125,-32.71484375,-36.1328125,80.078125
-44.921875,-42.48046875,-36.1328125,-44.921875
-58.10546875,-50.29296875,-46.38671875,-136.23046875
-37.109375,-48.33984375,-53.7109375,-92.28515625
5.859375,-35.64453125,-44.921875,34.66796875
9.765625,-23.4375,-37.59765625,65.91796875
-24.4140625,-29.78515625,-38.0859375,-36.62109375
-47.8515625,-41.015625,-40.52734375,-131.34765625
-45.8984375,-42.48046875,-47.8515625,-107.91015625
-10.7421875,-35.64453125,-43.45703125,20.01953125
-3.90625,-29.78515625,-36.62109375,72.75390625
-40.0390625,-37.109375,-47.8515625,-18.5546875
-75.1953125,-53.7109375,-52.24609375,-124.0234375
-65.4296875,-56.15234375,-50.29296875,-107.421875
-22.4609375,-38.0859375,-45.41015625,22.94921875
-11.71875,-27.34375,-48.33984375,82.03125
-33.69140625,-29.78515625,-58.59375,-7.32421875
-67.3828125,-44.43359375,-58.59375,-121.58203125
-65.91796875,-54.6875,-52.24609375,-117.67578125
-26.3671875,-43.45703125,-43.9453125,4.39453125
-2.9296875,-23.92578125,-39.0625,85.9375
-31.25,-26.85546875,-48.828125,1.953125
-81.0546875,-50.29296875,-58.10546875,-134.765625
-77.1484375,-58.59375,-53.7109375,-144.53125
-36.1328125,-52.24609375,-43.9453125,-25.390625
-9.27734375,-37.109375,-42.48046875,69.82421875
-41.015625,-32.71484375,-46.875,9.27734375
-90.33203125,-45.8984375,-53.22265625,-130.37109375
-89.84375,-55.17578125,-56.15234375,-163.57421875
-48.33984375,-46.38671875,-52.24609375,-57.12890625
-10.7421875,-34.66796875,-42.96875,60.05859375
-24.4140625,-33.69140625,-38.57421875,30.2734375
-75.1953125,-39.55078125,-48.33984375,-102.05078125
-91.796875,-54.19921875,-50.78125,-156.73828125
-53.7109375,-56.640625,-44.43359375,-67.3828125
-6.34765625,-34.66796875,-41.015625,62.5
-19.53125,-23.92578125,-43.9453125,38.57421875
-62.98828125,-35.64453125,-46.875,-83.984375
-66.40625,-51.26953125,-46.38671875,-128.90625
-42.48046875,-55.17578125,-43.9453125,-58.10546875
-7.32421875,-40.0390625,-35.64453125,67.3828125
-10.7421875,-29.78515625,-35.15625,69.82421875
-60.546875,-39.0625,-41.015625,-58.59375
-84.47265625,-54.6875,-43.45703125,-145.5078125
-51.7578125,-48.33984375,-43.45703125,-86.42578125
1.46484375,-28.3203125,-41.9921875,56.15234375
2.44140625,-26.85546875,-43.9453125,63.4765625
-39.0625,-36.62109375,-45.41015625,-55.17578125
-56.640625,-48.33984375,-48.828125,-140.625
-27.34375,-47.36328125,-49.31640625,-94.7265625
12.6953125,-34.66796875,-41.9921875,42.48046875
2.44140625,-29.78515625,-44.921875,68.359375
-36.62109375,-34.66796875,-45.41015625,-38.57421875
-62.98828125,-43.9453125,-40.0390625,-132.32421875
-49.8046875,-45.8984375,-47.36328125,-112.79296875
-14.16015625,-35.15625,-43.9453125,5.37109375
-3.90625,-19.53125,-39.55078125,57.6171875
-36.62109375,-31.25,-45.41015625,-32.2265625
-75.1953125,-54.6875,-52.24609375,-145.5078125
-60.05859375,-56.15234375,-55.17578125,-132.8125
-9.765625,-45.8984375,-45.8984375,-1.46484375
-0.9765625,-31.73828125,-40.0390625,75.68359375
-35.64453125,-32.71484375,-40.0390625,-6.34765625
-67.3828125,-49.8046875,-45.41015625,-125.0
-57.12890625,-56.15234375,-50.29296875,-126.953125
-14.16015625,-45.8984375,-48.33984375,-6.8359375
10.25390625,-28.80859375,-48.33984375,87.40234375
-23.4375,-31.25,-49.31640625,16.6015625
-66.89453125,-51.7578125,-50.29296875,-106.4453125
-62.98828125,-63.96484375,-53.7109375,-129.39453125
-29.296875,-59.08203125,-51.26953125,-34.1796875
-6.34765625,-36.1328125,-46.38671875,65.91796875
-25.390625,-30.76171875,-44.921875,18.06640625
-65.91796875,-49.31640625,-48.828125,-104.98046875
-68.359375,-53.22265625,-53.7109375,-144.53125
-29.296875,-47.36328125,-46.875,-54.6875
1.46484375,-36.1328125,-40.0390625,58.10546875
-16.6015625,-27.83203125,-38.0859375,23.4375
-60.05859375,-36.62109375,-47.36328125,-107.421875
-70.80078125,-52.734375,-56.640625,-164.0625
-32.2265625,-43.9453125,-55.17578125,-81.0546875
12.20703125,-22.94921875,-44.921875,52.734375
-5.37109375,-28.80859375,-41.015625,43.45703125
-61.5234375,-47.36328125,-42.48046875,-75.1953125
-85.9375,-54.6875,-46.875,-139.16015625
-53.7109375,-51.7578125,-46.38671875,-70.80078125
-7.32421875,-38.0859375,-38.0859375,63.96484375
-19.04296875,-32.2265625,-35.15625,69.82421875
-72.265625,-46.38671875,-36.1328125,-55.17578125
-94.7265625,-51.26953125,-41.50390625,-132.8125
-63.4765625,-52.24609375,-37.109375,-81.54296875
-16.6015625,-46.38671875,-33.203125,41.015625
-15.13671875,-36.1328125,-35.15625,62.01171875
-49.31640625,-45.41015625,-35.64453125,-47.8515625
-76.66015625,-62.01171875,-42.96875,-145.01953125
-60.05859375,-61.5234375,-44.43359375,-112.3046875
-6.34765625,-39.0625,-34.66796875,24.90234375
-1.46484375,-25.390625,-30.76171875,65.91796875
-43.9453125,-36.1328125,-33.203125,-34.66796875
-71.77734375,-54.6875,-38.57421875,-138.18359375
-54.19921875,-56.640625,-38.0859375,-116.69921875
-10.7421875,-41.015625,-36.1328125,9.765625
-5.37109375,-34.1796875,-33.69140625,62.98828125
-42.96875,-43.9453125,-36.1328125,-29.78515625
-73.73046875,-54.19921875,-41.015625,-147.94921875
-62.5,-52.734375,-46.38671875,-161.1328125
-18.5546875,-42.96875,-44.921875,-41.015625
-4.39453125,-30.2734375,-37.109375,41.9921875
-41.50390625,-37.109375,-42.96875,-34.66796875
-84.47265625,-53.22265625,-48.828125,-147.94921875
-88.37890625,-62.01171875,-51.26953125,-159.66796875
-48.828125,-56.640625,-52.734375,-47.8515625
-22.4609375,-40.52734375,-43.45703125,51.26953125
-44.921875,-39.55078125,-38.0859375,-1.46484375
-77.63671875,-50.78125,-45.41015625,-117.1875
-70.80078125,-56.15234375,-50.78125,-143.06640625
-29.78515625,-47.36328125,-46.875,-39.0625
2.44140625,-36.1328125,-44.921875,69.3359375
-18.5546875,-36.62109375,-47.36328125,29.296875
-61.03515625,-46.875,-51.7578125,-92.7734375
-64.94140625,-54.6875,-56.640625,-144.04296875
-31.25,-47.8515625,-59.08203125,-60.546875
16.11328125,-30.2734375,-55.6640625,67.87109375
-1.46484375,-23.4375,-54.6875,41.015625
-56.15234375,-36.62109375,-61.5234375,-99.609375
-52.24609375,-45.8984375,-65.4296875,-163.0859375
-16.11328125,-44.43359375,-62.01171875,-79.58984375
9.27734375,-35.64453125,-51.7578125,55.6640625
-6.34765625,-28.80859375,-46.875,49.31640625
-53.7109375,-44.921875,-57.12890625,-79.58984375
-81.54296875,-66.89453125,-63.96484375,-165.52734375
-62.5,-62.5,-50.78125,-98.14453125
-23.4375,-50.29296875,-45.8984375,41.015625
-24.90234375,-47.8515625,-47.36328125,56.640625
-61.5234375,-46.875,-43.9453125,-54.6875
-86.9140625,-55.17578125,-48.33984375,-146.484375
-70.80078125,-64.453125,-52.734375,-106.93359375
-20.01953125,-52.24609375,-48.33984375,29.78515625
-16.11328125,-38.0859375,-47.8515625,60.546875
-57.6171875,-42.96875,-48.828125,-43.45703125
-76.171875,-51.26953125,-47.36328125,-124.51171875
-62.01171875,-57.6171875,-50.29296875,-96.6796875
-21.484375,-50.78125,-46.875,29.78515625
-18.06640625,-39.0625,-41.50390625,76.66015625
-60.05859375,-43.9453125,-44.43359375,-24.90234375
-83.49609375,-52.734375,-49.8046875,-129.8828125
-57.6171875,-55.6640625,-53.7109375,-119.140625
-18.5546875,-46.875,-49.31640625,6.8359375
-9.765625,-38.57421875,-37.59765625,99.12109375
-38.57421875,-37.59765625,-40.52734375,16.11328125
-81.0546875,-50.78125,-50.78125,-121.58203125
-70.3125,-61.03515625,-46.875,-110.83984375
-20.01953125,-44.43359375,-41.50390625,22.4609375
-6.34765625,-33.69140625,-40.0390625,101.07421875
-31.73828125,-40.0390625,-37.109375,27.83203125
-71.77734375,-43.9453125,-40.0390625,-95.21484375
-65.4296875,-44.921875,-45.8984375,-111.328125
-19.53125,-36.62109375,-44.43359375,-2.44140625
-0.9765625,-21.484375,-42.48046875,83.0078125
-30.2734375,-20.99609375,-51.26953125,15.625
-70.80078125,-33.203125,-62.98828125,-111.81640625
-68.84765625,-42.48046875,-64.94140625,-145.5078125
-29.296875,-43.9453125,-63.96484375,-50.29296875
7.8125,-32.71484375,-55.6640625,66.89453125
-15.625,-26.85546875,-48.828125,29.78515625
-66.89453125,-45.8984375,-51.7578125,-100.09765625
-76.66015625,-62.5,-55.17578125,-154.296875
-52.24609375,-59.08203125,-57.6171875,-87.890625
-10.7421875,-42.96875,-49.8046875,42.48046875
-24.4140625,-37.59765625,-43.45703125,32.71484375
-82.51953125,-51.26953125,-49.8046875,-98.14453125
-91.796875,-67.3828125,-50.78125,-150.390625
-59.08203125,-69.82421875,-49.8046875,-79.1015625
-18.06640625,-51.7578125,-43.9453125,48.828125
-20.5078125,-38.0859375,-39.55078125,55.6640625
-62.01171875,-44.921875,-42.96875,-66.89453125
-80.56640625,-53.22265625,-48.33984375,-145.01953125
-55.6640625,-50.29296875,-50.29296875,-95.703125
-18.06640625,-39.55078125,-43.45703125,31.73828125
-13.18359375,-30.2734375,-41.50390625,55.6640625
-47.8515625,-42.48046875,-47.36328125,-56.15234375
-70.3125,-56.640625,-53.22265625,-143.5546875
-48.828125,-53.7109375,-53.22265625,-103.515625
-10.7421875,-41.9921875,-43.9453125,25.390625
-6.34765625,-31.73828125,-37.59765625,60.05859375
-48.33984375,-37.59765625,-45.41015625,-41.9921875
-80.56640625,-53.7109375,-55.6640625,-135.7421875
-71.77734375,-65.91796875,-52.734375,-112.3046875
-34.66796875,-52.734375,-41.50390625,20.99609375
-18.06640625,-39.55078125,-41.015625,81.0546875
-58.10546875,-42.48046875,-51.26953125,-19.53125
-99.609375,-52.24609375,-57.6171875,-140.13671875
-84.47265625,-59.08203125,-54.6875,-138.671875
-42.48046875,-49.31640625,-48.33984375,-17.08984375
-26.3671875,-31.25,-44.921875,64.453125
-62.5,-35.64453125,-50.29296875,-17.08984375
-100.09765625,-50.78125,-56.640625,-141.6015625
-82.03125,-55.17578125,-53.22265625,-141.6015625
-29.78515625,-46.875,-43.9453125,-14.16015625
-10.25390625,-31.73828125,-37.59765625,70.80078125
-38.0859375,-25.87890625,-45.41015625,-2.44140625
-72.75390625,-41.9921875,-56.15234375,-130.37109375
-65.91796875,-60.05859375,-56.15234375,-155.2734375
-25.87890625,-52.24609375,-53.22265625,-47.36328125
-0.9765625,-36.62109375,-45.8984375,58.10546875
-29.296875,-41.9921875,-44.921875,9.27734375
-75.68359375,-57.6171875,-48.828125,-112.79296875
-82.03125,-65.4296875,-48.828125,-146.484375
-44.921875,-61.5234375,-47.36328125,-55.17578125
-12.6953125,-45.41015625,-39.0625,64.94140625
-38.57421875,-37.109375,-42.48046875,28.3203125
-83.984375,-45.8984375,-52.24609375,-102.5390625
-87.890625,-51.26953125,-50.78125,-149.4140625
-51.7578125,-51.26953125,-42.96875,-65.4296875
-17.08984375,-45.8984375,-40.52734375,61.03515625
-32.71484375,-44.43359375,-40.52734375,46.875
-75.68359375,-52.24609375,-41.9921875,-72.265625
-92.7734375,-65.91796875,-47.36328125,-137.6953125
-68.84765625,-63.96484375,-43.45703125,-73.2421875
-19.53125,-41.50390625,-31.25,67.87109375
-16.6015625,-33.203125,-28.3203125,75.1953125
-57.6171875,-42.96875,-35.64453125,-53.22265625
-68.84765625,-51.26953125,-39.0625,-125.9765625
-36.62109375,-50.29296875,-35.15625,-73.73046875
1.953125,-34.1796875,-34.1796875,49.8046875
0.0,-24.4140625,-36.1328125,79.1015625
-44.43359375,-49.31640625,-45.8984375,-38.57421875
-70.3125,-64.94140625,-50.78125,-138.18359375
-47.8515625,-54.6875,-43.9453125,-101.07421875
-13.18359375,-42.96875,-41.9921875,19.53125
-6.8359375,-32.71484375,-41.9921875,69.82421875
-44.43359375,-34.1796875,-47.36328125,-21.484375
-86.42578125,-46.38671875,-52.734375,-135.7421875
-74.70703125,-47.36328125,-46.875,-120.1171875
-31.73828125,-37.109375,-43.45703125,-0.48828125
-17.578125,-23.92578125,-43.45703125,62.98828125
-46.875,-18.5546875,-40.52734375,-19.53125
-91.796875,-41.50390625,-38.57421875,-135.25390625
-83.0078125,-64.94140625,-41.015625,-125.48828125
-32.2265625,-44.43359375,-44.43359375,-3.90625
-21.484375,-32.2265625,-43.45703125,71.77734375
-46.38671875,-42.48046875,-46.38671875,-2.44140625
-71.2890625,-48.828125,-48.33984375,-120.1171875
-61.5234375,-52.734375,-43.9453125,-123.046875
-23.4375,-47.36328125,-33.69140625,-1.46484375
-1.46484375,-35.64453125,-30.76171875,93.75
-18.06640625,-29.78515625,-34.1796875,36.62109375
-57.6171875,-38.0859375,-48.828125,-96.6796875
-71.77734375,-43.45703125,-60.05859375,-137.6953125
-42.96875,-41.015625,-56.640625,-46.38671875
-2.9296875,-29.78515625,-51.26953125,65.4296875
-17.578125,-27.34375,-51.7578125,26.85546875
-70.3125,-39.55078125,-59.08203125,-108.88671875
-78.125,-41.50390625,-60.546875,-151.3671875
-48.33984375,-38.57421875,-57.6171875,-65.4296875
-21.484375,-32.71484375,-47.8515625,50.78125
-38.0859375,-30.76171875,-44.43359375,29.296875
-79.1015625,-35.64453125,-46.875,-96.19140625
-91.796875,-50.29296875,-45.41015625,-150.87890625
-65.4296875,-53.7109375,-44.43359375,-78.125
-28.80859375,-32.2265625,-38.57421875,48.33984375
-33.69140625,-22.4609375,-34.1796875,48.33984375
-70.80078125,-37.59765625,-43.45703125,-83.984375
-93.75,-53.7109375,-56.640625,-168.45703125
-69.82421875,-57.12890625,-50.78125,-102.5390625
-21.97265625,-44.43359375,-36.62109375,37.109375
-32.2265625,-37.59765625,-36.62109375,49.31640625
-79.1015625,-43.9453125,-42.96875,-69.3359375
-89.35546875,-48.33984375,-45.8984375,-154.296875
-51.7578125,-46.38671875,-39.55078125,-94.7265625
-5.37109375,-37.59765625,-33.203125,48.33984375
-10.7421875,-27.83203125,-36.1328125,72.75390625
-61.03515625,-31.25,-45.41015625,-48.33984375
-91.30859375,-50.29296875,-54.6875,-157.71484375
-65.4296875,-56.15234375,-54.19921875,-128.41796875
-10.7421875,-37.59765625,-43.45703125,6.34765625
-1.953125,-29.78515625,-38.57421875,63.4765625
-42.48046875,-35.64453125,-41.015625,-25.87890625
-82.51953125,-53.22265625,-45.41015625,-139.16015625
-73.2421875,-59.5703125,-48.828125,-129.8828125
-30.76171875,-46.875,-43.9453125,-1.46484375
-18.06640625,-32.71484375,-43.45703125,58.59375
-49.8046875,-35.64453125,-46.875,-24.90234375
-86.9140625,-49.8046875,-50.78125,-136.23046875
-74.21875,-50.29296875,-49.31640625,-137.20703125
-20.01953125,-39.0625,-41.50390625,-14.6484375
-0.9765625,-33.69140625,-31.25,75.1953125
-28.3203125,-39.55078125,-28.80859375,8.30078125
-76.171875,-47.8515625,-40.0390625,-130.859375
-72.265625,-52.24609375,-44.43359375,-153.3203125
-21.97265625,-45.8984375,-42.96875,-37.59765625
-5.859375,-36.1328125,-34.1796875,66.40625
-39.0625,-32.71484375,-27.83203125,17.578125
-81.54296875,-40.52734375,-35.64453125,-117.1875
-89.84375,-53.22265625,-38.0859375,-159.66796875
-62.98828125,-53.7109375,-34.66796875,-68.359375
-21.97265625,-37.109375,-27.34375,60.546875
-32.2265625,-38.0859375,-27.83203125,27.83203125
-78.125,-59.5703125,-30.2734375,-111.81640625
-88.37890625,-62.98828125,-33.203125,-159.66796875
-61.5234375,-51.26953125,-39.55078125,-78.125
-22.4609375,-37.109375,-32.2265625,36.1328125
-31.73828125,-35.64453125,-29.78515625,17.578125
-76.171875,-44.43359375,-29.78515625,-100.5859375
-79.1015625,-52.24609375,-30.2734375,-157.2265625
-52.24609375,-52.24609375,-34.1796875,-94.7265625
-30.76171875,-41.50390625,-33.69140625,20.5078125
-44.43359375,-36.1328125,-34.66796875,15.13671875
-78.125,-36.62109375,-37.59765625,-104.4921875
-86.42578125,-48.828125,-42.96875,-174.8046875
-64.453125,-56.15234375,-42.96875,-121.58203125
-25.390625,-41.50390625,-32.71484375,6.34765625
-27.34375,-32.71484375,-29.78515625,26.3671875
-71.77734375,-41.50390625,-29.78515625,-88.37890625
-106.93359375,-57.12890625,-25.390625,-177.734375
-82.03125,-58.59375,-26.85546875,-138.671875
-29.296875,-41.9921875,-32.2265625,-11.23046875
-35.15625,-34.1796875,-37.109375,17.08984375
-63.96484375,-42.96875,-45.8984375,-83.49609375
-78.61328125,-52.24609375,-51.7578125,-163.0859375
-61.5234375,-51.26953125,-45.8984375,-130.37109375
-18.06640625,-43.9453125,-39.0625,-4.39453125
-3.90625,-33.203125,-38.57421875,58.10546875
-28.3203125,-31.25,-52.24609375,-33.69140625
-56.15234375,-42.48046875,-60.546875,-145.99609375
-41.50390625,-51.7578125,-56.15234375,-132.32421875
-3.41796875,-45.41015625,-51.7578125,-10.25390625
12.20703125,-34.1796875,-45.8984375,62.5
-15.625,-36.1328125,-42.96875,-17.08984375
-63.96484375,-46.875,-50.29296875,-146.484375
-54.19921875,-60.05859375,-50.29296875,-150.390625
-13.18359375,-56.15234375,-41.9921875,-38.0859375
-1.46484375,-34.1796875,-37.109375,47.36328125
-28.80859375,-40.52734375,-45.8984375,-23.4375
-68.359375,-60.05859375,-56.640625,-157.2265625
-62.01171875,-62.5,-48.828125,-159.1796875
-36.62109375,-61.5234375,-39.0625,-48.33984375
-18.5546875,-48.33984375,-33.203125,48.828125
-28.80859375,-42.48046875,-31.73828125,7.8125
-68.359375,-52.734375,-40.0390625,-117.1875
-69.82421875,-58.10546875,-46.38671875,-156.73828125
-20.5078125,-52.734375,-38.57421875,-62.5
11.71875,-40.0390625,-24.90234375,53.7109375
-8.30078125,-35.15625,-27.83203125,21.484375
-53.7109375,-42.96875,-41.015625,-109.375
-58.10546875,-48.828125,-50.29296875,-157.71484375
-21.97265625,-51.26953125,-39.55078125,-70.80078125
3.41796875,-48.828125,-33.203125,41.9921875
-15.625,-47.36328125,-37.59765625,29.78515625
-65.91796875,-58.10546875,-41.50390625,-86.9140625
-89.35546875,-71.2890625,-51.7578125,-160.64453125
-61.03515625,-68.359375,-41.9921875,-96.19140625
-20.5078125,-57.12890625,-24.4140625,44.921875
-32.71484375,-48.33984375,-29.296875,56.15234375
-82.51953125,-50.29296875,-44.921875,-65.4296875
-110.3515625,-59.08203125,-52.24609375,-152.83203125
-86.42578125,-56.640625,-52.24609375,-110.83984375
-35.15625,-44.43359375,-44.921875,24.90234375
-35.15625,-40.0390625,-43.45703125,54.19921875
-85.44921875,-47.8515625,-55.17578125,-63.96484375
-105.95703125,-65.91796875,-61.03515625,-154.78515625
-77.1484375,-62.01171875,-57.6171875,-113.28125
-32.2265625,-42.48046875,-48.33984375,15.13671875
-21.484375,-38.0859375,-44.43359375,62.5
-47.36328125,-41.50390625,-48.33984375,-28.80859375
-76.66015625,-51.7578125,-50.78125,-121.58203125
-63.96484375,-58.59375,-48.33984375,-99.609375
-26.3671875,-50.78125,-41.9921875,17.08984375
-17.08984375,-36.1328125,-43.45703125,77.63671875
-43.45703125,-38.57421875,-41.9921875,0.0
-90.33203125,-59.08203125,-41.015625,-115.234375
-87.40234375,-70.80078125,-46.38671875,-112.79296875
-37.59765625,-60.05859375,-44.921875,4.8828125
-26.3671875,-45.8984375,-42.48046875,71.2890625
-55.6640625,-43.45703125,-42.48046875,-0.9765625
-95.21484375,-55.17578125,-51.26953125,-124.51171875
-95.21484375,-62.98828125,-55.17578125,-139.6484375
-45.8984375,-47.8515625,-48.33984375,-25.87890625
-16.6015625,-37.109375,-47.36328125,58.10546875
-48.33984375,-41.50390625,-57.12890625,-5.37109375
-89.84375,-42.48046875,-56.15234375,-116.2109375
-91.30859375,-54.19921875,-56.15234375,-143.06640625
-55.6640625,-62.01171875,-61.03515625,-53.22265625
-14.16015625,-45.41015625,-52.24609375,54.19921875
-33.69140625,-43.45703125,-44.43359375,11.23046875
-77.1484375,-58.10546875,-48.33984375,-110.83984375
-68.84765625,-63.4765625,-49.31640625,-144.04296875
-38.0859375,-62.01171875,-43.9453125,-63.96484375
-16.11328125,-60.05859375,-40.52734375,42.96875
-20.01953125,-50.78125,-39.0625,33.69140625
-56.640625,-52.24609375,-49.31640625,-89.84375
-68.359375,-59.08203125,-60.05859375,-160.15625
-30.76171875,-45.8984375,-62.98828125,-91.796875
7.8125,-33.203125,-53.22265625,39.0625
-15.13671875,-40.0390625,-52.734375,31.73828125
-63.4765625,-53.7109375,-61.03515625,-87.40234375
-71.77734375,-57.12890625,-56.640625,-148.92578125
-45.41015625,-53.22265625,-47.8515625,-91.796875
1.953125,-38.57421875,-39.0625,41.015625
-4.8828125,-28.80859375,-33.203125,54.6875
-62.01171875,-42.48046875,-41.50390625,-67.87109375
-81.54296875,-51.7578125,-43.9453125,-147.94921875
-51.26953125,-52.734375,-41.9921875,-101.5625
-7.8125,-41.9921875,-36.62109375,26.85546875
-5.37109375,-28.80859375,-31.25,60.546875
-48.33984375,-33.203125,-30.2734375,-41.015625
-92.28515625,-57.6171875,-38.0859375,-139.16015625
-68.359375,-66.40625,-46.38671875,-113.76953125
-12.20703125,-51.26953125,-36.62109375,15.13671875
-9.765625,-39.55078125,-32.2265625,58.59375
-44.921875,-42.96875,-32.71484375,-36.62109375
-82.51953125,-59.08203125,-35.15625,-143.06640625
-65.4296875,-64.94140625,-40.0390625,-128.41796875
-20.5078125,-55.6640625,-31.25,0.0
-8.7890625,-45.41015625,-27.34375,64.94140625
-34.1796875,-41.50390625,-35.64453125,-20.5078125
-72.75390625,-45.41015625,-41.50390625,-129.39453125
-66.40625,-62.01171875,-38.0859375,-125.48828125
-24.90234375,-65.4296875,-32.71484375,-11.71875
-10.25390625,-48.33984375,-32.71484375,62.98828125
-41.50390625,-49.8046875,-36.1328125,-10.25390625
-79.58984375,-65.4296875,-46.875,-126.46484375
-76.171875,-69.3359375,-49.31640625,-131.8359375
-36.1328125,-57.12890625,-45.41015625,-27.34375
-20.01953125,-47.8515625,-40.0390625,56.15234375
-49.31640625,-51.26953125,-38.57421875,8.7890625
-86.42578125,-60.546875,-41.015625,-102.5390625
-90.33203125,-70.80078125,-40.0390625,-133.7890625
-51.7578125,-62.98828125,-32.71484375,-41.50390625
-10.7421875,-45.41015625,-30.76171875,64.453125
-32.71484375,-40.52734375,-38.0859375,21.484375
-79.58984375,-53.7109375,-37.59765625,-104.4921875
-83.984375,-63.4765625,-43.9453125,-147.4609375
-52.734375,-53.22265625,-55.6640625,-70.3125
-17.578125,-35.64453125,-51.7578125,42.96875
-27.34375,-31.25,-49.31640625,24.90234375
-72.75390625,-43.9453125,-53.7109375,-94.7265625
-84.47265625,-56.15234375,-53.7109375,-147.4609375
-47.36328125,-47.36328125,-45.41015625,-71.2890625
-12.6953125,-37.109375,-35.15625,52.24609375
-21.484375,-30.2734375,-35.64453125,51.7578125
-58.10546875,-41.50390625,-41.015625,-62.5
-66.89453125,-55.6640625,-43.9453125,-139.16015625
-52.734375,-48.33984375,-50.29296875,-96.6796875
-19.04296875,-38.0859375,-51.26953125,22.4609375
-10.7421875,-29.296875,-41.9921875,47.8515625
-61.5234375,-41.50390625,-41.9921875,-62.98828125
-92.7734375,-59.5703125,-50.78125,-150.390625
-69.82421875,-50.78125,-58.59375,-112.3046875
-36.62109375,-37.109375,-53.7109375,4.39453125
-34.1796875,-38.57421875,-45.41015625,41.50390625
-66.89453125,-43.45703125,-45.8984375,-53.7109375
-96.19140625,-41.9921875,-46.875,-148.4375
-84.9609375,-47.8515625,-51.7578125,-132.8125
-41.50390625,-47.8515625,-46.38671875,-5.859375
-29.296875,-40.0390625,-32.71484375,54.19921875
-62.98828125,-41.50390625,-30.2734375,-40.0390625
-100.09765625,-56.15234375,-30.76171875,-141.6015625
-83.0078125,-60.546875,-30.76171875,-121.58203125
-37.109375,-46.38671875,-31.73828125,-7.8125
-23.4375,-29.78515625,-31.25,47.8515625
-41.9921875,-27.34375,-29.78515625,-27.83203125
-89.84375,-51.7578125,-30.76171875,-137.6953125
-87.40234375,-58.59375,-34.66796875,-134.27734375
-40.52734375,-45.41015625,-32.71484375,-21.484375
-22.4609375,-36.1328125,-24.90234375,60.546875
-44.921875,-34.1796875,-29.296875,-6.8359375
-91.796875,-47.8515625,-33.203125,-131.34765625
-99.609375,-59.5703125,-39.0625,-151.85546875
-57.12890625,-44.921875,-39.0625,-39.55078125
-22.4609375,-27.34375,-36.1328125,60.05859375
-44.921875,-29.296875,-42.48046875,4.39453125
-88.8671875,-44.43359375,-47.8515625,-117.67578125
-89.84375,-52.24609375,-51.26953125,-144.04296875
-51.26953125,-44.43359375,-45.41015625,-45.8984375
-17.578125,-30.76171875,-41.50390625,61.03515625
-35.15625,-23.92578125,-42.96875,31.73828125
-83.0078125,-40.0390625,-44.921875,-85.9375
-100.5859375,-61.5234375,-47.36328125,-137.6953125
-64.453125,-54.6875,-48.828125,-59.08203125
-19.53125,-41.9921875,-43.45703125,62.5
-24.90234375,-36.62109375,-36.1328125,55.17578125
-70.80078125,-44.43359375,-41.50390625,-68.84765625
-88.8671875,-53.7109375,-50.78125,-136.71875
-68.359375,-52.24609375,-48.828125,-75.68359375
-29.78515625,-41.9921875,-40.0390625,39.55078125
-27.83203125,-31.73828125,-39.0625,38.0859375
-67.87109375,-34.1796875,-51.26953125,-89.84375
-83.984375,-43.45703125,-53.7109375,-161.1328125
-61.5234375,-53.22265625,-45.8984375,-98.14453125
-21.484375,-53.7109375,-43.9453125,24.4140625
-21.97265625,-45.41015625,-41.9921875,50.78125
-56.15234375,-46.875,-39.0625,-50.29296875
-81.0546875,-59.5703125,-41.9921875,-145.01953125
-63.96484375,-57.6171875,-45.8984375,-107.421875
-9.765625,-39.55078125,-34.1796875,33.203125
-6.34765625,-37.109375,-23.92578125,73.73046875
-49.31640625,-43.9453125,-33.203125,-34.66796875
-71.77734375,-48.33984375,-40.52734375,-130.859375
-55.6640625,-45.41015625,-44.921875,-107.91015625
-20.5078125,-33.69140625,-37.59765625,7.32421875
-7.32421875,-27.34375,-36.1328125,62.98828125
-33.203125,-28.80859375,-48.828125,-29.78515625
-61.03515625,-36.1328125,-46.875,-134.765625
-58.10546875,-44.921875,-45.41015625,-123.53515625
-25.87890625,-39.0625,-46.38671875,-9.27734375
-3.41796875,-28.80859375,-36.62109375,71.2890625
-40.0390625,-29.296875,-40.52734375,-4.39453125
-92.28515625,-43.45703125,-49.8046875,-142.578125
-82.03125,-50.78125,-49.8046875,-150.390625
-38.57421875,-40.0390625,-43.45703125,-22.4609375
-20.99609375,-32.71484375,-44.43359375,58.59375
-46.38671875,-35.15625,-54.19921875,-11.23046875
-88.37890625,-50.78125,-58.10546875,-132.8125
-86.9140625,-68.84765625,-55.17578125,-147.94921875
-42.96875,-59.5703125,-42.96875,-35.64453125
-9.27734375,-43.45703125,-35.64453125,70.3125
-36.1328125,-43.9453125,-44.921875,14.16015625
-79.1015625,-56.15234375,-47.8515625,-115.72265625
-78.125,-64.453125,-42.48046875,-146.484375
-42.48046875,-54.19921875,-38.0859375,-52.734375
-4.39453125,-31.25,-31.25,65.4296875
-18.5546875,-27.83203125,-32.71484375,32.2265625
-68.84765625,-40.52734375,-41.015625,-97.65625
-83.984375,-42.48046875,-47.36328125,-143.5546875
-60.05859375,-42.48046875,-54.6875,-71.77734375
-13.671875,-34.1796875,-52.24609375,46.875
-9.765625,-25.390625,-46.875,43.45703125
-62.01171875,-39.55078125,-44.921875,-74.70703125
-85.44921875,-53.22265625,-50.29296875,-147.4609375
-53.7109375,-48.33984375,-49.8046875,-85.44921875
-12.20703125,-32.2265625,-42.48046875,44.921875
-26.3671875,-33.203125,-42.96875,44.921875
-77.63671875,-44.43359375,-48.33984375,-75.68359375
-102.05078125,-55.6640625,-53.7109375,-154.78515625
-78.61328125,-58.59375,-51.26953125,-106.4453125
-35.15625,-34.1796875,-47.36328125,33.203125
-38.0859375,-21.484375,-42.48046875,67.3828125
-82.03125,-41.015625,-43.9453125,-48.33984375
-98.6328125,-51.7578125,-45.8984375,-134.765625
-75.68359375,-56.15234375,-42.48046875,-98.14453125
-41.015625,-45.8984375,-37.59765625,19.04296875
-28.80859375,-36.1328125,-34.1796875,62.98828125
-48.828125,-44.43359375,-37.109375,-25.87890625
-85.44921875,-55.17578125,-44.921875,-124.51171875
-81.54296875,-56.15234375,-48.33984375,-106.4453125
-38.0859375,-43.45703125,-41.015625,12.20703125
-16.11328125,-28.80859375,-36.62109375,70.3125
-35.15625,-24.4140625,-37.109375,-11.23046875
-74.21875,-40.0390625,-47.36328125,-126.953125
-68.84765625,-54.19921875,-57.6171875,-126.46484375
-22.4609375,-42.48046875,-50.29296875,-2.44140625
-6.8359375,-27.83203125,-42.48046875,73.73046875
-36.1328125,-29.78515625,-43.45703125,1.953125
-66.40625,-40.52734375,-43.45703125,-111.328125
-68.84765625,-48.828125,-52.24609375,-127.9296875
-36.62109375,-47.8515625,-49.31640625,-24.4140625
-6.8359375,-33.203125,-36.62109375,65.91796875
-28.80859375,-30.2734375,-43.9453125,1.953125
-75.1953125,-43.45703125,-49.8046875,-123.53515625
-85.44921875,-56.640625,-48.828125,-145.5078125
-48.33984375,-57.12890625,-41.50390625,-39.55078125
-12.6953125,-46.38671875,-33.69140625,66.89453125
-38.0859375,-42.96875,-40.0390625,16.6015625
-88.37890625,-49.8046875,-47.8515625,-110.83984375
-89.35546875,-55.6640625,-48.828125,-148.92578125
-51.7578125,-52.734375,-44.921875,-57.6171875
-25.87890625,-41.015625,-37.59765625,43.9453125
-41.015625,-34.1796875,-35.64453125,7.32421875
-70.3125,-39.55078125,-42.48046875,-96.6796875
-82.03125,-47.8515625,-44.921875,-147.4609375
-57.6171875,-46.875,-33.203125,-70.80078125
-12.6953125,-28.3203125,-28.80859375,52.734375
-10.7421875,-19.53125,-34.1796875,45.8984375
-48.33984375,-35.15625,-40.0390625,-74.21875
-72.75390625,-49.8046875,-43.45703125,-147.4609375
-62.5,-49.8046875,-44.921875,-94.7265625
-22.4609375,-34.1796875,-41.50390625,34.1796875
-17.578125,-21.484375,-42.48046875,41.9921875
-48.828125,-29.78515625,-50.78125,-76.66015625
-67.87109375,-45.8984375,-53.7109375,-145.01953125
-56.640625,-43.9453125,-45.8984375,-98.6328125
-27.83203125,-33.203125,-38.0859375,20.99609375
-18.06640625,-25.390625,-36.1328125,51.7578125
-52.24609375,-30.76171875,-42.48046875,-46.875
-83.984375,-46.875,-48.828125,-136.71875
-69.3359375,-54.19921875,-50.78125,-108.88671875
-32.71484375,-49.31640625,-46.38671875,13.671875
-20.5078125,-39.0625,-36.62109375,62.01171875
-46.38671875,-40.52734375,-33.69140625,-33.69140625
-81.54296875,-47.36328125,-39.55078125,-142.578125
-73.2421875,-46.875,-40.52734375,-121.09375
-24.4140625,-35.64453125,-35.15625,5.37109375
-4.8828125,-20.99609375,-30.2734375,61.03515625
-33.203125,-24.90234375,-40.0390625,-21.97265625
-71.2890625,-40.52734375,-52.734375,-137.20703125
-62.98828125,-41.50390625,-50.29296875,-132.8125
-29.78515625,-42.96875,-47.8515625,-18.06640625
-11.71875,-44.43359375,-46.875,53.7109375
-32.2265625,-39.55078125,-48.828125,-10.25390625
-79.58984375,-54.19921875,-57.12890625,-132.32421875
-73.2421875,-59.5703125,-54.19921875,-148.92578125
-34.1796875,-50.78125,-47.36328125,-40.52734375
-13.18359375,-39.55078125,-38.57421875,60.05859375
-31.25,-41.50390625,-36.62109375,8.30078125
-76.66015625,-53.7109375,-49.8046875,-126.46484375
-93.26171875,-64.453125,-56.640625,-167.96875
-66.89453125,-63.96484375,-55.17578125,-77.1484375
-19.53125,-43.9453125,-43.45703125,45.41015625
-25.390625,-42.96875,-32.71484375,27.34375
-78.61328125,-65.4296875,-39.0625,-101.07421875
-91.796875,-73.2421875,-44.921875,-147.94921875
-56.15234375,-65.4296875,-42.48046875,-66.89453125
-17.08984375,-48.828125,-40.52734375,52.24609375
-22.94921875,-39.55078125,-42.48046875,32.71484375
-57.12890625,-49.31640625,-47.8515625,-90.8203125
-80.078125,-62.5,-54.6875,-151.3671875
-55.17578125,-55.6640625,-46.38671875,-80.56640625
-3.41796875,-37.59765625,-41.50390625,46.875
-5.859375,-34.1796875,-45.41015625,45.41015625
-53.7109375,-39.0625,-46.38671875,-69.3359375
-73.73046875,-50.78125,-48.33984375,-139.6484375
-42.96875,-56.15234375,-46.38671875,-87.40234375
-3.90625,-42.96875,-44.921875,33.69140625
-13.18359375,-34.1796875,-53.7109375,37.59765625
-39.55078125,-36.62109375,-58.59375,-72.265625
-61.5234375,-49.8046875,-52.734375,-150.87890625
-59.08203125,-57.6171875,-49.8046875,-114.2578125
-17.08984375,-43.45703125,-47.8515625,15.625
-5.37109375,-25.87890625,-45.8984375,50.78125
-46.38671875,-36.1328125,-47.8515625,-59.5703125
-84.47265625,-55.17578125,-48.33984375,-149.4140625
-70.3125,-56.15234375,-47.8515625,-108.88671875
-34.66796875,-51.26953125,-45.8984375,11.71875
-27.83203125,-49.8046875,-38.0859375,59.5703125
-49.31640625,-48.828125,-38.57421875,-24.4140625
-88.8671875,-61.03515625,-45.41015625,-133.7890625
-88.37890625,-67.3828125,-50.78125,-126.953125
-38.0859375,-52.24609375,-48.828125,-3.41796875
-12.20703125,-35.64453125,-39.55078125,70.3125
-38.57421875,-35.15625,-39.55078125,-1.953125
-74.70703125,-50.78125,-44.43359375,-115.234375
-75.68359375,-59.5703125,-48.828125,-130.859375
-32.71484375,-45.8984375,-48.33984375,-19.04296875
-0.9765625,-30.2734375,-29.78515625,83.984375
-29.296875,-35.15625,-27.34375,18.06640625
-73.73046875,-50.29296875,-46.875,-122.55859375
-74.21875,-55.6640625,-49.8046875,-145.99609375
-36.1328125,-47.36328125,-47.8515625,-43.45703125
-1.46484375,-30.76171875,-49.8046875,51.7578125
-18.06640625,-25.390625,-54.19921875,0.9765625
-69.82421875,-41.50390625,-51.7578125,-123.53515625
-88.37890625,-57.6171875,-50.78125,-159.1796875
-65.4296875,-55.17578125,-55.6640625,-73.2421875
-28.80859375,-39.0625,-51.7578125,37.59765625
-37.59765625,-31.25,-53.7109375,8.30078125
-83.0078125,-38.0859375,-57.6171875,-119.62890625
-94.7265625,-55.17578125,-63.96484375,-168.9453125
-59.5703125,-60.05859375,-63.4765625,-83.49609375
-9.765625,-39.55078125,-52.734375,49.8046875
-16.11328125,-32.2265625,-52.24609375,46.38671875
-63.96484375,-44.921875,-56.15234375,-86.9140625
-74.70703125,-55.17578125,-59.5703125,-154.78515625
-42.96875,-56.15234375,-49.31640625,-73.73046875
-5.859375,-41.015625,-32.71484375,62.5
-12.20703125,-32.71484375,-30.2734375,65.91796875
-47.36328125,-44.921875,-39.55078125,-50.78125
-66.89453125,-55.6640625,-49.31640625,-127.44140625
-41.50390625,-48.33984375,-43.9453125,-70.3125
3.90625,-32.2265625,-34.1796875,64.453125
-3.90625,-29.296875,-32.2265625,74.21875
-45.8984375,-41.50390625,-40.0390625,-47.8515625
-70.3125,-51.26953125,-43.9453125,-130.37109375
-60.546875,-58.10546875,-32.71484375,-86.9140625
-22.4609375,-48.33984375,-26.3671875,36.1328125
-21.484375,-42.96875,-31.73828125,70.80078125
-60.05859375,-46.875,-33.69140625,-37.109375
-88.8671875,-52.734375,-36.62109375,-144.53125
-77.63671875,-55.6640625,-43.9453125,-124.51171875
-33.203125,-45.41015625,-38.0859375,-3.90625
-17.08984375,-29.296875,-29.78515625,57.6171875
-48.33984375,-34.1796875,-34.66796875,-28.3203125
-87.890625,-54.19921875,-41.50390625,-143.06640625
-78.61328125,-62.98828125,-43.9453125,-134.27734375
-33.69140625,-54.6875,-45.41015625,-20.99609375
-17.578125,-43.45703125,-45.41015625,52.734375
-38.57421875,-47.8515625,-46.38671875,-12.20703125
-78.61328125,-61.5234375,-46.38671875,-122.0703125
-75.68359375,-66.89453125,-46.38671875,-126.46484375
-33.203125,-56.15234375,-44.43359375,-14.6484375
-12.20703125,-49.31640625,-44.43359375,78.61328125
-31.73828125,-57.6171875,-46.875,26.85546875
-73.73046875,-64.94140625,-50.78125,-93.26171875
-74.21875,-68.359375,-52.734375,-122.0703125
-37.109375,-62.5,-49.8046875,-28.3203125
-5.859375,-41.50390625,-44.921875,75.68359375
-25.390625,-35.64453125,-41.9921875,32.71484375
-75.68359375,-55.17578125,-46.38671875,-98.14453125
-81.54296875,-64.453125,-50.29296875,-140.625
-45.8984375,-52.734375,-47.36328125,-58.59375
-8.7890625,-35.64453125,-43.45703125,50.29296875
-26.85546875,-35.64453125,-40.52734375,23.4375
-79.58984375,-48.828125,-45.41015625,-99.609375
-96.19140625,-57.6171875,-45.41015625,-153.3203125
-67.87109375,-54.19921875,-39.55078125,-80.56640625
-26.85546875,-39.0625,-33.203125,47.8515625
-36.62109375,-44.921875,-33.69140625,38.57421875
-75.1953125,-57.12890625,-38.0859375,-82.03125
-79.1015625,-61.03515625,-39.0625,-144.53125
-50.29296875,-62.98828125,-39.0625,-86.9140625
-11.71875,-52.24609375,-36.1328125,36.62109375
-16.6015625,-42.48046875,-36.1328125,41.015625
-57.12890625,-48.33984375,-38.0859375,-70.3125
-84.47265625,-68.359375,-46.875,-145.5078125
-73.2421875,-71.2890625,-57.12890625,-115.72265625
-24.90234375,-56.15234375,-52.734375,15.13671875
-9.765625,-45.41015625,-48.33984375,54.6875
-55.17578125,-48.33984375,-55.6640625,-62.01171875
-87.890625,-65.4296875,-57.6171875,-157.71484375
-71.77734375,-67.87109375,-57.6171875,-120.1171875
-36.1328125,-56.15234375,-52.734375,6.8359375
-23.92578125,-42.48046875,-46.38671875,54.19921875
-54.6875,-45.41015625,-53.22265625,-41.50390625
-93.75,-65.4296875,-55.6640625,-145.01953125
-92.7734375,-74.70703125,-49.31640625,-128.41796875
-47.8515625,-63.96484375,-39.0625,-1.46484375
-19.53125,-44.43359375,-31.73828125,65.91796875
-44.43359375,-41.50390625,-34.66796875,-20.5078125
-80.078125,-52.734375,-40.0390625,-133.7890625
-83.0078125,-62.98828125,-43.45703125,-137.6953125
-42.48046875,-57.6171875,-35.15625,-20.01953125
-2.9296875,-41.015625,-28.80859375,67.3828125
-22.4609375,-40.0390625,-34.66796875,-3.41796875
-64.453125,-50.29296875,-41.9921875,-125.9765625
-60.546875,-53.22265625,-38.57421875,-137.20703125
-31.25,-49.8046875,-28.80859375,-33.69140625
-10.7421875,-45.41015625,-25.390625,54.19921875
-24.90234375,-40.0390625,-25.390625,6.8359375
-59.5703125,-46.875,-31.73828125,-109.86328125
-63.4765625,-51.26953125,-37.109375,-138.18359375
-32.71484375,-41.015625,-34.66796875,-41.9921875
-1.953125,-35.15625,-34.1796875,60.05859375
-22.4609375,-39.0625,-41.9921875,10.25390625
-68.359375,-44.43359375,-44.921875,-114.2578125
-76.171875,-49.31640625,-43.45703125,-153.80859375
-60.546875,-46.38671875,-46.38671875,-82.03125
-33.203125,-32.71484375,-42.96875,25.390625
-31.25,-28.3203125,-42.48046875,8.30078125
-71.77734375,-40.52734375,-54.19921875,-107.421875
-95.21484375,-54.6875,-52.24609375,-165.0390625
-72.265625,-56.15234375,-48.33984375,-100.5859375
-35.64453125,-45.41015625,-47.36328125,24.4140625
-34.66796875,-31.25,-40.0390625,33.203125
-70.80078125,-37.109375,-44.43359375,-78.61328125
-93.26171875,-55.17578125,-53.7109375,-157.71484375
-70.3125,-59.5703125,-55.17578125,-104.00390625
-22.4609375,-42.96875,-45.41015625,30.2734375
-17.08984375,-32.71484375,-36.1328125,50.78125
-56.15234375,-43.9453125,-39.55078125,-55.17578125
-84.9609375,-58.59375,-47.8515625,-138.671875
-74.70703125,-66.40625,-50.29296875,-103.515625
-31.73828125,-54.6875,-42.48046875,24.4140625
-20.01953125,-41.50390625,-35.15625,66.40625
-51.7578125,-41.9921875,-40.52734375,-35.15625
-84.47265625,-47.8515625,-53.22265625,-147.4609375
-63.96484375,-47.36328125,-48.33984375,-116.2109375
-32.2265625,-43.45703125,-35.15625,13.18359375
-46.875,-44.921875,-37.59765625,55.17578125
-68.84765625,-50.29296875,-44.921875,-31.25
-84.47265625,-56.640625,-49.8046875,-132.32421875
-83.0078125,-62.01171875,-46.875,-125.48828125
-46.38671875,-59.5703125,-45.41015625,-9.27734375
-23.92578125,-43.45703125,-46.875,65.4296875
-56.15234375,-34.66796875,-46.38671875,-9.765625
-99.609375,-53.22265625,-51.26953125,-131.8359375
-97.65625,-65.91796875,-52.24609375,-139.6484375
-43.45703125,-46.875,-43.9453125,-17.578125
-4.39453125,-31.25,-38.57421875,66.89453125
-31.73828125,-38.0859375,-36.1328125,0.9765625
-77.63671875,-49.8046875,-42.96875,-107.91015625
-83.0078125,-65.4296875,-50.78125,-128.90625
-45.41015625,-53.7109375,-46.875,-37.109375
-7.8125,-29.78515625,-41.015625,61.5234375
-17.578125,-28.3203125,-41.015625,21.97265625
-66.40625,-43.9453125,-42.96875,-98.14453125
-78.125,-57.12890625,-43.9453125,-136.71875
-44.921875,-52.24609375,-42.96875,-50.78125
-16.6015625,-41.50390625,-41.50390625,52.24609375
-21.97265625,-36.1328125,-41.9921875,20.5078125
-60.05859375,-39.55078125,-41.9921875,-93.26171875
-88.8671875,-54.6875,-48.33984375,-149.90234375
-79.1015625,-63.96484375,-50.78125,-84.47265625
-37.109375,-50.29296875,-47.36328125,30.2734375
-29.296875,-36.62109375,-37.59765625,22.94921875
-69.3359375,-42.96875,-38.57421875,-87.40234375
-92.7734375,-59.08203125,-50.29296875,-163.57421875
-64.453125,-63.4765625,-52.734375,-104.4921875
-18.06640625,-47.8515625,-44.43359375,29.78515625
-23.4375,-41.50390625,-40.0390625,35.64453125
-65.91796875,-51.7578125,-40.0390625,-75.68359375
-89.35546875,-58.59375,-40.0390625,-150.87890625
-68.84765625,-63.4765625,-43.45703125,-108.88671875
-20.5078125,-52.24609375,-38.57421875,18.06640625
-10.25390625,-38.57421875,-34.66796875,49.31640625
-39.0625,-41.50390625,-38.57421875,-56.640625
-62.5,-50.29296875,-48.33984375,-145.99609375
-42.48046875,-47.8515625,-47.36328125,-103.515625
-3.90625,-36.62109375,-41.015625,20.5078125
-3.41796875,-28.3203125,-47.8515625,49.8046875
-40.52734375,-28.3203125,-51.7578125,-43.9453125
-89.84375,-50.29296875,-48.828125,-149.90234375
-81.54296875,-57.6171875,-51.26953125,-132.32421875
-29.78515625,-33.69140625,-50.29296875,-1.953125
-18.06640625,-23.4375,-44.921875,54.19921875
-53.7109375,-33.69140625,-44.43359375,-32.2265625
-84.9609375,-45.41015625,-49.8046875,-138.671875
-79.58984375,-46.875,-53.22265625,-139.16015625
-48.33984375,-34.1796875,-45.8984375,-26.85546875
-22.4609375,-25.390625,-39.55078125,49.8046875
-45.41015625,-35.15625,-44.921875,-26.85546875
-85.44921875,-48.828125,-49.31640625,-142.578125
-85.44921875,-49.8046875,-52.734375,-148.92578125
-50.29296875,-44.43359375,-53.7109375,-40.52734375
-26.85546875,-30.76171875,-52.24609375,40.52734375
-42.96875,-22.4609375,-51.26953125,-12.6953125
-85.44921875,-41.015625,-57.12890625,-126.953125
-93.26171875,-58.59375,-55.6640625,-151.3671875
-54.19921875,-52.24609375,-47.8515625,-48.33984375
-14.6484375,-42.96875,-44.43359375,57.6171875
-20.5078125,-37.109375,-42.48046875,24.90234375
-63.96484375,-42.48046875,-48.828125,-107.421875
-79.58984375,-53.7109375,-61.03515625,-161.1328125
-46.875,-47.8515625,-59.5703125,-67.3828125
-14.6484375,-37.59765625,-45.41015625,51.26953125
-32.2265625,-38.0859375,-37.59765625,26.85546875
-80.56640625,-46.38671875,-43.9453125,-99.609375
-99.609375,-53.7109375,-49.31640625,-156.25
-70.80078125,-55.17578125,-49.8046875,-71.77734375
-26.85546875,-47.36328125,-48.828125,52.24609375
-25.87890625,-39.55078125,-42.48046875,41.50390625
-67.3828125,-53.7109375,-41.9921875,-76.171875
-91.796875,-68.84765625,-45.8984375,-152.83203125
-70.3125,-64.453125,-44.921875,-94.7265625
-27.34375,-48.828125,-34.66796875,36.1328125
-34.66796875,-40.0390625,-29.296875,43.9453125
-78.125,-46.875,-35.64453125,-75.68359375
-95.21484375,-53.7109375,-43.9453125,-157.71484375
-72.265625,-54.6875,-45.41015625,-108.88671875
-28.80859375,-41.9921875,-42.48046875,24.4140625
-24.4140625,-37.59765625,-41.50390625,53.7109375
-63.96484375,-51.7578125,-45.8984375,-54.6875
-104.4921875,-63.96484375,-51.26953125,-149.90234375
-94.7265625,-65.4296875,-51.26953125,-120.60546875
-48.33984375,-59.08203125,-43.9453125,8.7890625
-24.4140625,-42.96875,-32.2265625,66.89453125
-55.6640625,-38.57421875,-44.921875,-35.64453125
-96.19140625,-50.78125,-58.59375,-146.97265625
-85.44921875,-50.78125,-53.7109375,-123.046875
-51.26953125,-43.9453125,-45.41015625,-5.859375
-36.62109375,-39.55078125,-39.0625,55.6640625
-60.05859375,-40.0390625,-41.50390625,-19.53125
-90.33203125,-52.24609375,-50.29296875,-134.765625
-72.75390625,-59.5703125,-58.59375,-139.6484375
-29.78515625,-49.8046875,-52.24609375,-15.625
-17.08984375,-36.62109375,-37.109375,66.40625
-46.875,-34.66796875,-34.66796875,-3.90625
-84.47265625,-54.6875,-37.109375,-124.51171875
-84.9609375,-71.77734375,-40.0390625,-135.25390625
-42.96875,-60.546875,-38.0859375,-24.90234375
-13.671875,-33.203125,-42.48046875,57.12890625
-36.1328125,-33.69140625,-43.45703125,-2.44140625
-77.1484375,-51.7578125,-37.59765625,-117.1875
-83.984375,-53.22265625,-42.48046875,-142.08984375
-54.6875,-51.7578125,-42.48046875,-55.6640625
-19.04296875,-45.8984375,-42.48046875,43.45703125
-30.76171875,-35.64453125,-48.828125,10.25390625
-68.359375,-38.57421875,-48.33984375,-104.00390625
-79.58984375,-50.78125,-49.31640625,-142.578125
-58.10546875,-55.6640625,-46.875,-58.59375
-27.83203125,-46.875,-39.0625,51.26953125
