TP9,AF7,AF8,TP10
-10.7421875,-45.8984375,-36.1328125,5.859375
-17.578125,-46.38671875,-41.50390625,-3.90625
-40.52734375,-49.8046875,-36.62109375,-79.58984375
-62.01171875,-52.734375,-30.2734375,-122.0703125
-63.96484375,-57.12890625,-34.66796875,-92.7734375
-38.57421875,-45.8984375,-25.87890625,-5.37109375
-37.109375,-43.9453125,-27.34375,2.9296875
-66.40625,-55.6640625,-34.66796875,-77.63671875
-83.0078125,-54.19921875,-39.0625,-133.7890625
-65.91796875,-49.31640625,-42.96875,-105.46875
-41.9921875,-51.7578125,-40.52734375,-22.4609375
-38.0859375,-47.36328125,-40.0390625,0.0
-50.78125,-39.0625,-41.50390625,-68.84765625
-62.5,-43.45703125,-46.875,-136.71875
-52.24609375,-46.875,-51.26953125,-119.62890625
-37.109375,-47.36328125,-49.31640625,-33.69140625
-38.0859375,-48.33984375,-54.19921875,3.41796875
-50.78125,-39.55078125,-63.96484375,-53.7109375
-62.98828125,-45.8984375,-68.84765625,-126.953125
-56.15234375,-61.03515625,-70.80078125,-127.44140625
-29.78515625,-54.6875,-70.3125,-52.734375
-18.5546875,-45.8984375,-69.82421875,-12.20703125
-36.1328125,-43.9453125,-60.546875,-55.6640625
-65.91796875,-42.96875,-54.6875,-122.0703125
-63.96484375,-47.36328125,-56.640625,-129.8828125
-41.015625,-46.875,-58.59375,-62.98828125
-35.15625,-49.31640625,-58.59375,-7.32421875
-43.9453125,-51.26953125,-59.08203125,-45.41015625
-62.98828125,-51.7578125,-61.03515625,-120.1171875
-65.91796875,-52.734375,-59.5703125,-138.671875
-53.7109375,-55.6640625,-56.640625,-82.51953125
-49.31640625,-62.5,-56.15234375,-24.4140625
-60.05859375,-58.59375,-54.19921875,-54.6875
-82.03125,-56.15234375,-60.05859375,-126.953125
-82.51953125,-60.05859375,-65.4296875,-145.99609375
-60.05859375,-58.10546875,-59.08203125,-89.84375
-30.76171875,-51.7578125,-56.15234375,-18.06640625
-24.90234375,-44.921875,-55.17578125,-31.73828125
-52.734375,-38.0859375,-54.19921875,-95.703125
-71.77734375,-45.8984375,-55.17578125,-118.1640625
-56.15234375,-55.6640625,-56.640625,-75.1953125
-32.71484375,-48.828125,-57.6171875,-3.41796875
-38.57421875,-36.1328125,-51.7578125,-3.90625
-59.5703125,-41.50390625,-51.26953125,-69.3359375
-64.94140625,-50.78125,-56.640625,-102.5390625
-50.29296875,-52.24609375,-56.640625,-64.453125
-28.3203125,-42.96875,-52.734375,10.25390625
-29.78515625,-35.15625,-48.33984375,17.578125
-45.8984375,-38.57421875,-49.31640625,-46.875
-54.19921875,-42.96875,-49.8046875,-86.42578125
-43.45703125,-45.41015625,-47.8515625,-61.03515625
-14.6484375,-43.9453125,-47.36328125,8.7890625
-8.30078125,-37.109375,-47.36328125,28.80859375
-23.92578125,-25.87890625,-47.8515625,-30.2734375
-39.55078125,-22.4609375,-41.50390625,-72.75390625
-31.73828125,-34.66796875,-36.62109375,-45.41015625
-11.23046875,-38.0859375,-42.96875,23.4375
-14.16015625,-36.1328125,-45.41015625,45.41015625
-39.0625,-39.55078125,-45.8984375,-11.71875
-62.98828125,-44.43359375,-42.48046875,-73.73046875
-59.5703125,-49.31640625,-41.9921875,-62.01171875
-38.57421875,-54.19921875,-45.41015625,3.41796875
-26.85546875,-46.875,-43.9453125,37.59765625
-40.0390625,-39.55078125,-47.36328125,-5.37109375
-62.5,-52.24609375,-50.29296875,-73.2421875
-56.640625,-53.22265625,-47.36328125,-70.3125
-33.69140625,-48.33984375,-41.50390625,0.9765625
-23.92578125,-51.26953125,-34.1796875,36.62109375
-35.64453125,-43.9453125,-24.90234375,-8.30078125
-65.91796875,-47.36328125,-25.87890625,-79.58984375
-72.265625,-57.12890625,-27.83203125,-87.890625
-48.828125,-50.29296875,-26.85546875,-21.484375
-38.57421875,-42.48046875,-36.1328125,24.90234375
-51.26953125,-45.41015625,-38.0859375,-9.27734375
-68.84765625,-52.24609375,-26.3671875,-71.77734375
-67.87109375,-55.17578125,-27.83203125,-89.84375
-47.36328125,-55.17578125,-35.15625,-41.9921875
-30.2734375,-48.828125,-32.2265625,16.6015625
-35.15625,-41.50390625,-29.78515625,-2.44140625
-59.08203125,-42.96875,-37.109375,-68.359375
-67.87109375,-51.26953125,-45.41015625,-89.84375
-60.546875,-55.6640625,-46.38671875,-42.96875
-40.0390625,-49.31640625,-44.43359375,21.484375
-39.0625,-40.0390625,-40.0390625,8.30078125
-65.91796875,-40.0390625,-39.0625,-64.94140625
-78.125,-51.26953125,-41.50390625,-100.5859375
-62.5,-56.15234375,-41.015625,-58.10546875
-36.62109375,-53.22265625,-37.109375,19.04296875
-39.55078125,-51.26953125,-36.1328125,12.20703125
-49.31640625,-51.26953125,-41.50390625,-57.6171875
-59.5703125,-53.7109375,-41.9921875,-97.65625
-52.734375,-55.6640625,-42.96875,-71.77734375
-34.1796875,-55.17578125,-49.8046875,-7.8125
-43.45703125,-48.828125,-48.33984375,-7.32421875
-50.78125,-44.921875,-38.57421875,-69.3359375
-58.59375,-50.78125,-41.015625,-122.55859375
-62.5,-58.10546875,-57.12890625,-110.83984375
-39.55078125,-58.10546875,-61.5234375,-35.15625
-28.80859375,-46.875,-57.12890625,-7.8125
-52.734375,-52.24609375,-56.15234375,-69.82421875
-76.66015625,-62.98828125,-57.12890625,-128.41796875
-73.73046875,-60.546875,-58.10546875,-102.5390625
-55.6640625,-65.91796875,-57.6171875,-33.69140625
-44.43359375,-66.89453125,-54.6875,-15.13671875
-60.546875,-61.5234375,-55.17578125,-68.84765625
-82.51953125,-68.359375,-60.05859375,-133.7890625
-78.61328125,-73.73046875,-62.5,-130.859375
-66.40625,-74.21875,-64.453125,-67.3828125
-55.17578125,-68.84765625,-64.453125,-31.25
-63.4765625,-59.5703125,-68.359375,-72.75390625
-81.54296875,-59.5703125,-64.453125,-133.30078125
-78.125,-68.359375,-62.5,-133.30078125
-67.87109375,-72.75390625,-68.359375,-75.68359375
-57.12890625,-66.40625,-70.3125,-28.3203125
-60.05859375,-59.08203125,-67.87109375,-53.22265625
-82.51953125,-68.84765625,-65.91796875,-123.046875
-84.47265625,-74.21875,-66.89453125,-139.16015625
-65.4296875,-74.70703125,-69.82421875,-77.1484375
-43.45703125,-70.3125,-67.87109375,-13.18359375
-51.26953125,-57.12890625,-64.453125,-42.96875
-84.9609375,-60.546875,-61.03515625,-115.234375
-94.23828125,-72.265625,-64.453125,-132.32421875
-74.21875,-77.1484375,-63.4765625,-80.56640625
-50.29296875,-68.359375,-60.05859375,-8.30078125
-53.7109375,-59.08203125,-59.5703125,-29.296875
-70.80078125,-58.59375,-58.59375,-102.05078125
-76.171875,-63.4765625,-59.08203125,-122.0703125
-60.546875,-67.3828125,-58.10546875,-80.078125
-36.1328125,-61.03515625,-59.08203125,-23.92578125
-36.62109375,-60.05859375,-67.3828125,-41.50390625
-57.12890625,-65.91796875,-69.82421875,-110.3515625
-67.3828125,-62.01171875,-69.3359375,-145.01953125
-49.8046875,-59.5703125,-71.2890625,-104.98046875
-30.2734375,-58.10546875,-68.84765625,-38.0859375
-37.109375,-53.7109375,-71.2890625,-42.96875
-60.05859375,-58.10546875,-68.84765625,-106.4453125
-75.1953125,-66.89453125,-62.98828125,-146.484375
-63.4765625,-64.94140625,-64.453125,-112.3046875
-47.36328125,-62.98828125,-63.96484375,-33.203125
-44.921875,-62.01171875,-63.96484375,-25.87890625
-61.03515625,-58.10546875,-62.5,-88.37890625
-76.171875,-61.03515625,-54.6875,-130.37109375
-65.4296875,-60.546875,-53.7109375,-106.4453125
-53.22265625,-58.10546875,-55.17578125,-29.78515625
-46.875,-56.15234375,-54.19921875,-0.48828125
-64.453125,-58.10546875,-54.19921875,-61.5234375
-89.84375,-60.05859375,-59.5703125,-123.046875
-75.68359375,-61.5234375,-65.4296875,-106.4453125
-54.6875,-65.4296875,-59.08203125,-36.62109375
-41.015625,-64.94140625,-51.7578125,-0.48828125
-48.828125,-63.96484375,-52.24609375,-45.8984375
-71.2890625,-72.75390625,-53.7109375,-115.234375
-63.4765625,-78.61328125,-53.22265625,-105.95703125
-41.015625,-73.2421875,-54.19921875,-32.2265625
-32.2265625,-65.91796875,-55.6640625,9.27734375
-44.43359375,-60.546875,-57.12890625,-35.64453125
-70.80078125,-67.87109375,-55.17578125,-106.93359375
-69.3359375,-77.63671875,-51.7578125,-106.4453125
-52.24609375,-75.68359375,-54.19921875,-43.45703125
-51.26953125,-76.171875,-58.59375,-4.8828125
-69.82421875,-76.66015625,-66.40625,-47.8515625
-83.49609375,-68.359375,-71.2890625,-113.28125
-82.51953125,-67.3828125,-67.3828125,-116.69921875
-69.3359375,-70.3125,-63.4765625,-64.453125
-55.6640625,-67.3828125,-62.98828125,-12.20703125
-63.96484375,-62.98828125,-63.4765625,-38.57421875
-85.9375,-63.4765625,-67.3828125,-107.91015625
-94.7265625,-67.87109375,-66.40625,-130.37109375
-75.68359375,-67.3828125,-60.05859375,-77.1484375
-60.546875,-66.40625,-57.6171875,-9.765625
-61.03515625,-65.4296875,-56.640625,-29.296875
-76.66015625,-66.89453125,-59.5703125,-102.5390625
-93.26171875,-72.75390625,-68.359375,-129.8828125
-70.3125,-66.40625,-68.359375,-68.84765625
-39.0625,-58.59375,-64.94140625,11.71875
-41.50390625,-60.546875,-63.4765625,-1.46484375
-65.4296875,-66.40625,-64.453125,-71.77734375
-79.1015625,-80.56640625,-65.91796875,-108.3984375
-62.98828125,-88.37890625,-64.94140625,-74.21875
-36.62109375,-76.171875,-57.6171875,1.953125
-41.015625,-67.3828125,-53.22265625,1.46484375
-65.91796875,-70.80078125,-56.640625,-73.2421875
-75.1953125,-75.1953125,-61.5234375,-123.046875
-65.91796875,-73.73046875,-62.98828125,-99.609375
-46.38671875,-70.80078125,-58.59375,-26.85546875
-36.1328125,-62.01171875,-60.05859375,-6.34765625
-62.01171875,-63.4765625,-68.359375,-75.1953125
-87.890625,-79.58984375,-62.5,-140.625
-76.171875,-75.68359375,-58.10546875,-109.86328125
-55.17578125,-69.3359375,-63.4765625,-83.0078125
-60.546875,-64.453125,-60.546875,-104.00390625
-71.2890625,-59.5703125,-62.98828125,-120.60546875
-76.171875,-65.4296875,-69.3359375,-159.66796875
-78.125,-62.01171875,-70.3125,-160.15625
-74.21875,-55.6640625,-70.80078125,-103.02734375
-61.03515625,-48.828125,-75.68359375,-70.80078125
-70.80078125,-48.828125,-74.70703125,-127.9296875
-96.19140625,-53.22265625,-71.77734375,-195.3125
-96.19140625,-59.5703125,-72.75390625,-192.3828125
-83.984375,-70.80078125,-74.21875,-132.32421875
-70.80078125,-63.4765625,-76.171875,-85.44921875
-70.3125,-57.6171875,-73.73046875,-117.1875
-91.796875,-63.96484375,-73.2421875,-187.01171875
-91.796875,-64.453125,-73.73046875,-190.4296875
-66.89453125,-61.03515625,-72.75390625,-123.53515625
-52.24609375,-55.17578125,-75.68359375,-77.63671875
-59.08203125,-52.734375,-74.21875,-111.328125
-78.61328125,-58.59375,-67.87109375,-184.5703125
-93.75,-63.4765625,-72.75390625,-211.42578125
-81.0546875,-55.17578125,-75.1953125,-153.3203125
-56.640625,-45.8984375,-72.265625,-81.0546875
-62.01171875,-45.41015625,-69.82421875,-110.83984375
-88.8671875,-52.734375,-71.2890625,-186.03515625
-96.19140625,-56.15234375,-68.359375,-200.1953125
-80.56640625,-61.03515625,-67.3828125,-145.5078125
-59.5703125,-56.640625,-68.84765625,-61.5234375
-63.96484375,-47.8515625,-72.265625,-65.4296875
-91.796875,-52.734375,-73.73046875,-137.20703125
-100.09765625,-57.6171875,-74.21875,-166.50390625
-82.51953125,-62.98828125,-72.265625,-127.44140625
-53.7109375,-60.05859375,-65.4296875,-40.52734375
-53.22265625,-48.828125,-63.96484375,-25.87890625
-74.70703125,-48.828125,-61.5234375,-90.8203125
-88.37890625,-62.01171875,-59.5703125,-129.8828125
-85.9375,-67.87109375,-62.5,-97.16796875
-62.01171875,-61.03515625,-56.15234375,-11.71875
-54.6875,-57.12890625,-54.6875,4.8828125
-74.21875,-60.05859375,-54.6875,-70.3125
-98.14453125,-64.94140625,-53.22265625,-131.34765625
-88.37890625,-63.96484375,-51.7578125,-109.375
-60.546875,-54.6875,-50.78125,-33.203125
-52.24609375,-56.640625,-55.6640625,-19.53125
-68.359375,-62.98828125,-61.03515625,-84.9609375
-87.40234375,-60.546875,-60.05859375,-141.11328125
-76.171875,-62.98828125,-60.05859375,-122.0703125
-58.59375,-74.21875,-65.91796875,-46.38671875
-53.22265625,-72.75390625,-68.359375,-17.578125
-60.546875,-68.359375,-65.91796875,-77.1484375
-85.44921875,-74.70703125,-66.89453125,-145.99609375
-78.61328125,-75.68359375,-68.359375,-136.23046875
-51.7578125,-75.1953125,-71.2890625,-61.03515625
-54.19921875,-80.56640625,-76.66015625,-23.4375
-74.21875,-81.54296875,-75.68359375,-66.89453125
-99.609375,-83.49609375,-76.171875,-138.671875
-96.6796875,-83.0078125,-78.125,-139.16015625
-74.21875,-76.66015625,-79.58984375,-64.94140625
-67.3828125,-75.68359375,-83.0078125,-23.4375
-73.73046875,-75.1953125,-81.0546875,-73.73046875
-89.84375,-73.73046875,-82.51953125,-151.3671875
-90.8203125,-82.03125,-83.0078125,-169.921875
-66.89453125,-86.9140625,-74.70703125,-104.00390625
-49.8046875,-77.1484375,-73.2421875,-54.6875
-57.12890625,-68.359375,-74.70703125,-135.7421875
-74.70703125,-79.58984375,-79.1015625,-216.796875
-74.21875,-84.47265625,-82.03125,-211.42578125
-66.89453125,-78.125,-81.54296875,-148.4375
-54.19921875,-73.2421875,-79.1015625,-80.078125
-57.6171875,-61.03515625,-74.21875,-89.84375
-84.47265625,-60.05859375,-68.359375,-152.34375
-95.21484375,-71.77734375,-64.94140625,-179.6875
-76.66015625,-75.68359375,-61.5234375,-130.37109375
-59.08203125,-69.82421875,-63.4765625,-59.08203125
-68.84765625,-63.96484375,-67.87109375,-69.3359375
-81.54296875,-64.453125,-63.4765625,-133.7890625
-86.9140625,-69.82421875,-59.08203125,-173.828125
-71.2890625,-70.80078125,-56.640625,-127.9296875
-48.828125,-64.453125,-56.640625,-89.84375
-56.15234375,-61.5234375,-56.640625,-143.06640625
-66.40625,-63.4765625,-51.26953125,-226.5625
-71.2890625,-60.546875,-52.734375,-300.29296875
-70.3125,-66.40625,-61.03515625,-255.37109375
-49.31640625,-66.89453125,-54.6875,-145.5078125
-28.80859375,-51.7578125,-48.828125,-97.16796875
-42.96875,-46.875,-54.6875,-122.0703125
-72.265625,-52.24609375,-57.12890625,-167.96875
-65.91796875,-55.6640625,-57.6171875,-137.20703125
-41.015625,-48.828125,-53.7109375,-47.36328125
-33.69140625,-38.0859375,-53.7109375,-26.85546875
-46.875,-36.62109375,-56.640625,-87.40234375
-70.80078125,-50.29296875,-56.15234375,-150.390625
-65.91796875,-57.6171875,-54.19921875,-133.30078125
-40.52734375,-48.828125,-51.26953125,-41.015625
-38.0859375,-44.921875,-50.78125,-4.8828125
-54.19921875,-48.33984375,-54.19921875,-69.82421875
-80.078125,-56.640625,-54.6875,-137.20703125
-83.984375,-59.08203125,-48.828125,-125.0
-67.3828125,-55.17578125,-47.8515625,-56.640625
-57.12890625,-54.6875,-51.7578125,-21.97265625
-57.12890625,-55.17578125,-55.6640625,-69.82421875
-75.1953125,-57.12890625,-54.19921875,-137.20703125
-75.68359375,-58.59375,-48.828125,-142.578125
-56.15234375,-55.6640625,-50.78125,-77.1484375
-38.57421875,-50.29296875,-46.38671875,-17.578125
-43.9453125,-49.31640625,-44.921875,-60.05859375
-70.3125,-53.7109375,-42.96875,-137.20703125
-65.4296875,-56.640625,-41.50390625,-146.97265625
-51.26953125,-62.98828125,-47.8515625,-84.47265625
-42.48046875,-62.01171875,-46.875,-17.08984375
-36.1328125,-52.24609375,-42.96875,-42.96875
-56.15234375,-54.6875,-47.36328125,-118.1640625
-69.3359375,-62.98828125,-51.7578125,-135.25390625
-52.24609375,-59.5703125,-51.26953125,-80.56640625
-34.66796875,-52.734375,-54.6875,-13.18359375
-42.48046875,-51.26953125,-52.734375,-29.78515625
-66.89453125,-51.26953125,-44.921875,-108.88671875
-75.1953125,-46.875,-42.96875,-137.20703125
-63.4765625,-52.734375,-49.8046875,-94.23828125
-48.33984375,-58.59375,-58.59375,-25.87890625
-44.921875,-46.875,-58.10546875,-24.90234375
-66.89453125,-47.8515625,-56.15234375,-105.46875
-82.51953125,-62.01171875,-59.5703125,-151.3671875
-64.453125,-56.15234375,-61.03515625,-104.4921875
-33.203125,-46.875,-55.17578125,-20.5078125
-36.62109375,-47.36328125,-54.6875,-17.578125
-68.84765625,-48.33984375,-57.6171875,-95.21484375
-90.8203125,-60.05859375,-60.05859375,-138.671875
-75.68359375,-67.3828125,-55.17578125,-101.07421875
-48.33984375,-54.19921875,-50.29296875,-29.296875
-48.33984375,-52.734375,-52.734375,-14.6484375
-69.3359375,-67.3828125,-58.10546875,-76.171875
-81.54296875,-72.265625,-60.05859375,-134.27734375
-71.2890625,-68.84765625,-60.05859375,-114.74609375
-56.15234375,-62.98828125,-55.17578125,-35.15625
-54.6875,-58.59375,-55.6640625,-7.32421875
-71.2890625,-65.91796875,-56.15234375,-70.80078125
-83.984375,-69.3359375,-55.6640625,-127.9296875
-65.4296875,-64.453125,-58.59375,-115.72265625
-38.57421875,-59.5703125,-59.08203125,-46.875
-32.71484375,-57.12890625,-60.546875,-20.01953125
-41.9921875,-50.78125,-60.05859375,-68.359375
-63.96484375,-57.12890625,-62.98828125,-122.55859375
-62.98828125,-67.87109375,-61.03515625,-122.55859375
-37.109375,-61.5234375,-54.6875,-43.9453125
-33.203125,-62.5,-60.05859375,14.6484375
-52.734375,-66.40625,-68.359375,-22.94921875
-73.73046875,-67.3828125,-67.87109375,-83.0078125
-72.75390625,-70.80078125,-65.4296875,-82.51953125
-52.24609375,-70.3125,-65.4296875,-20.5078125
-42.96875,-65.91796875,-65.91796875,35.15625
-55.17578125,-65.91796875,-66.40625,-1.46484375
-78.125,-75.1953125,-68.84765625,-79.58984375
-81.54296875,-77.63671875,-70.3125,-84.9609375
-74.70703125,-80.56640625,-73.73046875,-41.015625
-60.546875,-80.56640625,-74.70703125,11.23046875
-60.05859375,-75.1953125,-71.2890625,-16.11328125
-87.890625,-80.078125,-71.77734375,-102.5390625
-90.33203125,-84.47265625,-77.1484375,-129.39453125
-72.75390625,-87.40234375,-82.51953125,-81.54296875
-62.01171875,-90.33203125,-86.9140625,-25.390625
-69.82421875,-85.44921875,-90.33203125,-51.26953125
-91.796875,-80.56640625,-94.7265625,-129.8828125
-101.5625,-77.63671875,-95.703125,-197.265625
-84.9609375,-82.51953125,-93.75,-179.19921875
-62.5,-81.54296875,-92.28515625,-79.1015625
-69.3359375,-74.21875,-92.28515625,-73.73046875
-94.7265625,-83.984375,-89.35546875,-154.296875
-115.72265625,-99.609375,-90.8203125,-186.5234375
-107.421875,-103.02734375,-94.23828125,-146.484375
-83.0078125,-98.14453125,-91.796875,-62.98828125
-79.58984375,-94.7265625,-91.30859375,-103.02734375
-97.16796875,-92.28515625,-91.796875,-250.0
-118.65234375,-97.65625,-91.796875,-282.71484375
-116.69921875,-105.46875,-93.26171875,-244.140625
-93.75,-101.07421875,-88.37890625,-178.7109375
-83.49609375,-97.65625,-88.37890625,-152.34375
-95.703125,-89.84375,-93.26171875,-195.3125
-116.2109375,-87.890625,-93.26171875,-224.12109375
-112.3046875,-95.703125,-94.23828125,-188.96484375
-86.42578125,-89.84375,-95.21484375,-112.3046875
-84.47265625,-91.30859375,-102.05078125,-78.125
-100.5859375,-96.6796875,-99.12109375,-123.046875
-118.1640625,-99.12109375,-97.16796875,-186.5234375
-115.72265625,-104.4921875,-108.88671875,-176.26953125
-94.23828125,-107.421875,-110.3515625,-90.33203125
-87.40234375,-102.5390625,-104.98046875,-59.08203125
-96.6796875,-103.02734375,-102.5390625,-125.48828125
-125.48828125,-113.28125,-95.21484375,-207.51953125
-129.8828125,-107.91015625,-92.7734375,-217.28515625
-107.421875,-105.46875,-101.5625,-144.53125
-89.35546875,-104.98046875,-102.5390625,-92.28515625
-96.19140625,-101.07421875,-93.75,-134.765625
-130.859375,-104.98046875,-91.30859375,-205.078125
-136.23046875,-112.3046875,-85.44921875,-234.86328125
-106.93359375,-109.86328125,-81.0546875,-181.15234375
-84.9609375,-103.02734375,-81.0546875,-94.23828125
-104.4921875,-104.4921875,-85.9375,-119.140625
-126.953125,-103.02734375,-87.890625,-191.89453125
-138.671875,-104.00390625,-84.47265625,-202.63671875
-122.0703125,-107.91015625,-83.49609375,-140.13671875
-127.9296875,-93.26171875,-78.61328125,-61.5234375
-168.45703125,-86.9140625,-79.58984375,-102.05078125
-159.66796875,-100.5859375,-74.21875,-193.359375
-134.765625,-105.46875,-65.4296875,-202.1484375
-114.74609375,-95.21484375,-66.40625,-159.66796875
-115.234375,-82.51953125,-70.80078125,-108.88671875
-121.09375,-79.1015625,-69.82421875,-130.37109375
-120.1171875,-75.1953125,-65.91796875,-208.0078125
-126.46484375,-76.171875,-70.80078125,-237.3046875
-122.55859375,-67.87109375,-66.40625,-192.87109375
-96.6796875,-58.59375,-62.98828125,-110.83984375
-95.703125,-62.98828125,-66.40625,-108.3984375
-121.09375,-58.59375,-69.3359375,-177.24609375
-143.5546875,-52.734375,-69.82421875,-228.02734375
-115.234375,-40.0390625,-71.77734375,-209.47265625
-83.984375,-48.828125,-81.0546875,-131.8359375
-78.125,-64.453125,-85.44921875,-109.86328125
-88.8671875,-44.43359375,-75.68359375,-181.15234375
-123.046875,-39.0625,-74.21875,-236.81640625
-113.76953125,-25.87890625,-67.87109375,-199.21875
-83.0078125,9.27734375,-54.19921875,-104.4921875
-82.51953125,19.04296875,-52.734375,-70.3125
-83.984375,23.92578125,-64.94140625,-127.9296875
-69.3359375,1.953125,-82.51953125,-178.22265625
-28.80859375,-33.203125,-54.6875,-119.140625
-9.27734375,-1.46484375,-43.45703125,-17.08984375
-7.8125,19.53125,-67.87109375,8.30078125
0.9765625,17.578125,-65.91796875,-43.9453125
3.90625,38.0859375,-70.3125,-109.86328125
17.578125,40.0390625,-73.73046875,-101.5625
39.55078125,7.8125,-62.98828125,-1.953125
83.984375,-7.8125,-47.8515625,64.94140625
85.44921875,23.4375,-41.9921875,25.390625
14.16015625,33.203125,-36.62109375,-30.76171875
20.5078125,20.99609375,-34.1796875,-13.671875
64.453125,26.3671875,-40.0390625,81.0546875
75.68359375,51.7578125,-40.52734375,148.4375
71.2890625,49.8046875,-50.78125,116.69921875
62.98828125,9.765625,-53.7109375,34.1796875
76.66015625,22.94921875,-43.9453125,10.7421875
91.30859375,58.59375,-47.36328125,73.2421875
94.23828125,53.7109375,-51.7578125,122.0703125
96.6796875,57.12890625,-44.921875,94.23828125
76.66015625,56.640625,-35.15625,41.50390625
57.6171875,42.48046875,-40.52734375,-2.44140625
71.77734375,33.203125,-46.875,1.46484375
56.640625,28.3203125,-48.33984375,20.99609375
32.71484375,24.4140625,-42.96875,-36.62109375
20.5078125,8.7890625,-55.17578125,-145.99609375
-3.41796875,0.9765625,-62.01171875,-212.890625
-9.27734375,10.25390625,-43.45703125,-185.546875
17.08984375,16.6015625,-38.0859375,-127.9296875
15.13671875,15.625,-40.52734375,-182.12890625
-33.203125,9.765625,-36.62109375,-300.29296875
-26.3671875,11.71875,-33.69140625,-335.44921875
0.0,9.765625,-41.9921875,-339.84375
-0.48828125,-4.39453125,-48.828125,-361.328125
-8.30078125,-6.8359375,-47.8515625,-357.91015625
-29.296875,2.9296875,-47.36328125,-397.4609375
-54.19921875,10.25390625,-50.29296875,-467.7734375
-22.4609375,2.9296875,-40.52734375,-496.09375
-3.90625,-4.8828125,-41.015625,-591.30859375
-19.53125,2.9296875,-41.50390625,-778.80859375
-26.3671875,-14.16015625,-22.4609375,-848.14453125
-55.17578125,-25.87890625,-13.671875,-776.85546875
-59.08203125,-18.06640625,-10.25390625,-759.27734375
-19.04296875,-24.4140625,-10.25390625,-897.94921875
-23.92578125,-35.15625,-5.859375,-1000.0
-65.91796875,-53.22265625,-6.34765625,-1000.0
-75.1953125,-58.10546875,-9.765625,-994.62890625
-60.05859375,-51.7578125,-3.90625,-1000.0
-59.5703125,-53.22265625,-11.23046875,-988.76953125
-43.9453125,-47.8515625,-19.53125,-840.33203125
-44.43359375,-44.43359375,-20.99609375,-620.1171875
-80.56640625,-43.45703125,-20.99609375,-440.4296875
-62.98828125,-38.57421875,-13.671875,-312.5
-17.578125,-23.4375,-4.8828125,-142.08984375
1.46484375,-4.8828125,-7.32421875,8.7890625
-6.34765625,6.8359375,-13.18359375,20.99609375
-29.296875,17.08984375,-10.25390625,-12.20703125
-44.921875,20.01953125,-16.11328125,-5.37109375
3.90625,25.390625,-25.390625,77.1484375
28.3203125,31.25,-23.4375,165.0390625
-0.48828125,26.85546875,-15.625,156.73828125
-17.578125,32.2265625,-12.20703125,102.5390625
-26.3671875,33.203125,-11.23046875,85.9375
12.6953125,32.2265625,-12.20703125,129.8828125
55.6640625,38.0859375,-7.32421875,214.35546875
44.921875,33.203125,-11.23046875,223.14453125
8.7890625,25.390625,-9.27734375,164.0625
-28.3203125,29.296875,1.953125,156.25
-2.9296875,41.015625,-5.37109375,217.7734375
39.0625,43.9453125,-10.7421875,311.5234375
32.2265625,45.8984375,-2.9296875,343.26171875
-4.8828125,39.55078125,0.0,297.8515625
-31.25,36.1328125,0.48828125,292.48046875
21.97265625,51.26953125,5.859375,358.3984375
58.10546875,52.734375,19.53125,475.09765625
43.9453125,49.8046875,29.296875,514.16015625
-2.9296875,45.41015625,27.34375,449.21875
-22.94921875,38.0859375,26.3671875,412.59765625
13.18359375,41.9921875,32.71484375,475.5859375
61.03515625,53.22265625,32.2265625,572.265625
46.38671875,50.78125,32.71484375,609.375
-17.578125,42.96875,39.0625,562.5
-17.578125,40.52734375,35.64453125,509.765625
-2.9296875,41.50390625,33.203125,545.8984375
26.85546875,53.22265625,40.0390625,639.16015625
67.3828125,67.3828125,43.45703125,670.8984375
21.97265625,63.4765625,44.921875,612.79296875
-19.53125,48.828125,42.96875,530.2734375
8.30078125,45.41015625,38.0859375,512.20703125
32.71484375,48.828125,37.59765625,573.2421875
36.1328125,48.828125,32.71484375,614.74609375
44.43359375,43.45703125,24.90234375,546.38671875
-2.44140625,24.90234375,19.53125,437.5
-20.5078125,20.99609375,15.625,399.90234375
21.97265625,27.83203125,17.578125,440.91796875
20.01953125,27.34375,14.16015625,458.49609375
3.90625,31.25,9.765625,371.09375
-47.36328125,22.94921875,-0.9765625,237.3046875
-49.8046875,6.8359375,-14.6484375,170.41015625
-5.37109375,2.9296875,-16.6015625,212.890625
10.25390625,7.8125,-14.6484375,267.578125
-12.6953125,5.859375,-15.625,212.40234375
-58.10546875,-5.37109375,-16.6015625,99.12109375
-46.875,-20.5078125,-16.11328125,52.24609375
-13.671875,-24.4140625,-20.99609375,78.125
-7.8125,-23.4375,-20.01953125,123.046875
-16.11328125,-23.4375,-18.5546875,81.54296875
-48.33984375,-25.87890625,-23.4375,-22.94921875
-63.96484375,-31.25,-29.296875,-72.75390625
-26.85546875,-27.34375,-26.3671875,-27.34375
2.9296875,-27.83203125,-30.2734375,55.6640625
-8.7890625,-29.296875,-39.0625,45.8984375
-64.453125,-41.015625,-39.0625,-60.05859375
-67.3828125,-44.921875,-37.109375,-140.13671875
-42.96875,-40.0390625,-36.62109375,-105.95703125
-21.484375,-44.43359375,-39.55078125,-9.27734375
-1.953125,-48.828125,-37.109375,10.7421875
-37.59765625,-52.24609375,-36.1328125,-60.05859375
-47.8515625,-51.7578125,-44.43359375,-142.08984375
-28.80859375,-55.6640625,-51.7578125,-129.8828125
-25.390625,-51.26953125,-49.31640625,-14.16015625
-19.53125,-40.0390625,-41.50390625,44.43359375
-41.015625,-39.55078125,-41.50390625,-27.83203125
-49.8046875,-48.33984375,-48.33984375,-123.046875
-19.04296875,-46.875,-45.8984375,-110.83984375
8.30078125,-40.0390625,-38.57421875,5.37109375
12.6953125,-35.64453125,-35.15625,66.40625
-10.7421875,-33.203125,-36.62109375,-10.7421875
-42.48046875,-36.1328125,-39.0625,-108.88671875
-25.87890625,-40.52734375,-37.59765625,-107.421875
1.46484375,-47.36328125,-28.80859375,-6.34765625
8.7890625,-48.33984375,-25.390625,54.6875
-5.37109375,-48.33984375,-29.296875,-8.7890625
-41.50390625,-55.17578125,-36.1328125,-103.02734375
-53.22265625,-56.640625,-38.57421875,-117.1875
-18.06640625,-57.12890625,-38.57421875,-39.0625
-6.34765625,-58.10546875,-39.0625,41.9921875
-36.1328125,-58.10546875,-40.52734375,9.27734375
-49.31640625,-53.7109375,-42.96875,-96.6796875
-53.22265625,-47.8515625,-39.0625,-124.51171875
-24.4140625,-36.62109375,-29.78515625,-28.3203125
6.34765625,-28.3203125,-27.83203125,62.98828125
-4.39453125,-32.2265625,-34.1796875,32.2265625
-40.52734375,-45.8984375,-38.57421875,-63.96484375
-62.5,-57.6171875,-37.109375,-121.58203125
-55.17578125,-54.6875,-33.203125,-59.08203125
-19.53125,-45.8984375,-36.1328125,45.41015625
-42.48046875,-54.19921875,-42.96875,34.1796875
-82.51953125,-62.5,-49.8046875,-70.80078125
-66.40625,-63.96484375,-50.78125,-128.41796875
-36.1328125,-58.10546875,-45.8984375,-76.66015625
-20.5078125,-43.45703125,-41.50390625,34.66796875
-33.203125,-44.43359375,-34.66796875,59.08203125
-54.19921875,-53.7109375,-33.203125,-33.69140625
-48.33984375,-51.7578125,-37.59765625,-107.91015625
-33.203125,-54.19921875,-36.1328125,-74.70703125
-1.953125,-50.78125,-29.78515625,38.57421875
-1.953125,-38.0859375,-28.3203125,72.265625
-44.921875,-46.38671875,-38.0859375,-19.04296875
-57.6171875,-67.87109375,-46.875,-104.4921875
-44.921875,-71.2890625,-47.8515625,-83.49609375
-6.34765625,-57.12890625,-43.9453125,19.53125
3.41796875,-42.96875,-37.109375,77.63671875
-36.1328125,-50.78125,-39.0625,1.46484375
-65.4296875,-63.96484375,-43.9453125,-110.3515625
-51.7578125,-59.08203125,-42.96875,-96.19140625
7.32421875,-49.8046875,-41.50390625,19.04296875
3.90625,-47.36328125,-33.203125,85.9375
-41.50390625,-43.45703125,-29.78515625,26.85546875
-70.80078125,-49.31640625,-38.0859375,-65.91796875
-71.77734375,-59.5703125,-46.875,-74.21875
-33.203125,-55.6640625,-46.875,20.5078125
-33.203125,-49.31640625,-40.0390625,103.02734375
-45.8984375,-46.38671875,-37.109375,38.57421875
-73.73046875,-51.26953125,-40.0390625,-78.61328125
-90.33203125,-56.15234375,-39.55078125,-87.40234375
-37.59765625,-50.78125,-39.0625,-5.859375
-17.578125,-51.7578125,-38.0859375,67.87109375
-63.96484375,-54.6875,-32.71484375,24.90234375
-86.42578125,-57.12890625,-34.1796875,-84.9609375
-57.12890625,-71.2890625,-43.45703125,-119.140625
-36.62109375,-62.5,-52.24609375,-43.45703125
-31.25,-32.71484375,-47.8515625,46.875
-51.7578125,-37.59765625,-45.8984375,17.08984375
-66.89453125,-53.22265625,-51.26953125,-84.47265625
-42.96875,-51.26953125,-50.78125,-117.1875
-36.1328125,-48.828125,-51.7578125,-56.15234375
-35.64453125,-46.38671875,-57.12890625,17.08984375
-35.64453125,-43.9453125,-53.7109375,11.23046875
-69.3359375,-50.29296875,-53.7109375,-85.44921875
-83.984375,-52.734375,-65.91796875,-158.69140625
-49.8046875,-48.33984375,-66.89453125,-92.7734375
-37.59765625,-51.26953125,-56.15234375,22.94921875
-48.828125,-41.9921875,-51.26953125,27.34375
-75.68359375,-45.41015625,-52.734375,-52.734375
-78.125,-65.4296875,-58.59375,-112.79296875
-47.36328125,-59.5703125,-59.08203125,-68.84765625
-21.97265625,-51.7578125,-51.7578125,43.45703125
-44.43359375,-52.734375,-45.41015625,63.4765625
-56.15234375,-51.26953125,-49.8046875,-26.85546875
-56.15234375,-48.828125,-53.22265625,-95.703125
-58.59375,-49.8046875,-50.29296875,-71.77734375
-29.78515625,-43.9453125,-44.921875,23.92578125
-50.29296875,-38.57421875,-43.45703125,67.3828125
-82.51953125,-48.33984375,-45.41015625,-13.671875
-74.70703125,-50.29296875,-46.875,-106.93359375
-65.4296875,-49.31640625,-49.31640625,-104.98046875
-52.734375,-56.640625,-45.8984375,-7.8125
-39.0625,-52.24609375,-37.109375,44.921875
-78.61328125,-41.50390625,-36.62109375,-25.390625
-108.3984375,-43.45703125,-44.921875,-120.1171875
-73.2421875,-49.31640625,-44.921875,-111.81640625
-28.80859375,-51.26953125,-42.96875,-12.6953125
-32.71484375,-48.33984375,-43.9453125,44.43359375
-59.5703125,-45.41015625,-39.0625,-10.7421875
-82.51953125,-51.26953125,-40.52734375,-105.46875
-50.29296875,-44.921875,-46.875,-115.234375
1.46484375,-33.69140625,-45.8984375,-17.08984375
6.34765625,-36.1328125,-45.8984375,61.03515625
-16.11328125,-45.8984375,-42.96875,18.06640625
-76.66015625,-51.26953125,-40.0390625,-81.0546875
-77.1484375,-51.7578125,-47.36328125,-118.1640625
-31.25,-48.828125,-45.8984375,-25.87890625
-22.4609375,-45.8984375,-33.203125,66.89453125
-44.921875,-49.8046875,-30.2734375,34.1796875
-77.1484375,-53.7109375,-32.71484375,-63.96484375
-62.98828125,-47.36328125,-36.1328125,-102.05078125
-22.4609375,-48.828125,-41.9921875,-37.109375
-8.7890625,-47.36328125,-37.59765625,66.89453125
-19.04296875,-37.109375,-33.69140625,49.8046875
-58.10546875,-44.43359375,-41.50390625,-63.96484375
-78.61328125,-52.734375,-43.9453125,-106.93359375
-46.38671875,-46.875,-41.50390625,-41.50390625
-19.04296875,-36.62109375,-41.50390625,56.15234375
-11.23046875,-29.296875,-36.62109375,55.6640625
-47.36328125,-40.0390625,-37.109375,-45.8984375
-68.84765625,-46.875,-41.50390625,-104.00390625
-33.203125,-40.52734375,-46.38671875,-54.19921875
10.25390625,-35.64453125,-41.50390625,40.0390625
-0.48828125,-34.1796875,-40.0390625,51.26953125
-63.4765625,-38.0859375,-45.41015625,-35.64453125
-66.89453125,-32.71484375,-46.38671875,-108.3984375
-18.5546875,-25.390625,-48.828125,-72.75390625
-10.25390625,-36.1328125,-44.921875,35.15625
-40.52734375,-34.66796875,-39.55078125,68.359375
-55.6640625,-38.57421875,-40.52734375,-12.6953125
-56.15234375,-50.29296875,-46.38671875,-107.421875
-45.8984375,-45.41015625,-48.33984375,-87.40234375
-7.8125,-46.875,-41.50390625,33.69140625
-22.4609375,-45.8984375,-33.69140625,75.68359375
-75.1953125,-46.38671875,-36.1328125,-13.671875
-74.21875,-52.734375,-42.48046875,-107.91015625
-48.33984375,-54.6875,-50.29296875,-105.95703125
-35.64453125,-51.7578125,-47.8515625,5.859375
-40.0390625,-52.24609375,-50.29296875,66.40625
-59.08203125,-55.17578125,-63.4765625,-9.765625
-62.01171875,-42.96875,-57.12890625,-107.421875
-54.19921875,-48.33984375,-46.875,-113.76953125
-37.59765625,-50.78125,-46.875,-9.27734375
-20.01953125,-36.1328125,-49.31640625,57.12890625
-45.8984375,-41.50390625,-50.78125,-1.953125
-86.9140625,-45.41015625,-52.24609375,-101.5625
-55.6640625,-44.43359375,-54.19921875,-122.0703125
-7.8125,-47.36328125,-52.734375,-29.78515625
-22.94921875,-49.8046875,-50.29296875,56.15234375
-57.6171875,-49.31640625,-49.8046875,19.04296875
-80.56640625,-39.55078125,-44.921875,-83.984375
-77.1484375,-43.45703125,-45.41015625,-118.65234375
-20.99609375,-41.9921875,-51.7578125,-41.9921875
-11.71875,-30.76171875,-50.78125,43.45703125
-56.640625,-29.78515625,-46.875,17.08984375
-83.49609375,-43.45703125,-49.31640625,-83.984375
-73.2421875,-55.6640625,-56.640625,-128.90625
-33.69140625,-44.43359375,-55.6640625,-60.546875
-15.13671875,-34.66796875,-49.31640625,40.0390625
-25.390625,-28.80859375,-52.734375,38.57421875
-56.15234375,-29.78515625,-55.6640625,-63.4765625
-54.6875,-33.203125,-54.6875,-121.58203125
-25.87890625,-44.43359375,-49.8046875,-62.98828125
-6.34765625,-41.015625,-44.921875,28.3203125
-27.34375,-35.64453125,-46.875,27.83203125
-66.89453125,-46.875,-49.31640625,-60.05859375
-70.3125,-51.26953125,-51.7578125,-120.60546875
-38.0859375,-46.875,-58.10546875,-74.21875
-28.80859375,-44.43359375,-55.6640625,26.3671875
-48.33984375,-47.36328125,-46.38671875,45.41015625
-67.87109375,-47.8515625,-46.875,-29.78515625
-74.70703125,-48.33984375,-53.22265625,-117.1875
-65.91796875,-48.828125,-51.7578125,-104.98046875
-30.2734375,-33.69140625,-46.38671875,8.30078125
-22.94921875,-28.80859375,-39.55078125,53.7109375
-68.84765625,-45.41015625,-37.59765625,-28.3203125
-86.42578125,-62.5,-45.41015625,-125.0
-45.41015625,-59.08203125,-49.31640625,-105.46875
-21.97265625,-46.38671875,-45.41015625,1.46484375
-40.52734375,-41.9921875,-41.015625,50.29296875
-62.98828125,-41.9921875,-40.0390625,-19.04296875
-77.63671875,-45.8984375,-42.48046875,-109.375
-67.3828125,-48.33984375,-46.38671875,-106.4453125
-43.45703125,-42.96875,-39.0625,-6.8359375
-36.62109375,-42.96875,-32.2265625,53.22265625
-66.40625,-54.6875,-38.0859375,-3.41796875
-89.84375,-59.5703125,-42.48046875,-100.09765625
-65.91796875,-62.01171875,-40.52734375,-112.3046875
-35.15625,-54.19921875,-39.0625,-13.18359375
-17.08984375,-41.9921875,-41.015625,62.5
-38.0859375,-44.43359375,-37.59765625,5.37109375
-94.7265625,-50.78125,-39.0625,-98.6328125
-84.47265625,-48.828125,-41.50390625,-116.69921875
-45.8984375,-41.9921875,-40.0390625,-33.69140625
-36.1328125,-42.48046875,-41.50390625,43.45703125
-58.59375,-43.45703125,-38.57421875,11.71875
-101.07421875,-53.22265625,-33.69140625,-81.54296875
-94.23828125,-54.19921875,-34.66796875,-108.88671875
-52.734375,-51.26953125,-41.9921875,-41.015625
-35.64453125,-56.15234375,-43.45703125,50.78125
-40.52734375,-44.921875,-38.57421875,31.73828125
-75.1953125,-51.26953125,-37.59765625,-74.70703125
-71.2890625,-55.17578125,-43.45703125,-123.046875
-47.36328125,-50.78125,-44.921875,-67.3828125
-37.109375,-46.38671875,-37.59765625,25.87890625
-33.203125,-32.71484375,-42.96875,23.92578125
-76.66015625,-40.52734375,-52.734375,-72.75390625
-80.078125,-46.875,-52.734375,-127.44140625
-36.62109375,-45.41015625,-48.828125,-77.63671875
-13.18359375,-34.66796875,-38.57421875,32.71484375
-30.76171875,-32.71484375,-32.2265625,51.26953125
-78.125,-49.8046875,-37.59765625,-43.9453125
-80.078125,-55.6640625,-39.0625,-116.2109375
-45.41015625,-51.7578125,-37.109375,-79.1015625
-8.30078125,-41.9921875,-41.015625,17.08984375
-17.08984375,-29.78515625,-40.52734375,40.52734375
-62.98828125,-37.59765625,-39.55078125,-36.1328125
-65.91796875,-48.33984375,-43.45703125,-114.74609375
-38.0859375,-45.41015625,-49.8046875,-92.28515625
5.859375,-41.9921875,-46.875,11.23046875
3.41796875,-40.52734375,-38.57421875,61.5234375
-34.1796875,-38.0859375,-43.45703125,-9.27734375
-37.109375,-41.50390625,-46.875,-104.00390625
-35.64453125,-51.26953125,-37.59765625,-94.7265625
-14.16015625,-43.45703125,-31.73828125,12.6953125
-16.11328125,-38.0859375,-39.0625,58.59375
-75.1953125,-45.41015625,-45.41015625,-19.53125
-92.28515625,-49.8046875,-45.8984375,-115.72265625
-62.98828125,-51.7578125,-47.8515625,-115.72265625
-28.3203125,-39.55078125,-44.921875,-10.25390625
-8.7890625,-28.3203125,-41.015625,60.05859375
-39.55078125,-40.0390625,-36.62109375,-0.48828125
-76.171875,-44.43359375,-40.0390625,-101.5625
-53.22265625,-41.50390625,-43.9453125,-110.3515625
-22.4609375,-42.96875,-41.9921875,-20.01953125
-30.2734375,-41.50390625,-40.52734375,54.19921875
-54.6875,-41.015625,-41.9921875,8.30078125
-96.6796875,-49.31640625,-49.8046875,-93.75
-82.51953125,-49.8046875,-50.29296875,-117.1875
-38.57421875,-43.45703125,-42.48046875,-34.1796875
-27.34375,-39.55078125,-37.109375,51.26953125
-42.48046875,-39.0625,-38.0859375,19.53125
-67.3828125,-42.96875,-44.921875,-81.54296875
-66.40625,-46.875,-46.875,-124.0234375
-47.8515625,-45.8984375,-38.57421875,-54.19921875
-23.92578125,-44.921875,-40.0390625,37.59765625
-42.96875,-42.48046875,-51.26953125,26.85546875
-79.58984375,-42.96875,-51.26953125,-66.40625
-70.80078125,-50.29296875,-46.875,-114.2578125
-48.828125,-48.33984375,-41.9921875,-54.6875
-22.94921875,-34.66796875,-30.2734375,44.43359375
-39.55078125,-36.1328125,-28.3203125,45.8984375
-83.49609375,-45.41015625,-36.62109375,-55.6640625
-78.125,-47.36328125,-37.59765625,-120.60546875
-49.8046875,-43.9453125,-35.64453125,-71.2890625
-26.85546875,-38.0859375,-32.71484375,33.69140625
-32.71484375,-44.43359375,-32.2265625,48.828125
-65.4296875,-49.8046875,-41.50390625,-40.0390625
-72.75390625,-50.78125,-41.50390625,-106.4453125
-51.26953125,-53.22265625,-39.55078125,-75.1953125
-28.80859375,-44.921875,-43.9453125,16.6015625
-30.2734375,-42.96875,-43.45703125,43.9453125
-57.12890625,-51.26953125,-44.43359375,-31.25
-77.1484375,-50.78125,-49.8046875,-111.328125
-56.640625,-44.921875,-44.43359375,-88.8671875
-20.5078125,-41.50390625,-36.1328125,17.578125
-17.08984375,-38.57421875,-35.15625,60.05859375
-51.7578125,-35.15625,-38.0859375,-11.71875
-64.453125,-36.1328125,-42.96875,-99.609375
-47.8515625,-41.015625,-47.36328125,-90.33203125
-17.578125,-38.0859375,-46.38671875,2.9296875
-20.99609375,-39.55078125,-42.48046875,57.6171875
-67.87109375,-41.50390625,-38.0859375,1.953125
-86.42578125,-47.8515625,-39.55078125,-92.7734375
-60.05859375,-46.875,-43.45703125,-104.4921875
-14.16015625,-38.0859375,-41.50390625,-10.7421875
-8.7890625,-41.015625,-43.45703125,53.22265625
-37.109375,-39.55078125,-50.78125,-8.30078125
-83.0078125,-44.43359375,-55.17578125,-108.88671875
-69.82421875,-50.78125,-51.7578125,-125.9765625
-33.69140625,-45.8984375,-56.640625,-42.48046875
-24.4140625,-31.25,-60.05859375,41.9921875
-42.96875,-28.80859375,-55.17578125,6.34765625
-87.890625,-45.41015625,-57.6171875,-101.07421875
-71.2890625,-47.8515625,-60.05859375,-129.39453125
-29.78515625,-39.0625,-49.8046875,-39.0625
-23.4375,-31.73828125,-44.43359375,56.15234375
-43.9453125,-34.1796875,-48.828125,28.80859375
-88.37890625,-49.8046875,-52.734375,-78.61328125
-73.73046875,-56.640625,-58.59375,-125.9765625
-36.62109375,-50.78125,-60.05859375,-55.17578125
-30.2734375,-44.43359375,-57.12890625,34.66796875
-44.43359375,-45.8984375,-55.17578125,27.34375
-71.77734375,-45.41015625,-56.15234375,-63.4765625
-71.2890625,-47.36328125,-56.640625,-122.55859375
-52.734375,-53.7109375,-63.96484375,-79.58984375
-37.109375,-52.24609375,-61.03515625,23.92578125
-50.78125,-47.36328125,-47.8515625,39.0625
-75.1953125,-48.33984375,-48.33984375,-55.6640625
-75.1953125,-48.33984375,-54.6875,-120.60546875
-49.8046875,-43.45703125,-48.33984375,-78.125
-12.20703125,-45.41015625,-44.921875,24.90234375
-36.1328125,-46.38671875,-48.828125,39.55078125
-74.21875,-47.36328125,-49.8046875,-48.828125
-81.54296875,-48.828125,-45.41015625,-112.79296875
-66.89453125,-43.45703125,-41.50390625,-81.0546875
-33.69140625,-37.109375,-42.48046875,16.6015625
-44.921875,-52.24609375,-45.41015625,44.921875
-77.1484375,-64.94140625,-46.38671875,-33.69140625
-90.8203125,-62.5,-45.8984375,-109.86328125
-73.73046875,-58.10546875,-40.52734375,-97.16796875
-41.50390625,-50.29296875,-38.0859375,1.46484375
-27.83203125,-51.26953125,-40.0390625,54.6875
-73.2421875,-60.546875,-35.64453125,-6.8359375
-99.12109375,-59.08203125,-45.8984375,-105.95703125
-60.546875,-51.7578125,-44.43359375,-106.4453125
-32.2265625,-43.9453125,-34.1796875,-6.8359375
-26.3671875,-37.59765625,-42.48046875,52.734375
-51.7578125,-42.96875,-45.8984375,-4.8828125
-67.3828125,-48.828125,-42.48046875,-103.515625
-51.7578125,-41.50390625,-42.48046875,-112.79296875
-28.80859375,-43.9453125,-46.875,-25.390625
-18.06640625,-43.9453125,-47.36328125,48.33984375
-41.9921875,-36.62109375,-43.45703125,8.30078125
-73.73046875,-40.52734375,-44.43359375,-91.796875
-67.3828125,-49.8046875,-52.24609375,-119.140625
-34.66796875,-45.8984375,-54.19921875,-41.9921875
-19.04296875,-39.55078125,-51.7578125,39.0625
-39.0625,-39.55078125,-54.19921875,7.32421875
-88.8671875,-41.9921875,-62.98828125,-96.6796875
-81.54296875,-49.31640625,-63.4765625,-138.671875
-46.875,-49.8046875,-56.15234375,-62.98828125
-32.71484375,-43.9453125,-53.7109375,26.3671875
-55.6640625,-38.57421875,-46.38671875,4.8828125
-82.51953125,-41.9921875,-47.8515625,-94.7265625
-72.75390625,-43.45703125,-49.8046875,-134.765625
-54.6875,-42.48046875,-46.875,-67.3828125
-35.15625,-46.38671875,-52.24609375,20.99609375
-22.94921875,-37.109375,-48.33984375,23.92578125
-73.73046875,-43.9453125,-54.6875,-63.4765625
-91.30859375,-53.22265625,-62.98828125,-125.0
-57.12890625,-39.0625,-62.5,-79.58984375
-34.66796875,-36.1328125,-59.5703125,24.90234375
-41.9921875,-41.9921875,-47.36328125,34.66796875
-49.8046875,-43.45703125,-52.734375,-65.4296875
-72.75390625,-47.8515625,-59.08203125,-136.71875
-80.078125,-51.26953125,-52.734375,-97.16796875
-28.80859375,-47.36328125,-54.6875,3.41796875
-35.15625,-41.015625,-48.33984375,44.43359375
-71.77734375,-47.36328125,-47.8515625,-39.0625
-82.51953125,-57.12890625,-48.828125,-121.58203125
-73.2421875,-57.6171875,-38.57421875,-91.796875
-36.1328125,-46.38671875,-31.73828125,12.6953125
-28.3203125,-35.64453125,-25.87890625,60.05859375
-62.01171875,-43.9453125,-34.1796875,-10.7421875
-83.0078125,-52.24609375,-44.921875,-101.07421875
-60.546875,-41.9921875,-49.31640625,-104.4921875
-29.296875,-38.0859375,-45.8984375,-6.34765625
-26.85546875,-39.0625,-44.43359375,47.8515625
-53.7109375,-40.0390625,-42.96875,-16.11328125
-78.125,-49.8046875,-41.015625,-107.421875
-66.89453125,-57.6171875,-40.52734375,-109.375
-24.90234375,-49.8046875,-31.73828125,0.48828125
-11.23046875,-41.50390625,-20.5078125,62.98828125
-38.57421875,-40.0390625,-21.484375,1.46484375
-62.98828125,-44.43359375,-26.3671875,-90.8203125
-53.22265625,-49.8046875,-32.2265625,-109.86328125
-33.69140625,-54.6875,-34.66796875,-32.2265625
-26.3671875,-47.8515625,-27.83203125,46.875
-38.57421875,-40.52734375,-26.85546875,16.6015625
-74.21875,-50.78125,-32.71484375,-82.03125
-74.70703125,-51.7578125,-39.55078125,-120.1171875
-36.1328125,-41.015625,-44.921875,-48.33984375
-18.06640625,-33.69140625,-41.50390625,36.62109375
-43.9453125,-34.66796875,-38.57421875,17.578125
-75.1953125,-41.015625,-44.43359375,-79.58984375
-68.359375,-45.8984375,-53.22265625,-125.9765625
-39.0625,-44.43359375,-51.7578125,-58.10546875
-27.83203125,-40.0390625,-46.875,31.73828125
-44.43359375,-41.015625,-47.36328125,24.90234375
-80.078125,-42.96875,-51.26953125,-67.87109375
-70.3125,-41.9921875,-55.6640625,-118.65234375
-31.73828125,-40.52734375,-53.7109375,-68.359375
-17.08984375,-37.59765625,-44.921875,29.296875
-33.203125,-42.48046875,-44.43359375,35.64453125
-52.24609375,-52.24609375,-48.33984375,-72.75390625
-67.3828125,-51.26953125,-49.31640625,-137.20703125
-63.96484375,-44.921875,-46.875,-86.42578125
-34.66796875,-35.64453125,-36.62109375,20.01953125
-32.71484375,-23.4375,-32.71484375,50.29296875
-55.17578125,-31.25,-35.64453125,-29.78515625
-67.3828125,-52.24609375,-40.52734375,-116.2109375
-40.52734375,-50.29296875,-41.50390625,-91.796875
-3.90625,-43.45703125,-35.15625,18.06640625
-29.78515625,-41.015625,-35.64453125,56.640625
-73.2421875,-42.48046875,-40.52734375,-26.3671875
-73.73046875,-49.31640625,-44.43359375,-118.65234375
-55.6640625,-51.7578125,-48.33984375,-106.93359375
-32.71484375,-53.7109375,-46.875,-5.37109375
-12.6953125,-40.52734375,-43.9453125,39.0625
-43.9453125,-42.96875,-49.31640625,-33.69140625
-87.40234375,-54.6875,-51.7578125,-116.2109375
-55.6640625,-48.828125,-47.8515625,-117.1875
-18.06640625,-43.9453125,-41.9921875,-37.109375
-26.85546875,-33.203125,-37.59765625,18.5546875
-65.91796875,-37.109375,-40.52734375,-34.66796875
-91.30859375,-47.36328125,-50.78125,-124.51171875
-63.96484375,-44.921875,-52.24609375,-134.27734375
-19.53125,-45.8984375,-51.26953125,-39.0625
-11.71875,-45.8984375,-46.875,42.48046875
-31.25,-38.57421875,-41.9921875,4.39453125
-63.96484375,-40.52734375,-47.36328125,-94.7265625
-62.5,-48.33984375,-49.31640625,-122.55859375
-36.1328125,-39.55078125,-42.48046875,-32.2265625
-36.62109375,-41.9921875,-39.0625,48.33984375
-42.48046875,-53.7109375,-49.8046875,4.39453125
-66.40625,-54.6875,-56.15234375,-93.75
-79.1015625,-51.7578125,-55.6640625,-130.37109375
-43.9453125,-42.48046875,-58.10546875,-58.59375
-28.80859375,-41.015625,-55.17578125,34.1796875
-44.43359375,-43.45703125,-52.734375,15.625
-74.21875,-51.7578125,-49.31640625,-79.1015625
-72.265625,-57.6171875,-51.26953125,-125.0
-45.41015625,-47.36328125,-48.828125,-63.4765625
-34.1796875,-38.0859375,-41.015625,33.69140625
-44.43359375,-35.15625,-45.41015625,32.71484375
-73.73046875,-34.1796875,-54.19921875,-59.08203125
-75.68359375,-43.9453125,-52.24609375,-114.74609375
-47.36328125,-48.33984375,-52.24609375,-67.3828125
-26.3671875,-40.0390625,-53.7109375,30.2734375
-33.69140625,-37.109375,-48.828125,37.59765625
-60.546875,-37.59765625,-52.734375,-52.24609375
-69.82421875,-49.31640625,-56.640625,-119.140625
-48.828125,-54.6875,-53.22265625,-87.890625
-21.484375,-37.109375,-47.8515625,16.6015625
-28.80859375,-27.83203125,-40.0390625,43.45703125
-59.08203125,-32.71484375,-43.45703125,-42.96875
-65.91796875,-33.203125,-46.875,-121.58203125
-46.875,-39.0625,-42.48046875,-96.19140625
-17.578125,-38.0859375,-40.52734375,8.7890625
-17.578125,-29.78515625,-43.9453125,53.22265625
-64.453125,-47.8515625,-44.921875,-23.92578125
-85.9375,-62.5,-45.41015625,-112.3046875
-58.10546875,-48.33984375,-41.9921875,-92.28515625
-34.1796875,-38.57421875,-37.59765625,11.23046875
-21.484375,-34.66796875,-38.57421875,62.01171875
-53.22265625,-37.59765625,-40.0390625,-1.46484375
-86.42578125,-51.26953125,-50.29296875,-104.98046875
-61.5234375,-52.24609375,-52.24609375,-116.69921875
-26.3671875,-47.36328125,-47.8515625,-23.4375
-26.85546875,-47.36328125,-44.921875,38.0859375
-50.78125,-45.8984375,-49.31640625,-14.6484375
-83.0078125,-52.734375,-60.05859375,-113.76953125
-69.3359375,-56.640625,-60.05859375,-128.90625
-23.92578125,-44.921875,-55.6640625,-31.25
-15.13671875,-41.50390625,-50.29296875,52.24609375
-41.50390625,-45.8984375,-52.734375,13.671875
-66.89453125,-48.33984375,-58.59375,-83.984375
-58.10546875,-45.8984375,-60.05859375,-113.76953125
-21.97265625,-36.62109375,-62.01171875,-40.0390625
-9.765625,-33.69140625,-62.98828125,41.50390625
-38.0859375,-41.9921875,-58.59375,19.53125
-59.08203125,-54.19921875,-55.6640625,-79.1015625
-55.6640625,-65.91796875,-58.10546875,-119.62890625
-43.45703125,-60.546875,-58.59375,-52.24609375
-18.5546875,-43.45703125,-51.7578125,39.0625
-27.83203125,-40.52734375,-43.45703125,29.296875
-68.359375,-46.38671875,-51.7578125,-72.75390625
-64.453125,-42.96875,-55.17578125,-125.0
-28.3203125,-36.62109375,-44.43359375,-63.4765625
-18.06640625,-35.64453125,-40.0390625,32.2265625
-40.0390625,-37.59765625,-41.9921875,27.34375
-73.2421875,-44.43359375,-42.48046875,-62.98828125
-71.77734375,-42.48046875,-42.96875,-119.62890625
-41.50390625,-39.55078125,-42.48046875,-74.21875
-18.06640625,-43.9453125,-37.59765625,30.76171875
-27.83203125,-41.9921875,-33.69140625,46.875
-62.01171875,-42.48046875,-30.76171875,-37.59765625
-67.87109375,-43.45703125,-35.64453125,-113.28125
-52.24609375,-43.9453125,-41.015625,-90.8203125
-20.99609375,-37.59765625,-35.15625,15.13671875
-21.97265625,-31.73828125,-34.1796875,43.9453125
-54.6875,-36.1328125,-38.57421875,-40.0390625
-80.078125,-51.7578125,-43.45703125,-122.0703125
-58.59375,-55.6640625,-38.57421875,-99.12109375
-19.04296875,-39.55078125,-27.83203125,12.20703125
-31.25,-40.0390625,-23.92578125,55.17578125
-62.5,-59.08203125,-32.2265625,-22.94921875
-66.40625,-66.40625,-34.1796875,-113.76953125
-58.59375,-65.4296875,-28.80859375,-106.93359375
-37.109375,-57.6171875,-32.71484375,-9.27734375
-25.87890625,-50.78125,-26.85546875,46.38671875
-63.4765625,-56.15234375,-24.4140625,-18.06640625
-85.44921875,-57.12890625,-33.203125,-120.1171875
-62.5,-51.7578125,-32.2265625,-124.51171875
-26.3671875,-42.48046875,-31.73828125,-25.390625
-16.11328125,-36.1328125,-30.2734375,44.921875
-50.78125,-37.59765625,-31.25,0.48828125
-87.40234375,-48.33984375,-40.0390625,-101.5625
-72.75390625,-53.22265625,-41.50390625,-126.46484375
-27.83203125,-41.015625,-40.0390625,-40.52734375
-25.87890625,-40.0390625,-40.0390625,40.52734375
-38.0859375,-45.8984375,-42.96875,3.90625
-66.89453125,-48.828125,-54.6875,-101.07421875
-78.61328125,-54.19921875,-53.22265625,-133.7890625
-50.29296875,-56.640625,-45.41015625,-58.10546875
-38.57421875,-51.26953125,-46.875,25.87890625
-55.6640625,-45.8984375,-43.45703125,9.27734375
-78.125,-44.43359375,-44.43359375,-89.84375
-80.078125,-48.33984375,-50.78125,-139.16015625
-56.640625,-46.875,-45.41015625,-70.80078125
-35.15625,-43.9453125,-39.0625,24.90234375
-50.78125,-45.41015625,-40.0390625,19.53125
-83.49609375,-53.7109375,-40.0390625,-67.3828125
-89.35546875,-62.98828125,-39.0625,-121.58203125
-45.8984375,-53.7109375,-35.64453125,-71.2890625
-29.296875,-46.38671875,-34.66796875,32.71484375
-37.59765625,-38.0859375,-35.64453125,47.36328125
-63.96484375,-41.015625,-41.50390625,-44.43359375
-84.9609375,-50.78125,-43.9453125,-117.67578125
-66.40625,-48.33984375,-41.9921875,-81.54296875
-30.2734375,-35.15625,-41.015625,20.99609375
-37.59765625,-35.15625,-45.41015625,33.69140625
-81.0546875,-47.8515625,-49.8046875,-56.15234375
-86.9140625,-52.24609375,-47.8515625,-131.8359375
-63.4765625,-58.10546875,-48.33984375,-111.328125
-45.8984375,-50.29296875,-51.26953125,-9.27734375
-47.36328125,-38.0859375,-52.734375,31.25
-80.078125,-47.8515625,-55.6640625,-47.36328125
-90.33203125,-51.7578125,-56.640625,-128.41796875
-62.01171875,-41.015625,-51.26953125,-108.3984375
-37.109375,-41.015625,-44.921875,-12.20703125
-41.015625,-42.48046875,-45.41015625,33.69140625
-63.96484375,-42.96875,-51.7578125,-29.296875
-75.68359375,-49.31640625,-52.24609375,-115.72265625
-59.5703125,-49.31640625,-47.8515625,-116.2109375
-21.484375,-41.015625,-45.8984375,-20.5078125
-15.625,-34.66796875,-41.015625,49.8046875
-45.41015625,-36.62109375,-40.0390625,-1.953125
-66.89453125,-49.8046875,-43.9453125,-92.7734375
-56.15234375,-58.59375,-42.48046875,-100.09765625
-18.5546875,-51.26953125,-39.0625,-16.11328125
-9.765625,-40.0390625,-36.1328125,53.7109375
-46.38671875,-39.55078125,-37.59765625,7.8125
-82.03125,-48.33984375,-44.43359375,-96.6796875
-66.89453125,-50.29296875,-45.8984375,-122.0703125
-19.04296875,-37.59765625,-43.45703125,-41.50390625
-12.6953125,-34.66796875,-42.48046875,40.52734375
-57.6171875,-54.6875,-42.96875,8.7890625
-91.796875,-65.4296875,-45.41015625,-91.30859375
-68.359375,-60.546875,-48.33984375,-126.46484375
-24.4140625,-59.08203125,-50.29296875,-55.6640625
-18.06640625,-55.17578125,-49.31640625,28.3203125
-41.015625,-43.9453125,-48.828125,11.23046875
-68.359375,-39.0625,-46.38671875,-82.51953125
-68.359375,-43.45703125,-45.8984375,-138.18359375
-38.0859375,-49.31640625,-50.78125,-88.8671875
-12.20703125,-39.55078125,-49.31640625,12.6953125
-26.3671875,-37.59765625,-47.36328125,20.5078125
-61.03515625,-50.29296875,-50.78125,-70.3125
-68.359375,-52.24609375,-48.828125,-123.53515625
-42.48046875,-48.828125,-44.43359375,-67.87109375
-11.23046875,-48.828125,-41.50390625,28.80859375
-40.0390625,-56.640625,-43.45703125,36.62109375
-88.8671875,-67.3828125,-42.96875,-44.43359375
-70.3125,-62.5,-37.59765625,-106.93359375
-51.7578125,-55.17578125,-40.0390625,-81.54296875
-34.66796875,-51.26953125,-38.0859375,14.6484375
-31.25,-39.0625,-35.64453125,41.50390625
-61.5234375,-27.34375,-41.015625,-41.50390625
-70.80078125,-36.62109375,-48.33984375,-124.51171875
-50.78125,-48.33984375,-51.26953125,-110.3515625
-25.390625,-40.0390625,-50.29296875,-6.8359375
-20.5078125,-36.1328125,-50.29296875,35.15625
-62.98828125,-41.50390625,-52.24609375,-43.45703125
-88.37890625,-46.38671875,-56.640625,-129.39453125
-55.6640625,-47.36328125,-56.640625,-119.62890625
-29.296875,-45.8984375,-49.8046875,-21.97265625
-35.15625,-43.9453125,-49.8046875,29.296875
-66.40625,-47.8515625,-51.7578125,-33.69140625
-78.125,-50.78125,-54.6875,-123.53515625
-48.828125,-42.48046875,-59.5703125,-124.51171875
-23.92578125,-44.921875,-58.10546875,-25.390625
-28.80859375,-50.78125,-47.8515625,38.57421875
-54.19921875,-41.50390625,-44.921875,-18.5546875
-71.2890625,-41.015625,-50.78125,-112.79296875
-49.31640625,-39.55078125,-47.36328125,-121.09375
-30.76171875,-39.0625,-44.43359375,-29.296875
-20.01953125,-39.55078125,-45.41015625,41.50390625
-50.29296875,-41.015625,-45.41015625,-0.48828125
-86.42578125,-43.9453125,-51.26953125,-100.5859375
-78.125,-48.828125,-50.29296875,-130.859375
-47.36328125,-52.734375,-42.48046875,-45.41015625
-23.4375,-38.0859375,-37.109375,50.29296875
-39.55078125,-37.59765625,-41.015625,25.390625
-68.84765625,-54.6875,-46.875,-74.21875
-62.5,-57.12890625,-47.36328125,-115.72265625
-27.34375,-51.7578125,-45.8984375,-50.29296875
-16.6015625,-49.31640625,-49.31640625,37.59765625
-36.1328125,-44.43359375,-51.26953125,23.4375
-67.3828125,-46.875,-47.8515625,-69.82421875
-72.75390625,-49.31640625,-49.31640625,-126.953125
-33.203125,-47.8515625,-48.828125,-73.2421875
-9.27734375,-45.41015625,-50.78125,21.484375
-38.0859375,-40.0390625,-57.6171875,15.625
-80.078125,-35.15625,-64.94140625,-71.77734375
-83.49609375,-41.9921875,-68.359375,-136.23046875
-57.6171875,-53.7109375,-67.3828125,-105.46875
-36.62109375,-48.828125,-61.5234375,0.9765625
-45.41015625,-45.8984375,-53.7109375,28.80859375
-75.1953125,-50.78125,-50.29296875,-56.640625
-81.54296875,-51.7578125,-52.734375,-130.859375
-59.5703125,-57.6171875,-56.15234375,-99.12109375
-34.66796875,-57.6171875,-52.24609375,9.765625
-41.015625,-46.38671875,-46.875,40.52734375
-72.75390625,-49.31640625,-50.29296875,-42.96875
-85.44921875,-61.03515625,-55.17578125,-124.51171875
-62.01171875,-51.7578125,-55.17578125,-105.46875
-18.5546875,-41.9921875,-47.36328125,4.39453125
-32.71484375,-48.828125,-40.0390625,51.7578125
-85.44921875,-60.546875,-45.8984375,-27.83203125
-93.26171875,-67.3828125,-48.33984375,-122.55859375
-65.4296875,-62.01171875,-45.41015625,-120.1171875
-25.87890625,-54.19921875,-41.9921875,-23.4375
-21.97265625,-51.26953125,-36.1328125,40.52734375
-61.03515625,-55.6640625,-39.55078125,-20.01953125
-84.9609375,-59.5703125,-46.875,-118.1640625
-67.3828125,-58.10546875,-45.41015625,-125.48828125
-40.0390625,-52.24609375,-40.52734375,-37.59765625
-40.0390625,-42.48046875,-39.55078125,35.15625
-64.453125,-42.48046875,-41.50390625,-7.32421875
-94.23828125,-58.10546875,-47.36328125,-115.234375
-79.58984375,-66.40625,-48.33984375,-138.671875
-45.8984375,-55.17578125,-47.36328125,-56.15234375
-44.43359375,-43.45703125,-53.22265625,9.27734375
-57.12890625,-44.921875,-58.59375,-23.92578125
-82.03125,-55.6640625,-60.546875,-105.46875
-88.37890625,-62.01171875,-53.7109375,-138.671875
-70.3125,-55.6640625,-51.7578125,-80.56640625
-68.359375,-58.10546875,-52.734375,-4.39453125
-95.703125,-68.84765625,-50.78125,-23.92578125
-123.53515625,-68.84765625,-56.15234375,-124.51171875
-117.67578125,-75.68359375,-60.546875,-178.22265625
-97.65625,-82.03125,-54.19921875,-119.62890625
-92.28515625,-77.1484375,-46.38671875,-33.69140625
-119.62890625,-81.54296875,-48.828125,-55.17578125
-169.921875,-93.75,-53.22265625,-162.109375
-188.4765625,-98.6328125,-56.15234375,-224.609375
-171.38671875,-98.6328125,-61.03515625,-185.05859375
-154.296875,-95.21484375,-52.734375,-94.7265625
-177.24609375,-93.26171875,-38.0859375,-93.75
-231.4453125,-108.88671875,-37.59765625,-205.078125
-242.1875,-117.67578125,-39.55078125,-279.296875
-222.16796875,-103.02734375,-41.015625,-246.58203125
-203.125,-92.7734375,-34.66796875,-146.97265625
-228.02734375,-100.5859375,-30.76171875,-130.859375
-281.73828125,-118.1640625,-39.0625,-236.81640625
-287.109375,-125.0,-41.015625,-305.6640625
-256.8359375,-118.65234375,-42.48046875,-271.484375
-235.3515625,-109.86328125,-44.921875,-179.19921875
-248.53515625,-104.4921875,-41.015625,-147.4609375
-279.78515625,-109.375,-39.0625,-221.6796875
-295.8984375,-120.1171875,-43.45703125,-306.15234375
-268.5546875,-123.53515625,-43.9453125,-291.50390625
-230.95703125,-115.234375,-35.64453125,-187.5
-229.00390625,-104.98046875,-30.2734375,-145.5078125
-248.53515625,-98.14453125,-33.69140625,-210.44921875
-270.99609375,-104.4921875,-36.62109375,-298.33984375
-255.859375,-110.83984375,-34.1796875,-301.7578125
-211.9140625,-102.5390625,-25.87890625,-197.265625
-199.70703125,-93.26171875,-26.3671875,-130.859375
-214.84375,-89.35546875,-38.57421875,-183.10546875
-237.3046875,-96.6796875,-42.96875,-266.6015625
-227.05078125,-99.609375,-39.55078125,-268.06640625
-191.40625,-91.796875,-35.15625,-179.6875
-171.38671875,-89.84375,-27.83203125,-107.421875
-185.546875,-92.7734375,-26.3671875,-150.87890625
-207.51953125,-87.890625,-30.2734375,-231.93359375
-194.82421875,-90.8203125,-31.25,-241.2109375
-160.64453125,-91.796875,-32.2265625,-170.8984375
-145.5078125,-76.66015625,-31.73828125,-102.05078125
-163.0859375,-75.1953125,-32.2265625,-134.27734375
-191.40625,-83.0078125,-36.62109375,-218.26171875
-179.6875,-83.984375,-36.1328125,-234.86328125
-136.71875,-71.2890625,-31.73828125,-156.25
-126.46484375,-60.546875,-36.62109375,-93.75
-144.53125,-62.5,-34.1796875,-118.65234375
-172.8515625,-69.3359375,-32.2265625,-190.4296875
-169.43359375,-70.80078125,-36.1328125,-223.14453125
-130.859375,-60.05859375,-37.59765625,-164.55078125
-108.3984375,-52.734375,-43.9453125,-91.796875
-126.46484375,-60.05859375,-47.36328125,-106.4453125
-161.62109375,-68.84765625,-47.8515625,-185.546875
-151.85546875,-68.359375,-52.734375,-218.75
-120.60546875,-62.98828125,-56.640625,-179.19921875
-95.21484375,-52.24609375,-47.8515625,-99.609375
-108.3984375,-61.5234375,-43.45703125,-102.5390625
-139.6484375,-73.2421875,-48.828125,-187.01171875
-138.671875,-71.2890625,-50.78125,-253.90625
-118.65234375,-71.2890625,-58.59375,-296.38671875
-103.02734375,-77.1484375,-70.3125,-346.19140625
-105.46875,-76.66015625,-72.75390625,-413.0859375
-133.7890625,-85.9375,-61.5234375,-487.79296875
-150.87890625,-98.6328125,-53.22265625,-482.421875
-126.953125,-90.33203125,-49.8046875,-364.74609375
-86.9140625,-76.66015625,-45.8984375,-235.83984375
-88.37890625,-72.265625,-48.828125,-182.12890625
-120.1171875,-68.84765625,-51.7578125,-207.51953125
-139.6484375,-74.70703125,-55.6640625,-233.3984375
-124.0234375,-78.61328125,-57.6171875,-197.75390625
-90.33203125,-69.82421875,-62.01171875,-125.9765625
-85.44921875,-71.2890625,-66.89453125,-101.07421875
-107.91015625,-72.265625,-59.5703125,-138.671875
-132.32421875,-68.84765625,-56.640625,-186.03515625
-122.0703125,-75.68359375,-53.7109375,-176.7578125
-81.0546875,-79.1015625,-50.78125,-90.33203125
-69.3359375,-74.70703125,-52.24609375,-37.59765625
-89.84375,-72.75390625,-55.6640625,-79.58984375
-100.5859375,-71.2890625,-61.5234375,-131.8359375
-76.66015625,-69.3359375,-62.5,-142.578125
-41.9921875,-66.40625,-62.98828125,-122.0703125
-42.48046875,-70.3125,-57.6171875,-125.9765625
-64.453125,-76.171875,-56.640625,-186.03515625
-82.03125,-79.1015625,-58.59375,-251.953125
-70.80078125,-78.125,-58.59375,-266.6015625
-42.48046875,-72.75390625,-61.03515625,-215.33203125
-30.76171875,-68.359375,-61.03515625,-165.52734375
-42.96875,-74.21875,-59.5703125,-185.05859375
-81.0546875,-81.0546875,-60.546875,-241.2109375
-86.9140625,-79.1015625,-59.5703125,-245.1171875
-53.7109375,-70.80078125,-57.6171875,-183.59375
-32.71484375,-64.453125,-57.12890625,-125.48828125
-52.734375,-65.4296875,-63.96484375,-120.60546875
-76.66015625,-70.80078125,-67.3828125,-131.34765625
-72.75390625,-72.265625,-65.91796875,-110.3515625
-68.359375,-73.73046875,-65.91796875,-49.31640625
-59.5703125,-74.21875,-61.5234375,34.66796875
-68.84765625,-70.3125,-51.7578125,62.5
-85.44921875,-70.3125,-56.640625,46.38671875
-89.35546875,-71.77734375,-72.75390625,62.01171875
-80.56640625,-70.3125,-86.9140625,119.62890625
-47.8515625,-64.453125,-94.23828125,198.2421875
-61.03515625,-61.03515625,-93.75,207.03125
-102.05078125,-71.2890625,-89.35546875,159.1796875
-104.00390625,-79.1015625,-86.9140625,131.34765625
-88.37890625,-82.03125,-88.37890625,126.46484375
-66.40625,-85.9375,-91.796875,150.87890625
-70.80078125,-90.33203125,-97.16796875,143.5546875
-102.05078125,-100.5859375,-102.5390625,88.37890625
-119.62890625,-106.4453125,-104.00390625,57.12890625
-111.328125,-107.91015625,-108.3984375,82.03125
-88.8671875,-121.58203125,-115.72265625,134.27734375
-90.8203125,-125.0,-112.3046875,145.01953125
-132.32421875,-129.8828125,-113.28125,63.96484375
-141.6015625,-141.6015625,-112.79296875,-16.6015625
-111.328125,-140.13671875,-109.86328125,-28.3203125
-87.40234375,-135.25390625,-110.3515625,-22.94921875
-94.23828125,-139.6484375,-110.83984375,-79.58984375
-123.53515625,-146.97265625,-118.65234375,-194.82421875
-151.3671875,-158.203125,-127.44140625,-300.78125
-156.73828125,-173.33984375,-132.8125,-346.19140625
-111.328125,-178.7109375,-143.5546875,-343.75
-81.0546875,-186.5234375,-151.3671875,-368.65234375
-106.4453125,-194.3359375,-150.390625,-446.77734375
-125.0,-200.68359375,-146.484375,-519.04296875
-91.30859375,-197.75390625,-147.94921875,-517.08984375
-55.17578125,-190.91796875,-155.2734375,-475.09765625
-39.0625,-195.3125,-151.3671875,-472.16796875
-53.22265625,-203.61328125,-143.06640625,-518.5546875
-68.84765625,-203.61328125,-140.13671875,-559.08203125
-37.59765625,-198.2421875,-137.6953125,-531.73828125
1.953125,-197.75390625,-133.30078125,-479.00390625
34.1796875,-195.3125,-128.90625,-432.12890625
48.33984375,-183.10546875,-124.51171875,-430.17578125
69.82421875,-171.38671875,-122.0703125,-463.37890625
127.9296875,-166.9921875,-118.65234375,-453.125
197.265625,-154.78515625,-104.4921875,-376.46484375
245.60546875,-141.11328125,-96.6796875,-292.96875
252.9296875,-124.0234375,-97.16796875,-288.0859375
227.05078125,-105.46875,-95.703125,-322.265625
238.28125,-97.16796875,-88.8671875,-317.3828125
296.875,-81.54296875,-78.61328125,-241.2109375
333.984375,-61.03515625,-61.5234375,-133.30078125
317.3828125,-47.36328125,-51.7578125,-116.69921875
290.52734375,-35.64453125,-41.9921875,-165.0390625
295.41015625,-19.53125,-29.296875,-155.2734375
316.40625,-8.30078125,-24.90234375,-92.7734375
324.21875,-3.41796875,-17.578125,-21.97265625
289.55078125,0.0,-14.16015625,-9.27734375
238.76953125,1.46484375,-15.625,-48.33984375
218.75,12.20703125,-10.7421875,-68.359375
231.93359375,25.87890625,-10.25390625,-29.296875
243.65234375,32.71484375,-13.671875,40.0390625
231.93359375,39.0625,-14.6484375,54.6875
209.47265625,42.48046875,-15.625,3.90625
191.89453125,40.0390625,-21.97265625,-43.9453125
203.125,42.48046875,-26.85546875,-33.69140625
232.91015625,59.5703125,-22.4609375,27.83203125
226.07421875,64.453125,-22.4609375,34.66796875
184.5703125,45.8984375,-28.3203125,-32.2265625
153.3203125,40.52734375,-26.3671875,-75.68359375
156.73828125,45.8984375,-25.87890625,-49.31640625
178.7109375,53.22265625,-23.4375,4.8828125
181.15234375,60.546875,-18.5546875,20.01953125
144.04296875,56.15234375,-14.16015625,-32.2265625
92.7734375,51.7578125,-9.27734375,-90.33203125
101.5625,58.59375,-14.16015625,-71.2890625
137.20703125,61.5234375,-13.671875,6.8359375
123.046875,62.98828125,-10.7421875,30.76171875
97.65625,68.84765625,-15.625,-25.87890625
62.01171875,56.640625,-17.08984375,-112.3046875
63.96484375,42.96875,-8.7890625,-119.62890625
87.890625,42.48046875,-2.9296875,-30.76171875
76.171875,41.9921875,-6.34765625,32.2265625
50.78125,42.96875,-3.41796875,35.64453125
17.08984375,41.50390625,-0.48828125,41.015625
14.6484375,39.55078125,-2.44140625,89.35546875
36.62109375,37.59765625,-4.39453125,172.8515625
61.03515625,42.96875,0.0,248.53515625
41.9921875,48.828125,0.0,245.1171875
6.8359375,46.38671875,-5.859375,200.1953125
11.23046875,41.50390625,-9.765625,203.125
33.203125,38.57421875,-10.25390625,260.25390625
52.734375,45.41015625,-9.27734375,310.05859375
33.203125,49.8046875,-15.13671875,273.92578125
-4.8828125,40.0390625,-19.53125,194.82421875
-3.90625,38.57421875,-15.625,162.109375
18.5546875,45.41015625,-11.23046875,189.94140625
34.1796875,49.31640625,-7.8125,245.60546875
16.11328125,51.26953125,-6.8359375,224.609375
-9.765625,52.734375,-13.671875,142.578125
-16.11328125,51.26953125,-12.6953125,99.12109375
-13.671875,42.48046875,-5.37109375,135.7421875
4.8828125,47.8515625,0.0,206.0546875
0.0,52.734375,1.46484375,200.1953125
-41.9921875,39.0625,-0.9765625,125.0
-75.1953125,20.99609375,-8.7890625,65.4296875
-48.33984375,17.578125,-13.18359375,92.28515625
-0.48828125,26.3671875,-10.7421875,175.78125
-3.41796875,25.390625,-15.13671875,179.6875
-43.9453125,17.578125,-22.94921875,96.19140625
-57.12890625,15.13671875,-21.484375,32.2265625
-34.66796875,9.27734375,-26.85546875,52.24609375
-0.48828125,3.90625,-27.34375,144.53125
1.953125,10.7421875,-18.06640625,173.828125
-22.94921875,13.18359375,-20.01953125,91.796875
-38.57421875,8.7890625,-24.90234375,13.18359375
-31.73828125,-7.32421875,-31.25,5.37109375
-15.625,-15.625,-30.76171875,65.91796875
-10.25390625,-13.18359375,-34.1796875,86.42578125
-26.85546875,-20.01953125,-43.45703125,3.41796875
-69.3359375,-30.76171875,-44.43359375,-85.9375
-52.734375,-30.76171875,-43.45703125,-82.03125
-6.8359375,-22.4609375,-39.55078125,3.41796875
-8.30078125,-25.390625,-38.57421875,55.17578125
-33.69140625,-35.15625,-37.109375,-14.6484375
-63.4765625,-43.9453125,-32.2265625,-105.95703125
-59.5703125,-38.57421875,-31.25,-103.515625
-24.90234375,-32.71484375,-31.73828125,-28.3203125
-4.39453125,-39.0625,-28.3203125,36.1328125
-22.94921875,-35.64453125,-33.203125,-4.39453125
-54.19921875,-38.0859375,-42.48046875,-90.33203125
-54.6875,-46.38671875,-46.38671875,-111.81640625
-22.4609375,-42.48046875,-39.55078125,-29.78515625
4.39453125,-30.76171875,-37.59765625,47.36328125
-26.85546875,-32.2265625,-41.50390625,6.8359375
-65.4296875,-41.50390625,-39.55078125,-83.984375
-56.640625,-41.9921875,-43.45703125,-115.72265625
-29.78515625,-39.0625,-44.43359375,-43.45703125
-6.34765625,-21.484375,-36.1328125,54.19921875
-20.99609375,-22.4609375,-35.15625,32.71484375
-58.59375,-43.9453125,-41.015625,-78.125
-64.94140625,-48.828125,-40.52734375,-125.9765625
-37.59765625,-42.96875,-32.71484375,-62.01171875
-12.6953125,-33.69140625,-31.25,40.52734375
-27.83203125,-26.85546875,-36.62109375,32.71484375
-62.01171875,-32.2265625,-39.0625,-62.98828125
-76.66015625,-41.9921875,-41.015625,-117.67578125
-58.10546875,-50.29296875,-41.50390625,-77.1484375
-23.4375,-47.36328125,-34.66796875,26.85546875
-36.62109375,-44.43359375,-35.64453125,34.66796875
-64.453125,-40.52734375,-39.55078125,-58.10546875
-78.61328125,-41.9921875,-41.50390625,-125.9765625
-74.21875,-44.921875,-47.8515625,-106.93359375
-30.2734375,-33.69140625,-43.9453125,2.9296875
-18.5546875,-23.92578125,-38.57421875,55.6640625
-50.29296875,-26.85546875,-37.109375,-21.97265625
-74.21875,-36.62109375,-37.59765625,-110.3515625
-55.17578125,-41.9921875,-39.55078125,-91.30859375
-20.5078125,-39.0625,-41.015625,12.6953125
-18.06640625,-31.25,-40.52734375,59.08203125
-58.59375,-41.015625,-41.015625,-17.578125
-96.19140625,-58.10546875,-42.96875,-113.76953125
-78.61328125,-44.921875,-45.41015625,-106.93359375
-45.8984375,-34.1796875,-50.78125,-3.90625
-43.9453125,-45.8984375,-45.41015625,52.734375
-65.4296875,-45.41015625,-41.015625,-9.27734375
-93.75,-51.26953125,-45.8984375,-103.515625
-85.9375,-59.08203125,-48.828125,-117.67578125
-48.828125,-48.828125,-47.36328125,-21.97265625
-25.87890625,-37.59765625,-40.52734375,64.453125
-45.41015625,-37.109375,-45.41015625,9.765625
-79.1015625,-46.875,-51.26953125,-102.05078125
-72.265625,-47.36328125,-48.828125,-127.44140625
-41.015625,-36.62109375,-46.38671875,-40.52734375
-7.32421875,-22.4609375,-42.48046875,59.08203125
-23.92578125,-22.4609375,-39.0625,30.76171875
-72.75390625,-36.62109375,-44.921875,-81.0546875
-79.1015625,-46.38671875,-49.31640625,-117.67578125
-57.6171875,-42.96875,-46.38671875,-42.48046875
-23.92578125,-27.83203125,-45.41015625,55.6640625
-27.34375,-18.5546875,-44.921875,22.94921875
-62.01171875,-31.73828125,-46.38671875,-91.796875
-59.08203125,-39.55078125,-50.29296875,-123.53515625
-30.2734375,-33.203125,-50.29296875,-61.03515625
3.41796875,-23.4375,-45.8984375,37.59765625
3.90625,-18.06640625,-46.875,41.9921875
-43.9453125,-24.90234375,-44.921875,-59.5703125
-70.3125,-42.48046875,-44.43359375,-128.41796875
-44.921875,-48.828125,-45.8984375,-81.54296875
-8.30078125,-39.55078125,-42.96875,33.69140625
-17.578125,-41.9921875,-39.0625,50.29296875
-60.05859375,-45.41015625,-40.0390625,-59.5703125
-77.1484375,-45.8984375,-51.26953125,-146.484375
-55.17578125,-48.33984375,-57.6171875,-105.95703125
-15.625,-36.62109375,-50.78125,13.671875
-17.08984375,-29.296875,-49.8046875,35.64453125
-53.22265625,-41.50390625,-58.10546875,-64.453125
-72.265625,-49.31640625,-60.546875,-146.484375
-48.33984375,-36.1328125,-59.5703125,-118.65234375
-3.90625,-23.92578125,-56.640625,1.46484375
-6.34765625,-25.390625,-47.36328125,53.22265625
-37.59765625,-38.0859375,-45.8984375,-26.3671875
-58.10546875,-50.29296875,-56.640625,-121.58203125
-48.828125,-43.45703125,-61.03515625,-113.76953125
-15.13671875,-35.64453125,-50.29296875,0.48828125
0.9765625,-32.71484375,-42.96875,66.40625
-34.1796875,-36.1328125,-44.921875,-9.27734375
-70.3125,-45.41015625,-49.31640625,-114.2578125
-58.59375,-47.8515625,-49.8046875,-119.140625
-22.94921875,-41.015625,-42.96875,-16.11328125
-9.765625,-24.90234375,-40.52734375,63.96484375
-33.69140625,-20.99609375,-44.921875,7.32421875
-67.3828125,-31.73828125,-51.26953125,-100.5859375
-73.73046875,-41.015625,-54.19921875,-120.1171875
-39.55078125,-40.52734375,-51.7578125,-22.94921875
-15.13671875,-25.87890625,-50.29296875,65.91796875
-33.203125,-25.87890625,-54.6875,13.18359375
-57.6171875,-38.57421875,-56.640625,-91.796875
-46.875,-41.50390625,-61.03515625,-114.74609375
-13.18359375,-27.34375,-61.5234375,-29.78515625
11.23046875,-18.06640625,-49.31640625,69.3359375
-10.7421875,-27.83203125,-48.33984375,32.71484375
-52.24609375,-27.34375,-56.640625,-89.84375
-53.22265625,-26.85546875,-54.19921875,-127.44140625
-32.71484375,-38.57421875,-52.24609375,-48.33984375
-2.44140625,-26.3671875,-51.7578125,62.01171875
-5.37109375,-19.04296875,-55.17578125,44.921875
-47.36328125,-31.25,-62.5,-72.75390625
-59.5703125,-36.1328125,-61.5234375,-128.41796875
-33.69140625,-34.1796875,-60.546875,-68.84765625
0.0,-23.92578125,-59.08203125,40.0390625
-5.37109375,-18.5546875,-56.15234375,35.15625
-36.62109375,-24.4140625,-53.7109375,-66.40625
-54.19921875,-35.64453125,-56.640625,-137.6953125
-43.45703125,-29.296875,-61.03515625,-103.515625
-14.16015625,-16.11328125,-57.6171875,10.7421875
-9.765625,-17.578125,-53.22265625,34.66796875
-40.52734375,-30.76171875,-46.875,-62.5
-58.59375,-44.43359375,-42.48046875,-139.16015625
-42.48046875,-44.43359375,-40.52734375,-95.703125
-6.8359375,-38.0859375,-30.76171875,23.4375
-5.859375,-26.85546875,-29.296875,55.6640625
-42.48046875,-29.296875,-35.64453125,-35.64453125
-55.6640625,-46.38671875,-32.2265625,-118.1640625
-32.2265625,-43.45703125,-30.76171875,-88.37890625
-4.8828125,-31.73828125,-31.73828125,15.13671875
-1.46484375,-20.01953125,-26.85546875,62.5
-42.48046875,-29.78515625,-35.64453125,-25.390625
-72.75390625,-41.9921875,-45.41015625,-136.23046875
-54.19921875,-38.0859375,-43.45703125,-121.58203125
-18.5546875,-34.66796875,-41.9921875,-7.8125
-6.34765625,-27.83203125,-40.52734375,51.26953125
-37.59765625,-27.83203125,-41.9921875,-26.3671875
-64.453125,-34.1796875,-46.875,-137.6953125
-52.24609375,-33.203125,-47.8515625,-143.06640625
-25.87890625,-25.87890625,-41.9921875,-35.15625
-10.7421875,-16.11328125,-39.55078125,45.41015625
-21.97265625,-12.6953125,-40.0390625,-7.32421875
-61.5234375,-20.99609375,-41.015625,-119.140625
-62.98828125,-33.203125,-42.48046875,-137.6953125
-22.4609375,-36.62109375,-41.50390625,-35.64453125
2.44140625,-22.94921875,-34.1796875,57.6171875
-11.71875,-21.484375,-31.73828125,16.6015625
-50.29296875,-34.1796875,-40.0390625,-94.23828125
-60.05859375,-40.0390625,-48.33984375,-127.44140625
-28.3203125,-38.0859375,-44.43359375,-47.8515625
2.9296875,-24.90234375,-38.0859375,51.7578125
0.9765625,-17.08984375,-43.9453125,33.203125
-34.1796875,-31.25,-45.41015625,-75.68359375
-44.43359375,-37.109375,-46.875,-121.58203125
-14.6484375,-36.62109375,-52.734375,-37.59765625
16.11328125,-29.78515625,-49.8046875,78.125
3.41796875,-24.90234375,-48.33984375,56.15234375
-36.1328125,-38.0859375,-56.15234375,-64.94140625
-45.8984375,-51.7578125,-61.5234375,-120.1171875
-16.11328125,-53.22265625,-56.15234375,-50.29296875
8.7890625,-42.96875,-51.26953125,63.96484375
-5.859375,-35.64453125,-49.8046875,56.15234375
-34.66796875,-46.38671875,-58.10546875,-53.22265625
-32.2265625,-54.6875,-61.5234375,-110.83984375
-12.20703125,-60.546875,-53.22265625,-55.17578125
15.625,-52.24609375,-45.8984375,64.94140625
9.27734375,-35.15625,-48.33984375,80.078125
-31.25,-44.921875,-51.7578125,-23.92578125
-48.33984375,-62.01171875,-51.26953125,-104.00390625
-34.1796875,-59.5703125,-53.22265625,-78.125
-0.48828125,-46.875,-52.734375,35.64453125
8.7890625,-35.15625,-57.6171875,62.01171875
-24.90234375,-45.41015625,-50.78125,-29.296875
-65.4296875,-65.4296875,-50.29296875,-127.9296875
-49.31640625,-60.05859375,-59.08203125,-102.5390625
-5.859375,-52.734375,-43.9453125,36.1328125
-5.859375,-54.19921875,-44.43359375,83.49609375
-31.25,-51.7578125,-53.7109375,-2.44140625
-60.546875,-55.6640625,-51.26953125,-109.86328125
-45.8984375,-59.08203125,-54.19921875,-109.86328125
4.8828125,-52.24609375,-55.17578125,10.7421875
11.23046875,-37.59765625,-48.828125,74.70703125
-24.90234375,-39.0625,-49.31640625,-15.13671875
-60.05859375,-53.7109375,-54.6875,-132.32421875
-57.12890625,-56.640625,-57.6171875,-134.765625
-22.4609375,-52.24609375,-52.734375,-19.04296875
9.765625,-38.57421875,-43.9453125,74.70703125
-5.859375,-35.15625,-51.26953125,15.625
-40.52734375,-44.43359375,-57.12890625,-102.5390625
-27.34375,-46.875,-55.6640625,-125.0
15.13671875,-38.0859375,-58.59375,-20.5078125
39.55078125,-24.90234375,-46.38671875,82.51953125
16.11328125,-25.87890625,-50.29296875,36.62109375
-33.69140625,-38.0859375,-64.94140625,-93.75
-54.19921875,-52.734375,-63.4765625,-146.484375
-16.6015625,-49.8046875,-59.5703125,-52.24609375
12.20703125,-35.15625,-55.6640625,58.59375
-1.953125,-30.76171875,-52.734375,29.78515625
-41.50390625,-36.62109375,-54.19921875,-82.51953125
-64.94140625,-45.8984375,-51.7578125,-134.765625
-41.50390625,-47.8515625,-50.29296875,-66.40625
-3.41796875,-31.73828125,-43.9453125,56.640625
-7.32421875,-22.94921875,-43.45703125,53.7109375
-41.015625,-32.71484375,-48.828125,-65.91796875
-51.26953125,-44.921875,-52.734375,-136.71875
-20.01953125,-40.0390625,-56.640625,-77.1484375
36.62109375,-11.71875,-45.41015625,54.19921875
28.80859375,-2.44140625,-43.45703125,57.6171875
-12.20703125,-11.71875,-51.26953125,-55.17578125
-16.6015625,-20.01953125,-54.19921875,-133.30078125
0.0,-26.85546875,-58.10546875,-90.8203125
36.62109375,-15.13671875,-57.6171875,51.7578125
41.015625,-7.8125,-55.17578125,80.56640625
0.9765625,-13.671875,-43.9453125,-35.64453125
-31.25,-16.11328125,-56.15234375,-125.9765625
-12.20703125,-25.390625,-67.3828125,-93.26171875
29.296875,-25.390625,-46.38671875,33.203125
30.2734375,-13.18359375,-42.96875,77.1484375
-15.625,-22.4609375,-47.8515625,-21.484375
-58.59375,-44.921875,-46.38671875,-127.9296875
-52.24609375,-46.38671875,-49.31640625,-111.81640625
-25.87890625,-38.0859375,-44.43359375,1.46484375
-11.71875,-26.85546875,-39.55078125,59.08203125
-34.1796875,-24.4140625,-47.36328125,-25.87890625
-80.56640625,-44.921875,-52.734375,-146.484375
-67.3828125,-49.8046875,-52.24609375,-135.7421875
-28.80859375,-34.1796875,-53.22265625,-19.53125
-22.94921875,-24.90234375,-55.17578125,41.9921875
-43.45703125,-29.78515625,-58.10546875,-40.0390625
-73.2421875,-36.62109375,-63.4765625,-151.85546875
-68.359375,-42.48046875,-59.5703125,-142.578125
-39.55078125,-45.41015625,-51.26953125,-37.109375
-22.94921875,-34.1796875,-46.38671875,42.96875
-41.9921875,-23.92578125,-46.875,-15.13671875
-91.796875,-37.59765625,-53.22265625,-141.6015625
-89.84375,-46.38671875,-55.6640625,-166.50390625
-45.8984375,-42.48046875,-54.19921875,-62.01171875
-8.7890625,-25.390625,-46.38671875,48.33984375
-14.6484375,-13.671875,-45.8984375,16.11328125
-69.3359375,-28.80859375,-51.7578125,-114.2578125
-78.125,-49.8046875,-54.6875,-162.59765625
-26.3671875,-48.828125,-49.8046875,-61.5234375
-2.9296875,-39.0625,-44.43359375,54.19921875
-26.85546875,-38.0859375,-43.45703125,21.97265625
-53.7109375,-39.0625,-35.64453125,-83.0078125
-69.3359375,-51.26953125,-36.1328125,-131.8359375
-52.24609375,-54.6875,-38.57421875,-65.91796875
-15.13671875,-35.64453125,-37.109375,58.59375
-25.390625,-30.2734375,-35.15625,54.6875
-66.40625,-38.0859375,-36.62109375,-64.94140625
-76.66015625,-42.48046875,-43.45703125,-130.859375
-48.828125,-46.38671875,-43.9453125,-79.1015625
-4.39453125,-31.25,-42.48046875,44.43359375
-6.34765625,-19.53125,-38.57421875,65.91796875
-61.5234375,-43.45703125,-42.48046875,-56.640625
-89.35546875,-63.4765625,-43.9453125,-144.04296875
-69.3359375,-56.15234375,-46.38671875,-105.46875
-31.73828125,-44.921875,-47.8515625,17.578125
-32.2265625,-41.50390625,-37.59765625,57.12890625
-75.1953125,-53.7109375,-41.50390625,-48.828125
-99.12109375,-71.77734375,-49.8046875,-144.53125
-78.125,-71.2890625,-44.921875,-111.328125
-34.66796875,-50.78125,-41.50390625,11.71875
-19.53125,-40.0390625,-42.96875,61.5234375
-56.640625,-48.828125,-43.9453125,-34.66796875
-97.65625,-66.40625,-48.828125,-145.01953125
-76.171875,-71.77734375,-47.36328125,-123.046875
-22.94921875,-61.5234375,-38.57421875,7.32421875
-17.08984375,-48.33984375,-38.0859375,74.70703125
-49.8046875,-50.78125,-42.48046875,-10.25390625
-83.0078125,-68.84765625,-34.66796875,-117.1875
-72.75390625,-76.171875,-30.2734375,-114.2578125
-34.1796875,-68.84765625,-28.80859375,-0.9765625
-15.13671875,-54.6875,-25.390625,85.9375
-33.203125,-55.6640625,-32.2265625,22.94921875
-67.3828125,-69.82421875,-30.2734375,-95.703125
-73.2421875,-79.1015625,-26.3671875,-117.1875
-34.66796875,-78.61328125,-26.3671875,-12.6953125
0.48828125,-63.96484375,-27.83203125,83.984375
-29.296875,-54.6875,-30.76171875,25.87890625
-79.58984375,-64.94140625,-29.296875,-99.12109375
-86.9140625,-80.078125,-36.1328125,-136.23046875
-55.6640625,-78.61328125,-39.55078125,-41.50390625
-16.6015625,-54.19921875,-35.15625,73.2421875
-33.69140625,-47.36328125,-41.50390625,31.25
-78.61328125,-65.91796875,-41.015625,-85.44921875
-85.44921875,-73.2421875,-33.69140625,-118.1640625
-63.4765625,-67.87109375,-32.71484375,-51.26953125
-28.80859375,-62.5,-30.2734375,63.96484375
-26.85546875,-60.05859375,-24.4140625,60.546875
-60.05859375,-66.89453125,-23.92578125,-58.59375
-68.359375,-79.58984375,-29.296875,-117.1875
-34.1796875,-82.03125,-29.296875,-53.7109375
7.32421875,-69.3359375,-24.4140625,69.3359375
-1.953125,-65.4296875,-19.04296875,73.73046875
-52.24609375,-78.125,-21.484375,-44.921875
-63.96484375,-85.44921875,-26.85546875,-113.76953125
-30.2734375,-78.61328125,-29.296875,-62.5
9.27734375,-64.453125,-26.3671875,59.08203125
6.8359375,-47.8515625,-22.4609375,82.03125
-33.69140625,-59.5703125,-27.34375,-28.3203125
-57.6171875,-77.63671875,-34.66796875,-124.0234375
-39.55078125,-74.70703125,-33.203125,-85.44921875
-13.671875,-67.87109375,-28.80859375,44.921875
-17.578125,-61.5234375,-28.3203125,81.54296875
-43.9453125,-59.5703125,-28.3203125,-15.13671875
-68.84765625,-61.03515625,-33.69140625,-111.81640625
-51.7578125,-56.15234375,-36.1328125,-95.21484375
-8.30078125,-47.36328125,-32.2265625,26.85546875
1.953125,-41.015625,-30.2734375,88.37890625
-30.2734375,-41.50390625,-30.76171875,3.90625
-73.73046875,-58.10546875,-37.109375,-112.79296875
-61.03515625,-67.87109375,-40.52734375,-109.375
-12.20703125,-48.828125,-37.109375,10.25390625
5.37109375,-34.1796875,-35.64453125,82.51953125
-20.5078125,-33.203125,-41.50390625,0.48828125
-58.59375,-40.52734375,-50.29296875,-127.44140625
-48.828125,-48.828125,-51.26953125,-135.25390625
-3.90625,-42.96875,-41.015625,-13.18359375
16.11328125,-28.3203125,-32.71484375,82.03125
-18.06640625,-27.83203125,-41.9921875,8.7890625
-59.08203125,-43.9453125,-56.640625,-120.1171875
-50.78125,-47.8515625,-48.33984375,-125.9765625
-29.78515625,-47.36328125,-40.52734375,-22.94921875
-8.7890625,-42.48046875,-34.66796875,76.171875
-20.99609375,-42.96875,-30.2734375,40.0390625
-65.4296875,-55.17578125,-43.45703125,-87.890625
-68.84765625,-59.5703125,-48.828125,-130.37109375
-32.71484375,-48.33984375,-46.875,-40.52734375
-2.9296875,-37.109375,-38.57421875,66.89453125
-12.6953125,-36.1328125,-34.66796875,41.9921875
-48.33984375,-41.015625,-41.015625,-83.49609375
-60.05859375,-53.22265625,-46.875,-146.484375
-34.1796875,-52.734375,-42.96875,-63.4765625
1.953125,-28.3203125,-41.015625,59.08203125
-15.625,-23.4375,-46.875,38.57421875
-52.24609375,-45.41015625,-51.7578125,-79.58984375
-62.01171875,-49.8046875,-54.19921875,-138.18359375
-48.828125,-49.8046875,-53.7109375,-78.61328125
-8.30078125,-48.828125,-46.875,48.828125
-5.859375,-37.109375,-40.0390625,65.4296875
-51.7578125,-42.96875,-46.875,-53.22265625
-76.171875,-58.10546875,-52.24609375,-138.18359375
-56.640625,-57.6171875,-50.29296875,-88.8671875
-19.53125,-52.24609375,-45.41015625,36.62109375
-19.53125,-49.8046875,-46.875,63.96484375
-59.08203125,-47.8515625,-55.17578125,-41.9921875
-86.42578125,-62.98828125,-55.17578125,-142.578125
-59.5703125,-65.91796875,-47.8515625,-102.5390625
-15.625,-47.36328125,-43.9453125,27.34375
-11.23046875,-34.1796875,-45.8984375,63.96484375
-42.48046875,-34.1796875,-48.828125,-33.69140625
-75.1953125,-45.41015625,-52.734375,-137.6953125
-57.6171875,-48.828125,-50.29296875,-117.67578125
-24.90234375,-43.45703125,-45.8984375,3.41796875
-20.01953125,-30.76171875,-40.0390625,67.87109375
-41.015625,-29.78515625,-40.52734375,-8.30078125
-81.54296875,-48.33984375,-45.41015625,-129.8828125
-72.75390625,-55.6640625,-50.78125,-131.34765625
-20.01953125,-47.36328125,-47.36328125,-4.39453125
-9.765625,-40.52734375,-33.69140625,74.70703125
-40.0390625,-46.875,-36.62109375,3.90625
-75.68359375,-57.12890625,-50.29296875,-121.09375
-73.2421875,-65.91796875,-50.78125,-139.16015625
-29.296875,-59.5703125,-38.57421875,-29.296875
-6.8359375,-41.9921875,-31.73828125,58.10546875
-42.48046875,-38.57421875,-39.0625,0.0
-87.40234375,-48.828125,-43.9453125,-115.72265625
-85.9375,-60.05859375,-46.38671875,-145.99609375
-41.9921875,-54.19921875,-44.921875,-51.7578125
-10.25390625,-32.2265625,-39.55078125,58.59375
-33.69140625,-30.76171875,-42.96875,15.625
-71.2890625,-47.8515625,-46.875,-105.46875
-82.03125,-56.15234375,-52.734375,-144.53125
-51.26953125,-56.640625,-52.734375,-66.40625
-18.06640625,-49.8046875,-41.9921875,52.24609375
-33.69140625,-41.9921875,-44.43359375,35.15625
-73.73046875,-43.45703125,-52.24609375,-88.8671875
-85.9375,-58.10546875,-48.828125,-152.34375
-48.828125,-57.6171875,-42.48046875,-76.171875
0.9765625,-39.0625,-45.41015625,54.6875
-9.27734375,-35.64453125,-45.8984375,46.38671875
-55.17578125,-39.55078125,-44.921875,-75.1953125
-66.40625,-47.8515625,-47.8515625,-142.578125
-37.109375,-57.6171875,-45.8984375,-85.9375
2.9296875,-43.9453125,-47.36328125,37.109375
-8.7890625,-34.1796875,-52.734375,45.8984375
-51.26953125,-41.015625,-50.78125,-64.94140625
-70.80078125,-52.24609375,-49.31640625,-147.4609375
-59.08203125,-52.24609375,-52.24609375,-114.74609375
-16.6015625,-37.109375,-51.7578125,9.765625
-7.32421875,-22.4609375,-46.38671875,51.26953125
-47.36328125,-28.80859375,-49.31640625,-52.734375
-76.171875,-51.26953125,-58.59375,-153.3203125
-51.26953125,-49.8046875,-61.03515625,-125.0
-8.30078125,-38.57421875,-59.08203125,0.0
-10.7421875,-40.0390625,-55.6640625,50.29296875
-41.9921875,-44.43359375,-53.22265625,-33.203125
-69.3359375,-50.78125,-50.29296875,-132.8125
-65.91796875,-59.5703125,-51.7578125,-126.953125
-30.2734375,-52.24609375,-49.31640625,-15.625
-13.671875,-38.0859375,-43.45703125,57.6171875
-40.52734375,-41.50390625,-46.38671875,-12.6953125
-74.21875,-50.29296875,-49.31640625,-126.953125
-68.359375,-58.59375,-53.22265625,-135.7421875
-25.87890625,-55.17578125,-53.22265625,-20.99609375
5.37109375,-29.296875,-43.9453125,76.171875
-18.5546875,-27.34375,-46.875,15.625
-64.453125,-51.26953125,-56.640625,-113.76953125
-62.5,-56.640625,-60.546875,-136.71875
-26.85546875,-48.33984375,-56.15234375,-31.25
-5.37109375,-38.0859375,-48.33984375,69.82421875
-23.4375,-33.203125,-48.33984375,27.34375
-65.4296875,-45.8984375,-52.734375,-98.14453125
-74.70703125,-55.6640625,-53.7109375,-136.23046875
-41.9921875,-52.734375,-50.29296875,-45.8984375
-8.7890625,-43.9453125,-49.31640625,65.4296875
-19.04296875,-37.59765625,-46.38671875,38.57421875
-53.7109375,-43.45703125,-46.38671875,-73.73046875
-56.15234375,-51.26953125,-52.734375,-120.1171875
-33.203125,-56.15234375,-54.6875,-55.17578125
4.8828125,-40.0390625,-50.78125,60.05859375
-5.37109375,-34.66796875,-42.96875,52.24609375
-57.12890625,-51.26953125,-38.57421875,-68.84765625
-75.1953125,-65.4296875,-38.57421875,-133.7890625
-44.43359375,-69.82421875,-37.109375,-68.84765625
3.90625,-57.12890625,-31.25,63.96484375
5.37109375,-43.9453125,-28.3203125,77.1484375
-35.15625,-49.8046875,-36.62109375,-41.9921875
-62.5,-61.5234375,-44.921875,-124.0234375
-37.109375,-59.08203125,-40.0390625,-73.73046875
4.39453125,-49.31640625,-36.1328125,50.78125
-5.37109375,-44.43359375,-35.64453125,72.75390625
-45.41015625,-45.41015625,-38.0859375,-33.69140625
-71.77734375,-60.546875,-46.38671875,-124.51171875
-51.7578125,-68.84765625,-45.41015625,-95.21484375
-9.765625,-54.19921875,-41.015625,19.53125
-6.34765625,-39.55078125,-40.52734375,61.03515625
-37.59765625,-41.015625,-45.41015625,-28.80859375
-68.359375,-54.19921875,-49.8046875,-136.71875
-56.15234375,-56.15234375,-50.29296875,-119.140625
-4.39453125,-42.96875,-47.8515625,12.6953125
9.27734375,-23.92578125,-46.875,77.1484375
-27.34375,-27.34375,-52.734375,-10.25390625
-59.5703125,-50.29296875,-56.640625,-126.46484375
-50.29296875,-50.29296875,-59.08203125,-124.0234375
-6.8359375,-34.1796875,-52.734375,-7.8125
15.625,-27.34375,-49.31640625,70.3125
-13.671875,-31.73828125,-52.734375,2.44140625
-56.15234375,-42.48046875,-49.8046875,-114.74609375
-51.26953125,-50.78125,-50.29296875,-126.953125
-17.08984375,-42.48046875,-49.31640625,-23.4375
-0.9765625,-29.78515625,-47.36328125,69.82421875
-23.4375,-28.3203125,-44.921875,16.11328125
-64.453125,-36.62109375,-45.41015625,-105.46875
-67.3828125,-46.38671875,-50.78125,-135.7421875
-29.296875,-45.41015625,-51.26953125,-38.57421875
-7.32421875,-39.0625,-52.24609375,69.3359375
-30.76171875,-40.0390625,-54.19921875,31.73828125
-70.3125,-48.828125,-54.19921875,-88.8671875
-80.56640625,-61.03515625,-55.6640625,-135.25390625
-52.734375,-63.4765625,-53.7109375,-56.640625
-4.39453125,-45.41015625,-48.828125,73.73046875
-12.6953125,-28.3203125,-41.9921875,58.10546875
-71.2890625,-36.62109375,-45.41015625,-80.078125
-79.1015625,-53.7109375,-57.6171875,-143.06640625
-41.50390625,-44.921875,-53.7109375,-67.3828125
-5.859375,-27.34375,-47.8515625,50.29296875
-16.6015625,-31.73828125,-50.78125,38.0859375
-62.98828125,-39.55078125,-57.12890625,-82.51953125
-83.49609375,-46.38671875,-61.5234375,-158.69140625
-55.6640625,-51.7578125,-65.4296875,-97.16796875
-22.4609375,-37.59765625,-63.96484375,26.85546875
-29.296875,-30.76171875,-59.5703125,36.1328125
-68.84765625,-35.15625,-59.5703125,-70.80078125
-87.890625,-43.45703125,-57.12890625,-147.94921875
-69.3359375,-50.78125,-57.6171875,-104.98046875
-36.62109375,-41.015625,-50.78125,17.578125
-30.2734375,-28.80859375,-47.8515625,52.734375
-59.5703125,-31.25,-53.22265625,-42.96875
-83.984375,-56.640625,-53.7109375,-132.8125
-66.89453125,-66.89453125,-51.26953125,-103.515625
-20.01953125,-47.36328125,-48.828125,24.4140625
0.48828125,-30.76171875,-42.48046875,82.03125
-25.390625,-37.59765625,-43.45703125,-8.30078125
-62.98828125,-50.29296875,-49.8046875,-119.140625
-51.7578125,-53.7109375,-50.78125,-106.93359375
-6.8359375,-43.45703125,-48.33984375,13.671875
3.90625,-26.85546875,-47.36328125,78.125
-27.83203125,-31.25,-51.7578125,0.0
-65.4296875,-41.015625,-58.10546875,-111.81640625
-57.6171875,-46.875,-54.19921875,-117.1875
-21.484375,-49.8046875,-45.8984375,-11.23046875
-4.8828125,-31.73828125,-39.55078125,73.2421875
-28.3203125,-32.71484375,-41.9921875,8.7890625
-69.3359375,-54.19921875,-50.78125,-117.67578125
-67.87109375,-59.08203125,-54.19921875,-135.7421875
-31.73828125,-54.19921875,-49.8046875,-28.80859375
-4.8828125,-42.48046875,-39.55078125,74.70703125
-28.80859375,-36.1328125,-42.48046875,28.80859375
-74.21875,-52.24609375,-52.734375,-97.65625
-81.54296875,-64.94140625,-56.15234375,-137.6953125
-46.38671875,-47.8515625,-50.29296875,-41.9921875
-16.6015625,-37.59765625,-46.38671875,69.82421875
-41.015625,-46.875,-48.828125,26.3671875
-83.49609375,-57.6171875,-51.7578125,-98.6328125
-82.03125,-62.98828125,-53.22265625,-140.625
-40.52734375,-54.6875,-47.8515625,-61.5234375
-1.46484375,-39.0625,-45.41015625,58.10546875
-12.6953125,-32.71484375,-49.31640625,46.38671875
-54.19921875,-45.41015625,-52.24609375,-72.265625
-71.77734375,-62.01171875,-52.734375,-134.765625
-49.8046875,-62.98828125,-50.29296875,-72.75390625
-13.18359375,-42.96875,-47.36328125,51.26953125
-18.06640625,-31.73828125,-45.8984375,55.17578125
-58.59375,-45.41015625,-50.29296875,-63.96484375
-81.54296875,-64.94140625,-48.33984375,-140.625
-52.24609375,-64.453125,-41.50390625,-87.40234375
-19.04296875,-44.921875,-44.921875,26.3671875
-36.1328125,-34.1796875,-47.8515625,33.203125
-60.05859375,-39.55078125,-43.9453125,-62.5
-70.3125,-51.26953125,-43.9453125,-141.11328125
-69.82421875,-54.19921875,-47.36328125,-117.67578125
-40.52734375,-43.9453125,-44.43359375,5.37109375
-31.25,-33.203125,-40.52734375,51.7578125
-65.91796875,-36.1328125,-43.9453125,-46.875
-94.7265625,-45.41015625,-55.17578125,-151.3671875
-81.0546875,-54.6875,-64.453125,-136.71875
-51.7578125,-58.59375,-54.6875,-14.16015625
-43.9453125,-53.7109375,-46.875,48.33984375
-63.4765625,-54.6875,-49.31640625,-23.92578125
-90.33203125,-54.6875,-47.8515625,-126.46484375
-73.2421875,-55.17578125,-51.7578125,-129.8828125
-33.69140625,-46.875,-53.7109375,-18.5546875
-22.94921875,-35.64453125,-50.78125,49.8046875
-49.8046875,-42.96875,-53.22265625,-24.4140625
-82.51953125,-55.6640625,-59.5703125,-134.765625
-76.171875,-61.03515625,-64.453125,-149.4140625
-36.1328125,-40.52734375,-60.546875,-35.64453125
-10.25390625,-29.296875,-50.29296875,66.89453125
-32.2265625,-42.96875,-54.6875,4.8828125
-72.75390625,-53.7109375,-63.4765625,-122.55859375
-83.984375,-64.453125,-60.546875,-149.90234375
-53.22265625,-62.5,-54.19921875,-51.7578125
-19.53125,-46.38671875,-46.38671875,58.10546875
-38.0859375,-40.0390625,-48.828125,16.11328125
-78.125,-46.875,-57.6171875,-113.76953125
-76.66015625,-55.6640625,-57.6171875,-154.296875
-37.59765625,-54.19921875,-51.26953125,-62.98828125
-4.8828125,-39.55078125,-46.875,54.6875
-20.01953125,-27.83203125,-49.8046875,32.71484375
-70.80078125,-41.50390625,-51.26953125,-89.35546875
-81.0546875,-57.12890625,-49.31640625,-144.53125
-42.96875,-47.8515625,-50.78125,-68.359375
-16.6015625,-40.52734375,-46.38671875,52.24609375
-28.3203125,-40.0390625,-42.48046875,45.8984375
-62.01171875,-41.9921875,-47.36328125,-70.3125
-73.73046875,-46.38671875,-49.31640625,-141.11328125
-44.921875,-43.9453125,-45.8984375,-80.56640625
-7.8125,-36.62109375,-40.0390625,48.828125
-22.4609375,-30.2734375,-40.0390625,56.640625
-64.453125,-34.66796875,-49.31640625,-63.96484375
-86.42578125,-42.96875,-55.17578125,-153.80859375
-71.77734375,-45.8984375,-46.875,-106.93359375
-32.2265625,-46.38671875,-40.52734375,22.94921875
-36.1328125,-42.48046875,-44.43359375,49.31640625
-78.125,-45.41015625,-40.0390625,-59.5703125
-92.7734375,-50.78125,-43.45703125,-153.3203125
-66.89453125,-48.828125,-46.38671875,-123.046875
-27.83203125,-42.96875,-37.109375,3.90625
-25.390625,-41.015625,-32.2265625,54.6875
-61.03515625,-41.015625,-35.64453125,-39.55078125
-92.7734375,-42.96875,-42.48046875,-148.92578125
-81.0546875,-52.734375,-43.9453125,-133.30078125
-39.55078125,-42.48046875,-43.9453125,-17.08984375
-23.4375,-28.3203125,-49.31640625,44.921875
-49.8046875,-42.48046875,-46.875,-22.4609375
-95.703125,-63.4765625,-43.45703125,-134.27734375
-83.984375,-65.4296875,-48.33984375,-139.16015625
-38.0859375,-55.17578125,-41.9921875,-15.13671875
-27.34375,-49.8046875,-33.69140625,70.3125
-51.26953125,-45.8984375,-41.015625,5.859375
-88.8671875,-49.31640625,-47.36328125,-115.72265625
-87.890625,-53.22265625,-42.96875,-135.7421875
-47.8515625,-53.7109375,-36.1328125,-31.73828125
-19.04296875,-42.48046875,-31.73828125,62.01171875
-36.62109375,-28.80859375,-30.76171875,8.30078125
-68.359375,-39.55078125,-39.0625,-115.72265625
-68.359375,-50.78125,-49.31640625,-152.34375
-33.203125,-44.43359375,-43.9453125,-57.6171875
-8.30078125,-38.0859375,-41.50390625,50.29296875
-39.55078125,-39.0625,-51.7578125,5.37109375
-79.58984375,-48.33984375,-51.26953125,-108.3984375
-89.84375,-56.640625,-49.31640625,-150.390625
-62.5,-51.26953125,-48.828125,-72.265625
-18.5546875,-36.1328125,-41.9921875,54.6875
-31.73828125,-25.87890625,-45.8984375,33.203125
-78.125,-36.1328125,-54.6875,-92.28515625
-87.40234375,-48.33984375,-53.22265625,-145.99609375
-63.4765625,-49.31640625,-48.33984375,-80.078125
-28.80859375,-43.45703125,-43.45703125,39.0625
-30.2734375,-37.59765625,-43.9453125,38.57421875
-66.89453125,-46.38671875,-51.26953125,-78.125
-80.56640625,-56.640625,-51.26953125,-144.04296875
-55.6640625,-55.17578125,-47.36328125,-86.9140625
-8.30078125,-36.62109375,-39.0625,43.45703125
-9.27734375,-23.92578125,-37.109375,69.82421875
-47.36328125,-30.76171875,-43.45703125,-36.62109375
-65.91796875,-44.921875,-46.38671875,-124.51171875
-52.24609375,-50.29296875,-48.828125,-93.26171875
-9.765625,-30.76171875,-40.52734375,37.59765625
-10.25390625,-20.5078125,-37.59765625,75.1953125
-59.08203125,-35.64453125,-49.31640625,-39.55078125
-87.890625,-45.41015625,-49.8046875,-141.11328125
-72.75390625,-46.875,-50.29296875,-116.69921875
-36.1328125,-41.50390625,-49.8046875,2.44140625
-22.4609375,-31.25,-42.96875,61.5234375
-51.7578125,-33.203125,-48.33984375,-23.92578125
-83.984375,-44.921875,-55.6640625,-132.32421875
-66.40625,-47.8515625,-57.6171875,-129.39453125
-24.4140625,-40.0390625,-52.734375,-6.8359375
-21.484375,-37.59765625,-43.45703125,72.265625
-54.6875,-40.0390625,-41.015625,1.46484375
-84.9609375,-47.8515625,-50.29296875,-118.1640625
-83.49609375,-55.17578125,-60.05859375,-145.99609375
-41.50390625,-44.921875,-48.33984375,-29.78515625
-7.8125,-32.2265625,-37.109375,70.80078125
-27.83203125,-30.76171875,-38.57421875,13.671875
-60.546875,-35.15625,-43.9453125,-102.05078125
-54.6875,-47.8515625,-47.36328125,-126.953125
-21.97265625,-53.7109375,-41.015625,-31.25
-1.46484375,-41.50390625,-37.109375,73.73046875
-24.90234375,-35.15625,-50.78125,25.87890625
-66.89453125,-46.875,-56.640625,-101.5625
-74.70703125,-53.22265625,-41.015625,-128.90625
-42.48046875,-51.26953125,-37.109375,-38.57421875
-14.6484375,-46.875,-41.50390625,61.5234375
-38.57421875,-42.48046875,-38.57421875,26.85546875
-74.70703125,-48.828125,-42.96875,-94.7265625
-76.66015625,-54.19921875,-49.31640625,-144.04296875
-47.36328125,-53.7109375,-47.36328125,-72.265625
-13.18359375,-39.0625,-43.45703125,43.45703125
-27.83203125,-29.296875,-42.96875,33.69140625
-66.40625,-38.57421875,-42.48046875,-79.58984375
-77.63671875,-53.7109375,-44.921875,-139.16015625
-55.6640625,-60.546875,-46.38671875,-78.125
-18.5546875,-41.9921875,-41.015625,49.8046875
-23.4375,-30.2734375,-39.0625,58.10546875
-68.84765625,-48.828125,-47.36328125,-62.98828125
-85.9375,-64.94140625,-51.7578125,-145.5078125
-59.5703125,-62.98828125,-50.29296875,-100.5859375
-23.4375,-51.26953125,-47.8515625,24.4140625
-23.4375,-42.96875,-42.48046875,56.640625
-58.59375,-47.8515625,-45.8984375,-48.33984375
-82.51953125,-60.546875,-52.734375,-138.18359375
-58.59375,-65.4296875,-49.31640625,-102.05078125
-15.13671875,-56.640625,-42.96875,23.4375
-7.32421875,-46.875,-39.55078125,70.80078125
-43.9453125,-43.45703125,-43.45703125,-24.90234375
-79.58984375,-45.8984375,-53.7109375,-134.765625
-67.3828125,-55.17578125,-57.12890625,-120.60546875
-36.62109375,-53.22265625,-49.8046875,2.9296875
-28.80859375,-48.33984375,-42.48046875,68.359375
-52.734375,-51.26953125,-42.96875,-7.32421875
-94.23828125,-57.6171875,-47.36328125,-127.44140625
-92.28515625,-65.91796875,-51.26953125,-136.71875
-45.8984375,-59.08203125,-48.828125,-19.53125
-27.83203125,-43.9453125,-48.828125,60.546875
-52.24609375,-44.43359375,-50.29296875,0.48828125
-91.796875,-61.5234375,-52.24609375,-118.1640625
-89.35546875,-62.01171875,-52.734375,-130.859375
-42.96875,-47.8515625,-48.33984375,-32.2265625
-19.53125,-41.9921875,-50.29296875,50.78125
-38.57421875,-33.69140625,-56.15234375,1.46484375
-73.73046875,-47.8515625,-58.10546875,-117.67578125
-82.51953125,-64.94140625,-57.6171875,-148.4375
-50.29296875,-55.6640625,-50.78125,-53.7109375
-21.484375,-44.921875,-39.55078125,58.10546875
-41.50390625,-46.875,-43.9453125,19.53125
-76.66015625,-60.546875,-49.31640625,-97.16796875
-78.125,-65.91796875,-51.26953125,-139.16015625
-43.9453125,-62.01171875,-45.41015625,-57.6171875
-11.23046875,-47.36328125,-34.1796875,65.4296875
-27.34375,-43.45703125,-42.96875,43.9453125
-71.77734375,-65.4296875,-51.26953125,-86.9140625
-82.51953125,-75.68359375,-44.43359375,-144.04296875
-54.6875,-68.84765625,-39.55078125,-67.87109375
-11.71875,-51.7578125,-34.1796875,63.96484375
-24.4140625,-39.55078125,-38.57421875,58.10546875
-68.359375,-47.36328125,-45.8984375,-67.3828125
-81.0546875,-62.98828125,-44.921875,-140.13671875
-61.03515625,-66.40625,-41.50390625,-87.890625
-27.34375,-51.7578125,-37.109375,32.2265625
-25.87890625,-44.921875,-33.69140625,53.7109375
-58.59375,-49.8046875,-40.52734375,-57.12890625
-82.51953125,-58.59375,-44.921875,-146.484375
-68.359375,-67.87109375,-42.96875,-107.421875
-27.34375,-59.08203125,-40.52734375,26.85546875
-12.20703125,-38.0859375,-33.69140625,75.1953125
-48.33984375,-33.69140625,-40.52734375,-34.1796875
-79.58984375,-52.24609375,-47.36328125,-139.16015625
-57.12890625,-52.24609375,-43.45703125,-113.76953125
-28.80859375,-36.1328125,-42.96875,0.0
-28.80859375,-28.80859375,-41.9921875,49.31640625
-56.640625,-41.50390625,-42.96875,-35.15625
-89.84375,-59.5703125,-44.921875,-137.20703125
-83.0078125,-56.640625,-48.33984375,-129.8828125
-48.828125,-48.828125,-47.8515625,-16.11328125
-30.76171875,-44.43359375,-44.43359375,53.22265625
-53.22265625,-41.015625,-48.33984375,-13.671875
-92.28515625,-53.22265625,-48.828125,-128.41796875
-87.890625,-60.546875,-45.8984375,-135.25390625
-49.31640625,-52.24609375,-51.26953125,-24.90234375
-26.3671875,-42.48046875,-47.8515625,58.10546875
-49.8046875,-42.96875,-50.29296875,-3.41796875
-89.35546875,-51.26953125,-57.12890625,-124.0234375
-83.0078125,-57.12890625,-57.12890625,-143.5546875
-38.57421875,-51.26953125,-52.24609375,-41.50390625
-13.671875,-33.69140625,-47.36328125,57.12890625
-40.52734375,-26.85546875,-46.875,15.13671875
-78.125,-46.875,-47.8515625,-105.95703125
-76.66015625,-60.05859375,-52.734375,-147.4609375
-43.9453125,-56.640625,-52.734375,-55.6640625
-12.20703125,-41.015625,-43.45703125,61.03515625
-30.2734375,-28.80859375,-40.0390625,30.76171875
-79.1015625,-46.38671875,-47.36328125,-94.7265625
-92.7734375,-61.03515625,-53.22265625,-147.94921875
-63.96484375,-47.36328125,-53.22265625,-73.2421875
-20.5078125,-27.34375,-52.24609375,46.875
-22.4609375,-25.87890625,-53.22265625,35.15625
-64.94140625,-32.71484375,-55.6640625,-77.1484375
-87.890625,-48.33984375,-53.7109375,-141.6015625
-61.5234375,-55.6640625,-47.36328125,-81.0546875
-16.6015625,-39.0625,-48.33984375,45.41015625
-25.87890625,-39.55078125,-56.640625,50.29296875
-63.96484375,-46.38671875,-57.6171875,-66.89453125
-70.3125,-49.8046875,-57.12890625,-143.06640625
-43.9453125,-53.7109375,-61.03515625,-98.6328125
-5.37109375,-41.50390625,-59.5703125,23.92578125
-0.9765625,-27.83203125,-52.734375,54.6875
-42.48046875,-33.69140625,-61.5234375,-52.734375
-69.82421875,-46.38671875,-64.94140625,-145.99609375
-49.8046875,-45.41015625,-55.6640625,-110.3515625
-10.7421875,-37.59765625,-51.7578125,22.4609375
-9.27734375,-35.64453125,-50.78125,69.3359375
-48.828125,-43.9453125,-55.17578125,-32.2265625
-86.9140625,-56.15234375,-60.05859375,-139.6484375
-74.21875,-57.12890625,-57.12890625,-126.46484375
-26.3671875,-48.33984375,-56.15234375,-0.9765625
-5.37109375,-37.109375,-59.5703125,67.3828125
-28.80859375,-38.57421875,-51.26953125,-7.32421875
-76.66015625,-55.6640625,-41.015625,-120.1171875
-81.54296875,-64.453125,-41.50390625,-122.55859375
-31.73828125,-54.19921875,-41.50390625,-0.48828125
-13.671875,-41.9921875,-41.015625,78.125
-47.36328125,-47.36328125,-35.64453125,8.7890625
-85.44921875,-63.96484375,-35.15625,-112.3046875
-80.56640625,-68.359375,-41.50390625,-124.51171875
-33.69140625,-56.640625,-40.0390625,-8.30078125
-5.37109375,-44.921875,-36.1328125,79.1015625
-30.76171875,-49.8046875,-39.0625,25.390625
-75.1953125,-65.91796875,-44.43359375,-92.7734375
-75.68359375,-73.2421875,-46.875,-120.1171875
-39.0625,-62.5,-45.8984375,-27.34375
-14.16015625,-53.7109375,-44.43359375,70.3125
-36.62109375,-56.15234375,-42.96875,33.203125
-73.2421875,-62.01171875,-43.9453125,-85.44921875
-74.70703125,-68.359375,-49.8046875,-128.90625
-51.26953125,-66.89453125,-52.24609375,-58.10546875
-21.97265625,-50.29296875,-46.875,50.78125
-31.73828125,-35.15625,-42.96875,32.2265625
-71.77734375,-37.59765625,-49.8046875,-95.703125
-87.40234375,-47.8515625,-56.640625,-158.69140625
-63.96484375,-47.8515625,-52.24609375,-89.84375
-25.390625,-40.0390625,-45.41015625,40.52734375
-33.203125,-37.59765625,-43.45703125,45.41015625
-81.0546875,-41.9921875,-52.24609375,-78.61328125
-100.5859375,-50.29296875,-60.546875,-153.80859375
-65.91796875,-46.875,-50.29296875,-88.37890625
-31.25,-41.9921875,-42.48046875,44.921875
-37.109375,-42.48046875,-46.38671875,59.08203125
-60.546875,-45.41015625,-49.31640625,-51.7578125
-80.56640625,-55.17578125,-50.29296875,-143.06640625
-66.40625,-55.6640625,-49.31640625,-105.46875
-20.99609375,-42.96875,-43.45703125,26.85546875
-14.16015625,-31.73828125,-41.015625,62.01171875
-53.7109375,-33.69140625,-50.78125,-48.33984375
-85.44921875,-46.38671875,-55.17578125,-148.92578125
-63.4765625,-50.29296875,-52.734375,-115.72265625
-11.23046875,-40.52734375,-52.734375,9.765625
0.9765625,-24.90234375,-51.26953125,67.3828125
-33.203125,-28.80859375,-53.22265625,-20.99609375
-69.82421875,-48.828125,-59.5703125,-133.30078125
-54.19921875,-50.78125,-55.17578125,-121.58203125
-11.23046875,-39.0625,-48.33984375,-4.8828125
-1.46484375,-30.76171875,-51.26953125,60.546875
-35.15625,-30.76171875,-59.08203125,-22.94921875
-69.82421875,-39.0625,-58.10546875,-136.71875
-53.7109375,-45.8984375,-54.19921875,-127.9296875
-20.5078125,-42.48046875,-61.5234375,-21.484375
-11.23046875,-26.3671875,-57.6171875,47.36328125
-33.69140625,-25.87890625,-50.29296875,-10.25390625
-75.68359375,-38.0859375,-52.734375,-121.58203125
-83.0078125,-46.875,-55.17578125,-139.16015625
-46.38671875,-51.26953125,-52.24609375,-40.52734375
-20.5078125,-40.0390625,-45.8984375,51.26953125
-40.0390625,-34.66796875,-47.8515625,4.8828125
-80.56640625,-44.921875,-54.6875,-118.65234375
-83.984375,-48.33984375,-58.10546875,-157.71484375
-48.828125,-40.0390625,-52.24609375,-66.40625
-23.4375,-35.64453125,-40.52734375,46.875
-41.015625,-39.55078125,-41.9921875,17.08984375
-75.68359375,-44.921875,-50.78125,-107.421875
-84.47265625,-49.31640625,-55.6640625,-165.0390625
-54.6875,-38.0859375,-57.6171875,-98.14453125
-10.25390625,-20.99609375,-53.22265625,27.34375
-19.53125,-23.4375,-50.78125,20.01953125
-63.96484375,-39.0625,-46.875,-92.28515625
-68.84765625,-45.8984375,-49.8046875,-150.87890625
-37.109375,-39.55078125,-57.6171875,-100.5859375
2.44140625,-28.3203125,-51.26953125,24.90234375
-2.44140625,-27.83203125,-45.8984375,41.015625
-51.26953125,-41.9921875,-50.29296875,-72.265625
-73.2421875,-50.29296875,-52.734375,-146.97265625
-53.22265625,-52.24609375,-54.6875,-101.5625
-20.5078125,-47.36328125,-43.9453125,25.390625
-17.578125,-36.1328125,-32.2265625,62.5
-50.78125,-39.55078125,-48.828125,-49.31640625
-80.56640625,-53.22265625,-69.3359375,-160.15625
-57.6171875,-53.7109375,-59.5703125,-115.234375
-19.53125,-51.26953125,-38.0859375,18.06640625
-20.5078125,-43.9453125,-28.80859375,53.22265625
-55.17578125,-44.921875,-40.0390625,-44.43359375
-85.44921875,-58.10546875,-50.78125,-153.3203125
-62.98828125,-58.59375,-48.828125,-134.27734375
-24.90234375,-51.26953125,-43.45703125,-9.765625
-22.4609375,-37.109375,-37.109375,51.7578125
-55.6640625,-40.52734375,-39.0625,-30.76171875
-89.35546875,-49.8046875,-48.828125,-134.765625
-86.9140625,-48.828125,-58.10546875,-135.25390625
-54.6875,-50.29296875,-54.6875,-25.87890625
-36.1328125,-42.96875,-43.9453125,47.8515625
-65.4296875,-46.875,-41.015625,-17.08984375
-105.46875,-66.40625,-43.45703125,-125.9765625
-95.21484375,-68.359375,-50.29296875,-146.484375
-56.15234375,-53.7109375,-55.6640625,-46.875
-30.76171875,-41.9921875,-51.26953125,49.8046875
-50.29296875,-41.50390625,-47.36328125,0.9765625
-87.890625,-50.78125,-42.96875,-119.140625
-85.9375,-61.5234375,-41.50390625,-142.08984375
-49.31640625,-55.17578125,-40.0390625,-38.0859375
-17.08984375,-40.0390625,-41.015625,64.453125
-37.59765625,-41.015625,-48.33984375,21.97265625
-80.56640625,-52.734375,-55.17578125,-105.46875
-75.68359375,-53.7109375,-49.8046875,-148.92578125
-43.9453125,-43.9453125,-41.015625,-63.4765625
-13.671875,-34.66796875,-41.015625,50.29296875
-27.34375,-30.76171875,-45.8984375,26.3671875
-58.10546875,-34.1796875,-49.8046875,-93.26171875
-64.94140625,-43.9453125,-50.78125,-145.01953125
-56.15234375,-50.29296875,-51.26953125,-84.9609375
-24.4140625,-42.48046875,-49.31640625,28.80859375
-29.78515625,-29.78515625,-44.921875,25.87890625
-70.3125,-31.25,-53.7109375,-96.19140625
-81.54296875,-46.38671875,-60.05859375,-167.48046875
-57.6171875,-51.7578125,-44.921875,-98.6328125
-22.4609375,-37.59765625,-33.203125,29.78515625
-22.94921875,-29.78515625,-31.25,45.41015625
-61.03515625,-39.0625,-27.83203125,-56.640625
-88.8671875,-54.6875,-34.66796875,-142.08984375
-73.73046875,-57.6171875,-43.9453125,-112.3046875
-32.2265625,-44.43359375,-40.0390625,15.625
-28.3203125,-37.109375,-35.64453125,60.05859375
-58.59375,-43.9453125,-36.1328125,-37.59765625
-80.078125,-45.41015625,-39.55078125,-132.8125
-67.87109375,-51.7578125,-41.9921875,-116.69921875
-30.2734375,-46.38671875,-40.52734375,-1.953125
-16.11328125,-29.296875,-40.0390625,47.36328125
-48.33984375,-37.109375,-45.41015625,-43.45703125
-89.35546875,-58.10546875,-47.36328125,-143.5546875
-85.9375,-70.3125,-48.828125,-129.39453125
-38.0859375,-59.08203125,-48.828125,-6.8359375
-25.87890625,-42.48046875,-47.8515625,58.10546875
-63.4765625,-45.41015625,-48.33984375,-24.4140625
-98.6328125,-55.17578125,-55.17578125,-142.08984375
-94.23828125,-63.4765625,-62.01171875,-157.2265625
-55.6640625,-53.7109375,-53.7109375,-38.0859375
-32.2265625,-41.015625,-43.9453125,57.6171875
-47.8515625,-41.9921875,-48.33984375,-6.34765625
-84.9609375,-45.8984375,-50.78125,-121.09375
-82.03125,-50.29296875,-49.31640625,-138.18359375
-37.59765625,-46.38671875,-41.9921875,-33.203125
-14.16015625,-34.1796875,-35.15625,62.5
-41.015625,-33.203125,-40.52734375,3.90625
-79.1015625,-44.43359375,-47.8515625,-118.1640625
-81.0546875,-48.828125,-52.24609375,-149.4140625
-49.31640625,-43.45703125,-49.8046875,-61.5234375
-16.6015625,-31.25,-45.8984375,49.31640625
-26.3671875,-22.4609375,-52.734375,24.90234375
-65.91796875,-32.2265625,-58.59375,-97.16796875
-77.63671875,-51.26953125,-59.08203125,-148.92578125
-41.9921875,-52.24609375,-50.29296875,-61.03515625
-0.9765625,-37.59765625,-43.9453125,62.98828125
-12.6953125,-29.78515625,-47.36328125,46.875
-55.17578125,-37.109375,-54.19921875,-74.70703125
-69.3359375,-50.78125,-49.8046875,-134.765625
-51.7578125,-50.78125,-45.41015625,-72.75390625
-23.4375,-41.015625,-46.875,41.9921875
-29.78515625,-35.64453125,-41.50390625,55.17578125
-65.91796875,-39.55078125,-41.015625,-50.29296875
-83.984375,-44.43359375,-49.8046875,-134.27734375
-60.05859375,-47.36328125,-49.8046875,-87.890625
-25.87890625,-45.41015625,-37.59765625,43.9453125
-33.203125,-33.203125,-33.203125,65.4296875
-69.3359375,-41.9921875,-42.96875,-45.41015625
-89.84375,-59.5703125,-45.41015625,-137.20703125
-68.84765625,-61.03515625,-40.52734375,-109.375
-29.78515625,-58.10546875,-33.203125,13.18359375
-20.01953125,-44.43359375,-30.2734375,61.5234375
-50.29296875,-37.59765625,-37.109375,-36.62109375
-77.63671875,-49.8046875,-41.015625,-136.71875
-60.05859375,-56.640625,-45.8984375,-113.76953125
-11.71875,-37.109375,-45.41015625,9.27734375
1.46484375,-27.83203125,-36.1328125,69.82421875
-37.109375,-44.43359375,-37.109375,-15.13671875
-80.078125,-62.5,-43.9453125,-130.859375
-75.68359375,-68.84765625,-44.921875,-131.34765625
-41.9921875,-62.01171875,-42.96875,-15.625
-25.87890625,-45.8984375,-39.0625,64.94140625
-52.734375,-45.8984375,-43.9453125,-4.8828125
-93.75,-59.5703125,-50.78125,-128.41796875
-83.0078125,-62.01171875,-56.15234375,-137.6953125
-37.109375,-52.734375,-51.26953125,-20.5078125
-18.06640625,-40.0390625,-46.875,69.3359375
-42.48046875,-40.0390625,-44.921875,17.578125
-75.1953125,-41.015625,-44.43359375,-96.6796875
-71.77734375,-47.36328125,-46.875,-128.41796875
-41.50390625,-53.7109375,-43.9453125,-37.59765625
-17.08984375,-38.57421875,-37.109375,63.4765625
-32.71484375,-33.69140625,-41.50390625,20.01953125
-82.03125,-49.31640625,-58.59375,-112.3046875
-88.37890625,-56.15234375,-60.546875,-154.78515625
-53.22265625,-45.8984375,-53.7109375,-66.89453125
-19.53125,-24.90234375,-53.22265625,47.8515625
-28.3203125,-25.390625,-58.10546875,17.578125
-68.359375,-42.96875,-56.640625,-105.46875
-82.03125,-47.8515625,-53.7109375,-147.4609375
-50.78125,-45.41015625,-48.33984375,-67.87109375
-19.53125,-45.41015625,-40.52734375,50.78125
-29.296875,-41.015625,-41.015625,46.38671875
-64.94140625,-40.52734375,-49.31640625,-67.87109375
-88.8671875,-50.78125,-53.7109375,-146.484375
-63.4765625,-53.7109375,-50.29296875,-91.796875
-19.53125,-45.8984375,-42.48046875,42.96875
-21.97265625,-36.62109375,-38.0859375,65.91796875
-61.5234375,-44.43359375,-44.43359375,-50.29296875
-85.44921875,-54.19921875,-52.734375,-140.13671875
-64.453125,-58.59375,-58.59375,-106.93359375
-20.99609375,-48.828125,-57.12890625,15.13671875
-16.6015625,-34.1796875,-52.24609375,49.31640625
-57.6171875,-44.43359375,-52.24609375,-50.29296875
-87.40234375,-62.5,-58.10546875,-142.08984375
-67.87109375,-60.05859375,-60.05859375,-115.72265625
-24.90234375,-45.8984375,-53.7109375,11.23046875
-12.20703125,-34.1796875,-51.7578125,62.98828125
-45.8984375,-39.0625,-58.59375,-25.390625
-79.1015625,-49.8046875,-62.98828125,-130.859375
-64.94140625,-50.78125,-62.5,-119.140625
-25.87890625,-40.0390625,-52.24609375,5.859375
-17.578125,-32.2265625,-45.8984375,68.84765625
-44.43359375,-33.203125,-52.24609375,-6.34765625
-81.54296875,-45.8984375,-62.01171875,-121.09375
-79.58984375,-60.05859375,-65.4296875,-129.39453125
-40.0390625,-48.828125,-59.5703125,-17.578125
-26.3671875,-37.59765625,-53.7109375,55.6640625
-54.19921875,-40.52734375,-55.6640625,-10.7421875
-88.37890625,-49.8046875,-54.19921875,-122.55859375
-79.1015625,-52.734375,-50.78125,-129.39453125
-43.9453125,-49.31640625,-54.6875,-28.80859375
-20.5078125,-41.50390625,-50.29296875,63.96484375
-32.2265625,-33.203125,-48.33984375,23.4375
-72.75390625,-42.96875,-57.12890625,-110.3515625
-70.3125,-50.78125,-56.640625,-152.83203125
-25.390625,-45.8984375,-56.15234375,-57.6171875
6.8359375,-41.9921875,-49.8046875,53.22265625
-16.11328125,-36.1328125,-44.921875,17.08984375
-61.03515625,-41.015625,-53.22265625,-108.3984375
-67.87109375,-50.78125,-59.08203125,-153.80859375
-33.69140625,-47.36328125,-49.8046875,-67.3828125
-4.39453125,-37.59765625,-41.9921875,50.29296875
-31.73828125,-37.109375,-39.55078125,32.2265625
-73.73046875,-50.29296875,-48.33984375,-84.9609375
-80.078125,-62.5,-59.5703125,-144.04296875
-52.24609375,-57.12890625,-54.19921875,-80.56640625
-18.06640625,-39.55078125,-40.0390625,45.8984375
-30.76171875,-40.52734375,-36.62109375,51.26953125
-73.2421875,-50.78125,-45.41015625,-67.3828125
-95.703125,-55.17578125,-56.640625,-147.4609375
-81.0546875,-57.6171875,-51.7578125,-103.515625
-42.96875,-50.29296875,-42.48046875,22.4609375
-38.57421875,-41.50390625,-43.45703125,46.875
-68.84765625,-40.0390625,-49.8046875,-63.4765625
-89.35546875,-55.17578125,-50.78125,-152.83203125
-70.80078125,-63.96484375,-45.8984375,-114.2578125
-27.83203125,-52.734375,-46.38671875,14.16015625
-18.5546875,-44.921875,-41.50390625,58.59375
-42.96875,-43.45703125,-42.48046875,-30.2734375
-75.68359375,-53.7109375,-49.31640625,-131.34765625
-64.94140625,-62.5,-43.9453125,-117.1875
-19.53125,-50.78125,-39.0625,5.37109375
-12.20703125,-41.9921875,-47.8515625,56.640625
-41.015625,-41.50390625,-53.22265625,-24.4140625
-70.80078125,-46.38671875,-52.734375,-129.39453125
-71.77734375,-52.24609375,-51.26953125,-129.39453125
-38.0859375,-47.36328125,-44.921875,-14.6484375
-24.90234375,-41.9921875,-37.59765625,61.5234375
-55.17578125,-37.109375,-41.9921875,-8.30078125
-97.16796875,-45.41015625,-47.8515625,-129.39453125
-101.07421875,-53.22265625,-49.31640625,-146.484375
-62.5,-49.31640625,-47.8515625,-40.0390625
-33.203125,-42.48046875,-38.0859375,57.6171875
-58.10546875,-42.48046875,-43.45703125,-3.41796875
-108.88671875,-52.734375,-55.6640625,-143.06640625
-105.46875,-58.10546875,-54.6875,-173.33984375
-63.4765625,-49.31640625,-51.7578125,-69.82421875
-38.57421875,-41.9921875,-49.8046875,30.2734375
-58.59375,-43.45703125,-52.734375,-15.13671875
-89.35546875,-48.828125,-55.6640625,-130.37109375
-83.984375,-54.19921875,-51.7578125,-158.203125
-56.15234375,-48.828125,-46.875,-70.3125
-21.484375,-29.296875,-41.50390625,48.33984375
-28.80859375,-30.2734375,-38.57421875,31.25
-62.01171875,-46.38671875,-39.0625,-87.890625
-64.94140625,-54.6875,-41.50390625,-140.625
-37.59765625,-56.15234375,-44.43359375,-73.73046875
6.8359375,-37.109375,-40.52734375,50.78125
2.44140625,-29.296875,-31.73828125,55.17578125
-50.29296875,-49.31640625,-35.15625,-62.01171875
-69.3359375,-61.03515625,-44.921875,-130.859375
-41.50390625,-47.36328125,-46.38671875,-74.70703125
-12.20703125,-37.59765625,-53.22265625,35.64453125
-26.3671875,-40.0390625,-54.19921875,31.25
-62.5,-37.109375,-46.38671875,-76.66015625
-83.0078125,-45.8984375,-50.29296875,-149.4140625
-69.82421875,-59.5703125,-51.26953125,-112.3046875
-37.109375,-55.17578125,-48.828125,7.8125
-30.76171875,-45.41015625,-38.0859375,48.828125
-54.6875,-45.8984375,-32.71484375,-42.48046875
-83.984375,-52.734375,-47.36328125,-142.578125
-70.80078125,-56.640625,-54.6875,-121.58203125
-16.11328125,-41.9921875,-47.36328125,8.30078125
-0.48828125,-25.390625,-40.0390625,61.5234375
-35.15625,-33.203125,-38.0859375,-24.4140625
-69.82421875,-48.33984375,-37.59765625,-124.51171875
-60.546875,-47.36328125,-45.41015625,-114.2578125
-19.04296875,-37.59765625,-46.875,1.46484375
-9.27734375,-37.109375,-44.921875,60.05859375
-37.59765625,-41.50390625,-46.38671875,-16.6015625
-62.01171875,-45.41015625,-47.36328125,-121.09375
-58.59375,-52.24609375,-48.828125,-123.046875
-26.3671875,-51.26953125,-41.015625,-7.8125
-3.41796875,-37.59765625,-27.83203125,81.54296875
-35.15625,-34.1796875,-34.1796875,10.25390625
-86.9140625,-50.78125,-47.36328125,-119.140625
-88.37890625,-62.98828125,-48.828125,-138.671875
-51.7578125,-54.6875,-47.8515625,-37.109375
-23.4375,-36.1328125,-44.43359375,63.96484375
-42.48046875,-36.62109375,-44.43359375,26.3671875
-88.8671875,-57.6171875,-53.7109375,-100.5859375
-94.23828125,-63.96484375,-57.12890625,-144.04296875
-60.546875,-52.24609375,-57.6171875,-55.6640625
-27.83203125,-36.62109375,-52.734375,50.78125
-43.9453125,-39.0625,-47.36328125,15.625
-86.9140625,-53.7109375,-55.6640625,-108.3984375
-89.84375,-60.05859375,-62.5,-165.0390625
-60.546875,-59.5703125,-59.5703125,-95.21484375
-20.99609375,-46.38671875,-51.26953125,31.73828125
-23.4375,-36.62109375,-40.52734375,31.25
-63.4765625,-41.015625,-41.50390625,-81.0546875
-74.21875,-48.828125,-46.875,-140.13671875
-54.6875,-58.10546875,-47.8515625,-80.56640625
-20.01953125,-49.8046875,-45.8984375,44.921875
-21.484375,-38.0859375,-47.8515625,45.8984375
-59.08203125,-42.48046875,-43.9453125,-69.3359375
-90.8203125,-59.08203125,-46.38671875,-145.99609375
-72.265625,-60.546875,-53.22265625,-103.515625
-25.87890625,-48.828125,-49.8046875,22.4609375
-33.203125,-45.8984375,-47.36328125,43.45703125
-66.89453125,-50.29296875,-50.78125,-57.12890625
-86.9140625,-57.12890625,-57.12890625,-138.18359375
-70.80078125,-52.24609375,-54.19921875,-104.00390625
-23.92578125,-41.50390625,-46.38671875,24.90234375
-10.25390625,-37.59765625,-44.921875,65.4296875
-45.41015625,-37.59765625,-46.38671875,-30.76171875
-79.58984375,-56.640625,-51.26953125,-133.30078125
-66.89453125,-69.3359375,-52.734375,-115.234375
-24.4140625,-53.22265625,-49.8046875,6.34765625
-20.99609375,-36.62109375,-55.17578125,51.26953125
-56.640625,-38.0859375,-61.03515625,-39.0625
-86.42578125,-48.828125,-53.7109375,-142.578125
-73.2421875,-51.7578125,-51.26953125,-134.765625
-31.73828125,-44.921875,-48.33984375,-19.53125
-20.99609375,-34.66796875,-46.38671875,53.7109375
-48.33984375,-40.52734375,-49.8046875,-8.30078125
-82.51953125,-55.17578125,-51.26953125,-114.2578125
-83.984375,-63.96484375,-53.7109375,-133.7890625
-48.828125,-61.03515625,-50.78125,-32.2265625
-23.4375,-49.31640625,-46.38671875,62.5
-38.0859375,-42.96875,-43.45703125,12.6953125
-75.68359375,-52.734375,-42.48046875,-99.609375
-83.984375,-63.96484375,-41.9921875,-128.90625
-52.734375,-58.10546875,-38.0859375,-38.57421875
-20.01953125,-45.41015625,-30.76171875,68.84765625
-33.69140625,-41.50390625,-31.25,34.66796875
-78.125,-47.8515625,-48.33984375,-94.7265625
-86.9140625,-54.19921875,-56.15234375,-147.94921875
-54.6875,-55.6640625,-51.26953125,-69.82421875
-18.5546875,-44.43359375,-45.8984375,45.8984375
-31.73828125,-40.52734375,-40.52734375,30.2734375
-66.40625,-47.8515625,-41.9921875,-85.44921875
-77.63671875,-53.7109375,-47.8515625,-143.5546875
-54.19921875,-47.36328125,-46.875,-76.171875
-14.6484375,-36.62109375,-42.96875,52.734375
-24.4140625,-31.25,-41.50390625,53.22265625
-69.82421875,-42.48046875,-45.41015625,-71.77734375
-86.42578125,-58.10546875,-54.6875,-147.94921875
-54.6875,-44.921875,-57.6171875,-88.8671875
-8.7890625,-25.87890625,-48.33984375,35.15625
-11.71875,-24.90234375,-40.52734375,46.38671875
-49.8046875,-37.59765625,-41.9921875,-64.94140625
-66.89453125,-49.31640625,-43.45703125,-145.99609375
-44.921875,-53.7109375,-41.50390625,-97.16796875
-1.953125,-46.875,-37.109375,36.1328125
-2.9296875,-36.1328125,-38.0859375,63.4765625
-42.48046875,-34.1796875,-45.8984375,-44.921875
