TP9,AF7,AF8,TP10
-74.21875,-54.19921875,-54.6875,-63.96484375
-41.9921875,-31.25,-32.2265625,-39.0625
-5.859375,-22.4609375,-23.4375,-20.99609375
-5.859375,-49.8046875,-28.3203125,-34.1796875
-32.2265625,-73.2421875,-45.8984375,-59.08203125
-46.38671875,-51.26953125,-49.31640625,-65.4296875
-27.34375,-43.9453125,-43.45703125,-45.41015625
-9.765625,-34.66796875,-42.96875,-24.4140625
-14.6484375,-37.59765625,-33.203125,-23.4375
-49.31640625,-69.82421875,-41.9921875,-47.8515625
-78.125,-67.87109375,-50.29296875,-66.40625
-61.03515625,-47.36328125,-43.45703125,-49.8046875
-25.87890625,-37.59765625,-41.9921875,-27.34375
-22.4609375,-40.52734375,-45.41015625,-27.83203125
-58.10546875,-61.5234375,-46.875,-56.15234375
-81.0546875,-74.70703125,-45.8984375,-69.82421875
-77.1484375,-52.24609375,-43.45703125,-51.26953125
-42.48046875,-15.625,-38.0859375,-21.484375
-25.390625,-28.80859375,-35.15625,-18.06640625
-63.4765625,-76.171875,-43.45703125,-51.26953125
-96.6796875,-89.35546875,-55.17578125,-75.1953125
-81.0546875,-48.33984375,-47.8515625,-53.7109375
-41.50390625,-25.87890625,-40.52734375,-25.87890625
-28.3203125,-40.0390625,-38.0859375,-25.87890625
-52.734375,-51.26953125,-47.36328125,-52.734375
-81.0546875,-60.05859375,-59.5703125,-78.125
-72.75390625,-48.828125,-52.734375,-66.89453125
-37.59765625,-26.3671875,-42.96875,-36.62109375
-15.625,-28.3203125,-44.43359375,-25.87890625
-23.4375,-51.7578125,-54.6875,-45.41015625
-55.17578125,-68.84765625,-55.6640625,-68.359375
-65.4296875,-83.0078125,-53.22265625,-66.89453125
-22.94921875,-56.640625,-40.52734375,-35.15625
3.41796875,-25.390625,-38.57421875,-25.87890625
-27.34375,-39.0625,-54.6875,-48.828125
-69.3359375,-56.640625,-46.38671875,-66.89453125
-81.0546875,-59.08203125,-41.50390625,-68.84765625
-55.17578125,-34.66796875,-41.015625,-37.59765625
-42.96875,-29.78515625,-41.50390625,-19.04296875
-55.6640625,-54.6875,-44.43359375,-38.0859375
-80.56640625,-76.171875,-43.45703125,-62.01171875
-93.26171875,-66.89453125,-50.29296875,-66.40625
-63.96484375,-44.921875,-49.31640625,-43.45703125
-33.203125,-41.015625,-34.66796875,-25.390625
-37.59765625,-47.36328125,-35.64453125,-41.9921875
-68.84765625,-64.453125,-53.7109375,-65.4296875
-93.75,-70.3125,-56.640625,-70.3125
-66.89453125,-48.828125,-41.9921875,-45.8984375
-25.390625,-25.390625,-52.734375,-28.80859375
-20.01953125,-37.109375,-57.12890625,-44.43359375
-61.5234375,-59.5703125,-40.52734375,-75.68359375
-100.5859375,-74.21875,-53.22265625,-90.8203125
-74.70703125,-47.8515625,-55.17578125,-59.5703125
-35.64453125,-12.6953125,-41.50390625,-33.69140625
-31.73828125,-36.1328125,-42.96875,-40.0390625
-42.96875,-68.359375,-53.22265625,-59.5703125
-72.265625,-62.01171875,-50.29296875,-77.63671875
-76.66015625,-35.15625,-38.57421875,-57.6171875
-50.78125,-23.92578125,-30.76171875,-25.390625
-51.7578125,-44.43359375,-44.43359375,-29.78515625
-66.40625,-70.3125,-61.5234375,-60.05859375
-84.47265625,-73.2421875,-57.6171875,-77.1484375
-73.73046875,-47.36328125,-43.45703125,-53.22265625
-41.50390625,-32.2265625,-34.1796875,-26.3671875
-29.78515625,-30.2734375,-35.64453125,-29.296875
-34.1796875,-35.64453125,-28.3203125,-42.96875
-58.59375,-53.7109375,-36.62109375,-58.59375
-62.5,-49.31640625,-51.7578125,-53.22265625
-28.3203125,-17.578125,-41.50390625,-25.390625
-10.7421875,-19.53125,-30.76171875,-15.13671875
-33.69140625,-57.6171875,-37.59765625,-48.828125
-67.87109375,-64.94140625,-41.50390625,-77.63671875
-76.66015625,-40.0390625,-41.50390625,-71.2890625
-44.43359375,-28.80859375,-33.203125,-33.69140625
-5.37109375,-17.578125,-30.76171875,-0.9765625
-28.80859375,-18.06640625,-50.29296875,-42.48046875
-78.61328125,-40.52734375,-61.03515625,-89.84375
-82.51953125,-36.62109375,-62.01171875,-80.56640625
-54.6875,-28.80859375,-49.31640625,-57.12890625
-31.25,-32.2265625,-48.828125,-51.26953125
-47.36328125,-26.85546875,-49.31640625,-76.171875
-76.66015625,-21.97265625,-46.875,-98.6328125
-86.9140625,-23.92578125,-51.26953125,-90.8203125
-59.5703125,-7.8125,-46.38671875,-57.6171875
-39.55078125,-3.90625,-46.875,-36.1328125
-66.89453125,-25.390625,-52.24609375,-55.17578125
-104.98046875,-34.66796875,-59.08203125,-81.0546875
-111.328125,-42.48046875,-55.6640625,-79.1015625
-71.77734375,-34.1796875,-42.96875,-49.31640625
-35.64453125,-18.5546875,-42.48046875,-29.78515625
-39.55078125,-27.34375,-45.8984375,-37.109375
-72.75390625,-43.9453125,-55.6640625,-57.6171875
-90.33203125,-49.8046875,-55.17578125,-69.3359375
-65.4296875,-30.76171875,-33.69140625,-41.015625
-36.1328125,-14.6484375,-40.52734375,-24.90234375
-31.73828125,-18.5546875,-43.9453125,-36.1328125
-52.24609375,-42.48046875,-40.0390625,-59.5703125
-75.1953125,-58.59375,-62.98828125,-83.984375
-62.01171875,-34.1796875,-71.2890625,-63.96484375
-24.4140625,-23.92578125,-51.7578125,-35.64453125
-20.01953125,-38.0859375,-33.69140625,-35.15625
-49.31640625,-39.0625,-39.0625,-53.7109375
-67.87109375,-41.50390625,-48.33984375,-64.94140625
-48.33984375,-42.96875,-34.66796875,-46.875
-14.6484375,-45.8984375,-20.5078125,-18.5546875
-9.765625,-45.41015625,-32.2265625,-14.6484375
-26.3671875,-42.96875,-51.7578125,-44.43359375
-52.734375,-43.45703125,-46.38671875,-66.89453125
-46.875,-32.2265625,-42.96875,-50.78125
-24.4140625,-25.390625,-44.43359375,-28.80859375
-21.97265625,-22.4609375,-33.203125,-32.2265625
-42.48046875,-35.64453125,-35.15625,-53.7109375
-83.0078125,-47.8515625,-40.52734375,-72.75390625
-82.51953125,-30.2734375,-45.41015625,-67.3828125
-42.48046875,-14.6484375,-49.8046875,-41.50390625
-23.92578125,-17.08984375,-51.7578125,-36.1328125
-40.0390625,-31.73828125,-61.5234375,-53.7109375
-67.87109375,-48.33984375,-63.96484375,-70.80078125
-72.75390625,-33.69140625,-53.7109375,-64.453125
-46.875,-3.41796875,-37.59765625,-42.96875
-25.87890625,-2.9296875,-39.0625,-38.0859375
-35.15625,-23.4375,-43.45703125,-54.6875
-65.4296875,-41.50390625,-40.0390625,-69.82421875
-81.0546875,-41.015625,-48.828125,-70.80078125
-54.6875,-21.97265625,-34.66796875,-41.50390625
-30.76171875,-8.30078125,-31.73828125,-21.97265625
-36.1328125,-25.390625,-47.8515625,-37.59765625
-67.87109375,-53.22265625,-53.22265625,-60.546875
-81.0546875,-41.015625,-56.15234375,-62.98828125
-43.9453125,-17.578125,-45.41015625,-29.78515625
-11.71875,-22.4609375,-37.59765625,-10.25390625
-14.16015625,-40.52734375,-47.36328125,-27.83203125
-40.0390625,-39.55078125,-55.17578125,-54.6875
-68.359375,-36.1328125,-55.6640625,-67.87109375
-57.6171875,-16.6015625,-40.0390625,-42.48046875
-20.99609375,3.41796875,-26.85546875,-16.11328125
-10.7421875,-19.53125,-41.015625,-27.34375
-37.109375,-39.55078125,-54.6875,-51.7578125
-63.4765625,-52.734375,-56.640625,-61.03515625
-42.96875,-58.59375,-64.453125,-42.96875
1.46484375,-29.78515625,-47.36328125,-20.01953125
11.23046875,-23.4375,-39.55078125,-24.4140625
-29.78515625,-40.52734375,-44.43359375,-48.33984375
-68.84765625,-49.31640625,-39.55078125,-66.89453125
-59.08203125,-36.1328125,-41.50390625,-44.921875
-20.99609375,-20.99609375,-37.109375,-10.25390625
-26.85546875,-31.25,-51.7578125,-26.85546875
-78.61328125,-58.59375,-81.0546875,-75.68359375
-112.3046875,-67.3828125,-81.0546875,-99.609375
-93.75,-41.50390625,-50.29296875,-80.56640625
-60.546875,-28.80859375,-35.15625,-57.12890625
-52.24609375,-30.2734375,-44.43359375,-59.08203125
-57.12890625,-34.66796875,-50.78125,-75.68359375
-78.125,-36.1328125,-52.734375,-88.8671875
-84.47265625,-31.25,-51.7578125,-78.125
-57.12890625,-22.94921875,-62.5,-55.17578125
-37.109375,-15.625,-63.4765625,-49.31640625
-46.875,-38.57421875,-53.7109375,-68.359375
-71.77734375,-60.546875,-60.05859375,-85.9375
-73.2421875,-53.22265625,-60.546875,-77.1484375
-42.96875,-24.4140625,-42.96875,-42.96875
-25.390625,-25.87890625,-33.69140625,-33.203125
-57.6171875,-76.66015625,-66.40625,-73.73046875
-75.68359375,-87.40234375,-80.078125,-82.03125
-64.94140625,-55.17578125,-63.96484375,-63.96484375
-41.50390625,-34.66796875,-56.640625,-41.50390625
-23.4375,-29.78515625,-46.38671875,-26.3671875
-35.64453125,-38.0859375,-37.109375,-46.38671875
-58.59375,-52.734375,-46.38671875,-64.94140625
-66.89453125,-46.38671875,-62.01171875,-62.5
-39.55078125,-21.484375,-43.9453125,-41.015625
-12.20703125,-16.6015625,-29.296875,-26.85546875
-16.11328125,-24.4140625,-41.9921875,-35.15625
-45.8984375,-35.15625,-56.640625,-54.19921875
-69.3359375,-46.875,-67.87109375,-68.359375
-54.19921875,-34.66796875,-46.38671875,-48.828125
-37.59765625,-23.4375,-39.55078125,-26.85546875
-39.55078125,-22.94921875,-48.828125,-37.59765625
-57.6171875,-35.15625,-53.7109375,-58.59375
-80.078125,-36.62109375,-62.01171875,-70.3125
-53.7109375,-13.18359375,-42.48046875,-47.36328125
-13.671875,-7.32421875,-28.3203125,-22.94921875
-14.16015625,-19.04296875,-27.83203125,-38.57421875
-43.9453125,-38.0859375,-46.38671875,-67.3828125
-68.359375,-43.9453125,-66.40625,-78.61328125
-61.03515625,-31.25,-53.22265625,-54.6875
-32.71484375,-20.99609375,-39.55078125,-27.34375
-27.34375,-27.34375,-54.6875,-36.62109375
-46.38671875,-42.48046875,-58.59375,-49.8046875
-65.91796875,-47.36328125,-46.875,-55.6640625
-64.453125,-32.71484375,-39.0625,-46.875
-33.203125,-17.08984375,-34.1796875,-21.97265625
-14.16015625,-20.01953125,-33.69140625,-15.13671875
-26.85546875,-36.1328125,-40.52734375,-38.0859375
-59.5703125,-47.36328125,-52.24609375,-66.40625
-61.5234375,-45.8984375,-52.24609375,-60.546875
-29.78515625,-34.66796875,-48.33984375,-35.64453125
-17.08984375,-21.97265625,-49.8046875,-28.3203125
-28.3203125,-40.52734375,-46.875,-48.828125
-53.7109375,-65.91796875,-50.78125,-62.98828125
-43.45703125,-39.55078125,-46.38671875,-29.78515625
-10.7421875,-18.5546875,-44.43359375,-8.30078125
-15.13671875,-31.25,-50.29296875,-33.203125
-35.64453125,-45.8984375,-44.921875,-56.640625
-64.94140625,-59.5703125,-43.9453125,-67.87109375
-72.75390625,-53.7109375,-48.33984375,-64.94140625
-42.96875,-42.48046875,-44.43359375,-42.96875
-22.4609375,-35.15625,-32.71484375,-30.76171875
-29.78515625,-43.9453125,-34.66796875,-50.29296875
-59.08203125,-52.24609375,-56.15234375,-71.2890625
-76.171875,-47.36328125,-68.359375,-75.1953125
-43.9453125,-26.3671875,-41.015625,-39.55078125
-6.8359375,-11.71875,-31.25,-17.08984375
-24.4140625,-37.59765625,-59.08203125,-57.12890625
-64.453125,-63.96484375,-60.05859375,-84.9609375
-81.54296875,-60.05859375,-60.546875,-82.03125
-63.4765625,-37.109375,-52.24609375,-56.640625
-37.59765625,-31.73828125,-37.59765625,-40.52734375
-34.1796875,-37.59765625,-40.0390625,-56.640625
-51.7578125,-44.921875,-45.8984375,-62.98828125
-68.84765625,-53.7109375,-50.78125,-66.40625
-58.10546875,-43.45703125,-40.52734375,-56.640625
-35.64453125,-34.66796875,-38.57421875,-45.8984375
-19.53125,-39.0625,-41.50390625,-47.36328125
-49.8046875,-51.7578125,-55.17578125,-67.87109375
-81.0546875,-54.19921875,-74.21875,-86.9140625
-60.05859375,-38.57421875,-57.12890625,-57.12890625
-31.25,-25.390625,-44.921875,-32.2265625
-25.390625,-34.1796875,-44.921875,-41.50390625
-46.38671875,-62.98828125,-46.875,-69.3359375
-65.91796875,-68.359375,-56.15234375,-80.56640625
-62.5,-42.96875,-52.24609375,-55.17578125
-41.9921875,-33.69140625,-54.19921875,-34.66796875
-41.50390625,-40.0390625,-67.87109375,-43.45703125
-60.546875,-49.31640625,-60.05859375,-53.7109375
-62.98828125,-45.8984375,-43.9453125,-40.0390625
-67.87109375,-46.38671875,-42.48046875,-33.69140625
-54.6875,-49.8046875,-32.71484375,-23.4375
-40.0390625,-38.0859375,-29.78515625,-14.6484375
-51.26953125,-57.6171875,-33.69140625,-41.015625
-74.70703125,-73.73046875,-40.52734375,-62.98828125
-64.453125,-52.734375,-53.22265625,-45.8984375
-21.484375,-34.1796875,-47.36328125,-17.08984375
-9.765625,-33.203125,-36.62109375,-14.6484375
-25.390625,-48.828125,-49.8046875,-34.66796875
-56.15234375,-70.3125,-56.15234375,-54.19921875
-55.17578125,-52.24609375,-34.1796875,-41.015625
-24.4140625,-35.15625,-27.34375,-17.08984375
-25.87890625,-49.31640625,-50.29296875,-26.3671875
-44.43359375,-75.1953125,-65.4296875,-54.6875
-62.5,-80.078125,-58.59375,-72.75390625
-71.2890625,-61.03515625,-47.36328125,-73.73046875
-51.7578125,-53.7109375,-46.38671875,-57.12890625
-25.87890625,-63.4765625,-45.8984375,-41.015625
-41.9921875,-73.73046875,-54.19921875,-55.6640625
-78.61328125,-81.0546875,-56.640625,-73.73046875
-89.35546875,-75.1953125,-60.05859375,-72.265625
-58.10546875,-56.640625,-54.6875,-45.8984375
-30.76171875,-53.22265625,-46.875,-35.64453125
-34.1796875,-66.89453125,-53.22265625,-50.29296875
-56.15234375,-82.51953125,-62.5,-67.87109375
-74.21875,-75.1953125,-51.26953125,-66.40625
-53.7109375,-52.24609375,-37.109375,-38.57421875
-25.87890625,-46.875,-36.1328125,-21.484375
-22.94921875,-58.59375,-46.38671875,-31.25
-49.31640625,-81.54296875,-70.80078125,-53.7109375
-70.3125,-93.26171875,-71.77734375,-62.98828125
-50.29296875,-66.40625,-47.8515625,-37.59765625
-8.30078125,-39.55078125,-30.2734375,-12.20703125
8.30078125,-48.33984375,-33.69140625,-8.7890625
-28.80859375,-71.77734375,-44.43359375,-32.71484375
-67.87109375,-83.0078125,-47.8515625,-62.5
-65.4296875,-59.08203125,-41.015625,-53.22265625
-42.48046875,-47.36328125,-33.203125,-33.203125
-27.34375,-55.6640625,-43.45703125,-32.71484375
-52.734375,-72.265625,-44.43359375,-58.59375
-83.49609375,-85.9375,-50.29296875,-77.63671875
-52.24609375,-64.453125,-55.6640625,-48.828125
-18.06640625,-41.9921875,-35.64453125,-17.578125
-20.01953125,-56.15234375,-19.04296875,-25.87890625
-37.109375,-74.70703125,-30.2734375,-54.6875
-78.125,-75.68359375,-49.8046875,-74.21875
-97.65625,-64.94140625,-52.734375,-58.59375
-83.984375,-49.31640625,-40.52734375,-31.73828125
-70.3125,-51.26953125,-35.64453125,-24.90234375
-84.9609375,-78.125,-48.33984375,-47.8515625
-100.5859375,-89.35546875,-51.26953125,-61.03515625
-93.75,-75.1953125,-47.36328125,-47.8515625
-59.5703125,-58.10546875,-41.9921875,-24.90234375
-26.85546875,-50.29296875,-37.109375,-19.53125
-41.9921875,-56.640625,-48.33984375,-41.9921875
-77.63671875,-76.171875,-63.96484375,-61.5234375
-85.9375,-62.98828125,-61.03515625,-62.01171875
-54.19921875,-39.55078125,-47.36328125,-42.96875
-23.92578125,-57.12890625,-32.71484375,-31.73828125
-25.87890625,-64.453125,-37.109375,-50.29296875
-54.19921875,-67.87109375,-52.24609375,-75.68359375
-73.2421875,-70.3125,-48.828125,-74.70703125
-46.38671875,-39.55078125,-41.015625,-44.43359375
-16.11328125,-35.15625,-53.22265625,-36.62109375
-28.3203125,-65.4296875,-61.03515625,-61.03515625
-58.59375,-76.66015625,-57.12890625,-76.171875
-68.84765625,-67.3828125,-57.12890625,-69.82421875
-50.78125,-42.96875,-55.6640625,-43.9453125
-30.76171875,-24.4140625,-42.96875,-26.85546875
-36.62109375,-40.0390625,-39.0625,-40.52734375
-63.4765625,-76.171875,-54.19921875,-62.98828125
-84.9609375,-80.078125,-56.640625,-69.3359375
-74.21875,-66.40625,-60.05859375,-48.33984375
-34.1796875,-57.12890625,-54.6875,-23.4375
-11.71875,-52.24609375,-35.64453125,-20.01953125
-23.92578125,-63.96484375,-46.875,-35.64453125
-37.59765625,-73.73046875,-57.6171875,-45.8984375
-22.94921875,-59.08203125,-41.015625,-28.80859375
-2.9296875,-29.78515625,-32.2265625,-10.7421875
-16.6015625,-41.9921875,-40.0390625,-21.484375
-52.24609375,-68.359375,-41.9921875,-47.36328125
-78.61328125,-60.546875,-46.38671875,-58.59375
-65.91796875,-41.50390625,-50.29296875,-49.31640625
-41.9921875,-50.78125,-44.921875,-38.57421875
-39.55078125,-62.5,-60.546875,-40.0390625
-54.6875,-61.03515625,-70.3125,-63.4765625
-75.68359375,-52.734375,-54.19921875,-86.42578125
-71.2890625,-32.2265625,-41.9921875,-71.77734375
-46.875,-29.78515625,-33.69140625,-49.8046875
-37.109375,-32.2265625,-35.64453125,-50.29296875
-55.17578125,-46.875,-45.41015625,-72.75390625
-83.49609375,-69.3359375,-64.453125,-88.8671875
-83.49609375,-62.01171875,-70.80078125,-74.21875
-57.12890625,-34.1796875,-59.08203125,-54.6875
-40.0390625,-44.921875,-61.03515625,-56.640625
-49.8046875,-74.70703125,-66.40625,-69.3359375
-82.03125,-73.73046875,-59.5703125,-85.9375
-87.40234375,-59.08203125,-50.29296875,-79.58984375
-48.828125,-42.96875,-44.43359375,-48.828125
-26.3671875,-35.64453125,-40.52734375,-35.15625
-37.59765625,-46.875,-50.29296875,-55.17578125
-54.6875,-63.96484375,-58.59375,-69.3359375
-60.546875,-74.21875,-53.7109375,-63.4765625
-35.15625,-61.03515625,-44.921875,-39.55078125
-16.6015625,-45.41015625,-29.78515625,-26.3671875
-34.1796875,-44.43359375,-39.55078125,-46.38671875
-83.0078125,-69.82421875,-64.453125,-81.54296875
-110.3515625,-79.1015625,-56.15234375,-86.42578125
-69.82421875,-29.78515625,-41.50390625,-44.43359375
-32.2265625,-13.18359375,-42.48046875,-33.69140625
-27.34375,-38.57421875,-36.1328125,-53.22265625
-57.6171875,-57.12890625,-41.50390625,-69.82421875
-83.49609375,-56.640625,-51.26953125,-75.1953125
-71.2890625,-41.015625,-49.8046875,-47.8515625
-47.8515625,-32.2265625,-31.73828125,-24.4140625
-39.0625,-40.0390625,-27.34375,-32.2265625
-66.40625,-40.0390625,-43.45703125,-48.828125
-82.03125,-42.96875,-61.03515625,-57.6171875
-58.59375,-54.19921875,-49.31640625,-38.0859375
-26.3671875,-42.48046875,-35.15625,-20.5078125
-17.578125,-38.57421875,-41.9921875,-27.83203125
-41.015625,-53.22265625,-45.8984375,-49.31640625
-67.87109375,-62.5,-50.78125,-69.82421875
-59.08203125,-46.38671875,-55.17578125,-57.6171875
-30.76171875,-25.390625,-40.52734375,-35.64453125
-29.296875,-34.66796875,-27.34375,-42.48046875
-48.828125,-61.03515625,-43.45703125,-60.546875
-61.5234375,-72.75390625,-41.9921875,-60.05859375
-58.10546875,-50.78125,-36.62109375,-54.6875
-39.55078125,-23.92578125,-46.875,-47.36328125
-30.2734375,-30.2734375,-44.921875,-45.8984375
-47.36328125,-54.19921875,-47.36328125,-71.77734375
-76.171875,-60.05859375,-49.31640625,-91.796875
-95.703125,-71.77734375,-48.828125,-96.6796875
-73.73046875,-59.08203125,-53.22265625,-72.75390625
-42.48046875,-25.390625,-50.78125,-46.38671875
-57.6171875,-37.109375,-43.9453125,-70.80078125
-90.8203125,-54.19921875,-47.36328125,-96.6796875
-83.0078125,-42.48046875,-52.24609375,-86.9140625
-45.41015625,-20.01953125,-46.875,-57.12890625
-21.97265625,-23.4375,-45.41015625,-45.41015625
-33.69140625,-47.36328125,-46.38671875,-63.96484375
-67.3828125,-67.87109375,-62.01171875,-82.51953125
-73.73046875,-67.87109375,-65.4296875,-76.171875
-40.0390625,-45.41015625,-54.19921875,-48.33984375
-5.859375,-37.59765625,-47.8515625,-28.80859375
-13.671875,-50.78125,-48.828125,-41.50390625
-49.31640625,-52.734375,-62.01171875,-67.87109375
-64.94140625,-48.828125,-71.2890625,-72.265625
-51.26953125,-34.66796875,-50.78125,-42.48046875
-39.55078125,-31.73828125,-29.78515625,-32.2265625
-50.29296875,-52.734375,-46.875,-48.828125
-79.1015625,-63.96484375,-58.10546875,-71.77734375
-88.8671875,-60.05859375,-53.22265625,-76.171875
-62.98828125,-47.8515625,-51.26953125,-42.96875
-41.9921875,-39.55078125,-46.38671875,-27.34375
-47.36328125,-50.29296875,-50.78125,-41.015625
-70.3125,-62.5,-54.19921875,-63.4765625
-95.21484375,-60.05859375,-57.12890625,-74.70703125
-80.56640625,-42.96875,-52.734375,-55.6640625
-44.921875,-30.2734375,-57.12890625,-40.52734375
-34.1796875,-33.203125,-62.01171875,-45.41015625
-46.38671875,-38.57421875,-65.4296875,-61.03515625
-66.40625,-59.5703125,-64.94140625,-72.75390625
-54.6875,-58.59375,-50.78125,-55.6640625
-25.87890625,-29.78515625,-41.015625,-30.2734375
-15.13671875,-38.0859375,-46.38671875,-29.78515625
-30.2734375,-61.5234375,-55.17578125,-47.8515625
-58.10546875,-65.4296875,-57.12890625,-54.6875
-45.8984375,-43.45703125,-48.828125,-33.69140625
-15.625,-27.83203125,-37.109375,-13.18359375
-20.01953125,-39.0625,-36.1328125,-17.578125
-49.31640625,-50.29296875,-46.38671875,-43.45703125
-77.63671875,-53.7109375,-54.19921875,-64.94140625
-83.0078125,-50.29296875,-49.8046875,-62.5
-66.40625,-39.0625,-36.62109375,-43.9453125
-66.40625,-47.8515625,-29.296875,-43.45703125
-69.82421875,-59.08203125,-28.3203125,-48.828125
-91.796875,-62.98828125,-35.64453125,-70.3125
-115.234375,-59.08203125,-33.203125,-96.19140625
-83.984375,-34.66796875,-17.578125,-66.89453125
-75.1953125,-37.109375,-24.90234375,-71.2890625
-103.02734375,-49.31640625,-36.1328125,-118.65234375
-122.55859375,-46.38671875,-37.59765625,-140.625
-131.34765625,-38.0859375,-42.48046875,-151.85546875
-108.3984375,-15.625,-31.25,-142.578125
-88.37890625,-4.8828125,-27.34375,-135.25390625
-112.79296875,-24.4140625,-36.62109375,-162.109375
-143.5546875,-44.43359375,-40.52734375,-178.22265625
-156.25,-26.3671875,-44.921875,-175.78125
-138.671875,-10.25390625,-37.109375,-162.59765625
-120.60546875,-20.5078125,-36.62109375,-154.296875
-118.1640625,-18.5546875,-45.8984375,-162.59765625
-134.27734375,-21.484375,-60.546875,-174.8046875
-147.4609375,-20.5078125,-58.10546875,-166.50390625
-125.0,0.0,-46.875,-137.6953125
-96.6796875,16.11328125,-44.43359375,-121.58203125
-96.19140625,7.8125,-49.8046875,-135.7421875
-114.74609375,-5.859375,-59.08203125,-153.3203125
-124.51171875,-7.32421875,-62.01171875,-150.390625
-107.421875,14.16015625,-62.5,-125.0
-76.171875,34.66796875,-63.96484375,-106.93359375
-71.77734375,12.6953125,-57.12890625,-110.3515625
-104.98046875,-16.11328125,-62.01171875,-132.8125
-129.39453125,-19.04296875,-74.70703125,-148.92578125
-107.91015625,-3.90625,-75.1953125,-122.55859375
-71.77734375,9.765625,-74.21875,-98.14453125
-56.15234375,8.7890625,-61.03515625,-100.5859375
-72.265625,-9.765625,-62.98828125,-123.046875
-94.7265625,-14.6484375,-74.21875,-138.18359375
-83.49609375,23.4375,-68.359375,-120.60546875
-48.828125,50.78125,-62.98828125,-93.26171875
-35.15625,46.875,-66.89453125,-90.33203125
-56.640625,46.875,-75.1953125,-102.05078125
-83.0078125,41.9921875,-84.9609375,-109.86328125
-74.21875,40.0390625,-80.078125,-84.47265625
-36.62109375,52.734375,-72.75390625,-41.50390625
-20.5078125,66.89453125,-64.453125,-42.48046875
-45.41015625,52.734375,-66.89453125,-75.68359375
-74.21875,27.83203125,-76.66015625,-94.7265625
-67.87109375,38.57421875,-70.3125,-75.68359375
-30.2734375,53.22265625,-63.4765625,-40.0390625
-9.27734375,54.19921875,-61.5234375,-26.85546875
-22.4609375,37.109375,-64.94140625,-54.6875
-50.29296875,18.06640625,-80.56640625,-79.58984375
-52.734375,26.85546875,-72.265625,-57.12890625
-17.08984375,42.48046875,-50.29296875,-20.99609375
12.6953125,41.9921875,-55.6640625,-15.13671875
3.41796875,27.34375,-70.3125,-40.0390625
-20.99609375,12.20703125,-75.1953125,-56.640625
-25.87890625,19.04296875,-69.82421875,-52.734375
-21.97265625,28.80859375,-54.6875,-32.2265625
-8.7890625,25.87890625,-44.43359375,-8.7890625
-17.578125,11.71875,-52.24609375,-28.80859375
-55.6640625,-5.37109375,-68.359375,-63.96484375
-55.17578125,-6.8359375,-74.21875,-53.22265625
-14.6484375,13.671875,-60.546875,-20.5078125
15.13671875,30.76171875,-51.26953125,-1.953125
27.34375,10.7421875,-59.5703125,-2.44140625
6.8359375,-19.53125,-66.89453125,-21.97265625
-19.04296875,-34.66796875,-69.82421875,-24.90234375
9.27734375,-27.83203125,-52.24609375,17.08984375
40.0390625,-15.625,-34.1796875,47.8515625
36.1328125,-22.4609375,-49.8046875,31.25
24.4140625,-36.1328125,-64.453125,20.99609375
4.39453125,-51.7578125,-68.359375,12.20703125
2.9296875,-41.50390625,-60.546875,24.4140625
39.0625,-36.1328125,-46.875,59.5703125
59.08203125,-50.29296875,-49.8046875,63.4765625
36.62109375,-49.31640625,-62.5,45.8984375
12.6953125,-59.5703125,-66.40625,43.9453125
22.94921875,-61.03515625,-51.26953125,64.94140625
72.265625,-35.15625,-23.4375,111.81640625
84.47265625,-50.78125,-27.34375,119.62890625
41.50390625,-90.33203125,-48.33984375,69.82421875
6.8359375,-96.19140625,-47.36328125,46.38671875
23.4375,-77.63671875,-33.69140625,70.80078125
62.98828125,-62.5,-22.4609375,104.00390625
63.96484375,-61.03515625,-33.203125,93.75
50.78125,-77.63671875,-40.52734375,61.5234375
34.1796875,-96.19140625,-43.45703125,40.52734375
31.73828125,-80.56640625,-40.52734375,49.31640625
57.12890625,-59.08203125,-35.15625,77.1484375
81.54296875,-59.08203125,-37.109375,85.44921875
77.1484375,-74.21875,-48.828125,58.59375
50.29296875,-81.54296875,-62.01171875,30.76171875
41.015625,-72.265625,-59.5703125,33.203125
71.77734375,-51.26953125,-31.25,62.98828125
82.51953125,-45.41015625,-20.5078125,78.125
51.7578125,-62.5,-35.15625,46.38671875
20.01953125,-76.66015625,-53.22265625,19.04296875
15.13671875,-65.4296875,-49.8046875,28.80859375
43.45703125,-44.43359375,-25.390625,60.05859375
52.24609375,-35.64453125,-23.92578125,69.3359375
26.85546875,-56.640625,-36.1328125,38.57421875
7.8125,-78.125,-39.0625,16.6015625
0.0,-71.2890625,-37.59765625,18.5546875
15.625,-56.640625,-41.50390625,42.48046875
33.69140625,-50.29296875,-37.109375,58.10546875
12.20703125,-67.87109375,-35.15625,24.90234375
-17.08984375,-83.0078125,-35.15625,-5.37109375
-30.76171875,-70.80078125,-42.48046875,-7.8125
-10.25390625,-40.52734375,-39.0625,15.13671875
21.484375,-34.66796875,-43.45703125,29.78515625
29.78515625,-46.38671875,-51.26953125,7.8125
17.578125,-44.921875,-52.24609375,-23.4375
-6.34765625,-51.7578125,-64.453125,-36.62109375
-12.20703125,-49.31640625,-56.640625,-13.18359375
13.18359375,-28.3203125,-44.921875,9.27734375
16.11328125,-35.64453125,-46.38671875,-4.39453125
0.9765625,-42.48046875,-48.828125,-26.3671875
-9.765625,-41.015625,-51.7578125,-35.15625
-32.2265625,-40.52734375,-65.91796875,-25.87890625
-20.99609375,-32.2265625,-61.5234375,-10.25390625
-8.7890625,-38.0859375,-48.33984375,-21.484375
-50.78125,-53.22265625,-51.7578125,-54.6875
-84.47265625,-63.4765625,-53.22265625,-68.84765625
-76.66015625,-60.05859375,-44.921875,-45.41015625
-35.64453125,-35.64453125,-22.4609375,0.48828125
-13.671875,-24.90234375,-16.11328125,11.71875
-49.31640625,-51.7578125,-46.875,-39.55078125
-73.73046875,-64.94140625,-62.01171875,-65.4296875
-58.59375,-48.828125,-62.01171875,-41.50390625
-20.99609375,-33.203125,-53.7109375,-10.7421875
-9.765625,-39.0625,-49.31640625,-11.23046875
-31.73828125,-47.8515625,-41.9921875,-39.0625
-62.5,-58.59375,-33.203125,-61.5234375
-62.5,-60.546875,-28.3203125,-46.875
-27.34375,-44.921875,-28.80859375,-9.765625
-7.32421875,-26.3671875,-34.66796875,4.39453125
-20.5078125,-38.0859375,-29.78515625,-18.06640625
-56.640625,-78.125,-43.45703125,-61.03515625
-74.70703125,-83.0078125,-54.19921875,-69.82421875
-41.9921875,-48.828125,-44.43359375,-27.34375
-18.5546875,-32.71484375,-45.8984375,-10.25390625
-38.57421875,-47.8515625,-53.22265625,-52.734375
-69.82421875,-53.22265625,-57.12890625,-82.03125
-80.56640625,-53.22265625,-55.6640625,-78.61328125
-66.89453125,-47.36328125,-34.1796875,-48.828125
-48.828125,-41.015625,-26.85546875,-32.71484375
-49.31640625,-54.19921875,-39.55078125,-59.5703125
-63.96484375,-52.734375,-44.921875,-75.1953125
-68.84765625,-52.24609375,-44.921875,-69.3359375
-51.26953125,-47.36328125,-39.55078125,-41.50390625
-32.71484375,-38.0859375,-35.15625,-18.5546875
-34.1796875,-47.36328125,-43.9453125,-31.25
-66.40625,-62.01171875,-56.15234375,-63.96484375
-91.30859375,-70.80078125,-58.10546875,-82.51953125
-68.359375,-58.59375,-48.828125,-48.33984375
-31.73828125,-37.109375,-36.1328125,-15.625
-31.73828125,-43.9453125,-37.59765625,-30.76171875
-62.01171875,-71.77734375,-48.33984375,-63.4765625
-80.56640625,-76.171875,-53.22265625,-72.265625
-63.96484375,-52.734375,-50.78125,-41.9921875
-36.62109375,-36.62109375,-37.59765625,-13.18359375
-35.15625,-50.29296875,-39.0625,-21.97265625
-54.6875,-65.4296875,-54.19921875,-49.8046875
-66.40625,-62.01171875,-54.6875,-63.4765625
-59.5703125,-51.26953125,-52.734375,-49.8046875
-33.69140625,-38.0859375,-41.50390625,-19.53125
-24.4140625,-38.57421875,-35.15625,-23.92578125
-44.43359375,-53.7109375,-53.7109375,-63.4765625
-68.359375,-56.640625,-65.91796875,-83.0078125
-66.40625,-43.9453125,-52.734375,-61.03515625
-34.1796875,-31.25,-40.52734375,-32.71484375
-10.7421875,-32.2265625,-45.41015625,-31.73828125
-29.78515625,-55.6640625,-61.03515625,-62.5
-64.453125,-68.84765625,-60.05859375,-86.42578125
-61.5234375,-54.19921875,-41.9921875,-60.05859375
-33.69140625,-42.96875,-35.15625,-25.87890625
-32.2265625,-38.57421875,-38.57421875,-24.4140625
-50.78125,-55.6640625,-47.8515625,-53.22265625
-71.77734375,-65.4296875,-54.19921875,-77.63671875
-67.87109375,-55.17578125,-50.29296875,-66.40625
-29.78515625,-39.55078125,-44.43359375,-27.34375
-10.25390625,-28.3203125,-41.9921875,-16.11328125
-37.109375,-45.41015625,-45.8984375,-50.78125
-76.171875,-56.640625,-61.5234375,-83.0078125
-89.84375,-53.22265625,-64.94140625,-82.51953125
-53.7109375,-44.43359375,-44.921875,-43.9453125
-17.08984375,-34.66796875,-34.1796875,-15.13671875
-31.73828125,-48.828125,-48.33984375,-50.29296875
-63.4765625,-65.91796875,-59.5703125,-88.8671875
-66.89453125,-58.59375,-50.78125,-83.0078125
-46.875,-43.45703125,-38.0859375,-51.7578125
-34.66796875,-39.55078125,-35.64453125,-29.296875
-35.64453125,-41.015625,-45.41015625,-41.50390625
-60.546875,-53.7109375,-65.91796875,-76.66015625
-75.68359375,-58.59375,-64.94140625,-85.44921875
-54.19921875,-34.66796875,-39.55078125,-47.8515625
-31.73828125,-24.90234375,-29.78515625,-18.06640625
-18.06640625,-50.78125,-37.109375,-14.6484375
-31.25,-74.21875,-49.31640625,-43.9453125
-78.61328125,-77.63671875,-63.96484375,-85.44921875
-84.47265625,-51.7578125,-54.6875,-69.82421875
-31.73828125,-29.78515625,-31.73828125,-26.3671875
-13.671875,-30.76171875,-30.76171875,-32.71484375
-47.8515625,-46.875,-52.24609375,-64.94140625
-66.40625,-56.640625,-57.6171875,-71.2890625
-59.08203125,-44.921875,-47.36328125,-43.45703125
-36.1328125,-34.1796875,-33.203125,-13.671875
-19.53125,-31.73828125,-29.78515625,-14.16015625
-37.59765625,-53.7109375,-45.8984375,-44.921875
-62.01171875,-69.82421875,-54.19921875,-69.82421875
-43.45703125,-54.19921875,-46.875,-53.7109375
-14.6484375,-38.0859375,-40.52734375,-22.94921875
-18.06640625,-47.8515625,-48.828125,-27.34375
-39.0625,-63.4765625,-60.05859375,-63.4765625
-62.98828125,-68.359375,-66.89453125,-84.47265625
-57.12890625,-49.8046875,-58.10546875,-62.98828125
-27.34375,-32.71484375,-40.52734375,-29.296875
-20.01953125,-34.1796875,-38.0859375,-26.3671875
-48.33984375,-40.52734375,-50.29296875,-59.08203125
-87.890625,-50.78125,-61.5234375,-88.37890625
-72.265625,-47.36328125,-57.6171875,-67.87109375
-28.80859375,-39.55078125,-51.7578125,-29.296875
-14.6484375,-41.9921875,-50.78125,-23.4375
-18.5546875,-55.17578125,-54.6875,-51.26953125
-44.921875,-64.94140625,-55.6640625,-70.80078125
-52.734375,-48.828125,-41.9921875,-48.828125
-24.90234375,-36.62109375,-29.296875,-14.16015625
-7.8125,-34.66796875,-28.3203125,-8.30078125
-13.18359375,-33.69140625,-38.57421875,-32.71484375
-43.9453125,-47.36328125,-56.15234375,-61.5234375
-63.4765625,-46.875,-60.05859375,-66.40625
-29.296875,-24.4140625,-37.59765625,-27.83203125
9.27734375,-13.671875,-12.6953125,5.859375
-7.8125,-37.109375,-27.83203125,-29.296875
-51.7578125,-57.12890625,-46.875,-71.2890625
-79.58984375,-58.59375,-48.828125,-72.265625
-60.05859375,-44.921875,-42.48046875,-41.9921875
-34.1796875,-33.69140625,-41.015625,-19.04296875
-40.52734375,-49.31640625,-50.78125,-41.015625
-68.359375,-64.94140625,-51.7578125,-72.265625
-88.8671875,-62.98828125,-48.828125,-80.078125
-69.82421875,-47.36328125,-42.48046875,-49.31640625
-38.57421875,-35.64453125,-37.109375,-28.80859375
-41.9921875,-41.50390625,-43.45703125,-50.78125
-65.4296875,-58.59375,-54.6875,-77.1484375
-83.49609375,-71.2890625,-62.01171875,-95.21484375
-73.2421875,-55.6640625,-55.6640625,-72.265625
-40.52734375,-37.59765625,-44.43359375,-40.0390625
-31.25,-44.43359375,-44.43359375,-55.6640625
-54.6875,-58.59375,-58.59375,-90.8203125
-85.44921875,-62.98828125,-68.359375,-105.95703125
-87.40234375,-50.78125,-57.6171875,-84.9609375
-63.96484375,-36.1328125,-42.48046875,-57.6171875
-64.94140625,-47.8515625,-47.36328125,-72.265625
-87.40234375,-60.546875,-56.640625,-109.375
-115.72265625,-59.5703125,-55.17578125,-130.37109375
-120.1171875,-53.22265625,-45.8984375,-116.2109375
-111.81640625,-44.921875,-35.64453125,-97.16796875
-104.4921875,-34.1796875,-22.94921875,-90.33203125
-90.8203125,-30.76171875,-8.7890625,-96.6796875
-148.92578125,-57.12890625,-32.71484375,-147.4609375
-194.3359375,-61.03515625,-47.36328125,-159.1796875
-161.62109375,-43.9453125,-33.203125,-129.39453125
-138.18359375,-35.64453125,-27.83203125,-124.51171875
-159.66796875,-45.41015625,-42.48046875,-163.57421875
-184.08203125,-59.08203125,-55.17578125,-196.2890625
-179.19921875,-41.50390625,-48.33984375,-183.10546875
-155.76171875,-21.97265625,-35.64453125,-155.2734375
-131.8359375,-21.484375,-39.0625,-145.5078125
-136.23046875,-34.66796875,-54.6875,-174.31640625
-143.5546875,-42.96875,-40.0390625,-178.22265625
-146.484375,-31.73828125,-32.71484375,-162.109375
-137.6953125,-21.484375,-41.015625,-150.390625
-105.46875,-18.06640625,-39.0625,-130.859375
-95.21484375,-27.83203125,-44.43359375,-146.484375
-118.1640625,-39.55078125,-50.78125,-169.921875
-141.11328125,-44.43359375,-56.15234375,-166.015625
-122.0703125,-28.3203125,-44.43359375,-115.234375
-103.02734375,-14.6484375,-35.15625,-90.33203125
-111.81640625,-24.90234375,-48.33984375,-115.234375
-126.953125,-40.52734375,-63.96484375,-136.71875
-128.90625,-41.50390625,-58.59375,-138.18359375
-103.515625,-18.5546875,-42.96875,-91.796875
-80.078125,-13.18359375,-43.45703125,-72.265625
-79.1015625,-29.78515625,-46.38671875,-99.609375
-102.05078125,-47.8515625,-51.26953125,-131.8359375
-108.88671875,-47.36328125,-50.29296875,-136.71875
-96.19140625,-29.78515625,-44.921875,-93.75
-82.51953125,-19.53125,-43.45703125,-66.40625
-83.0078125,-27.34375,-36.1328125,-77.1484375
-111.328125,-44.43359375,-49.8046875,-115.72265625
-119.62890625,-46.875,-71.77734375,-135.7421875
-106.93359375,-44.43359375,-63.96484375,-98.14453125
-76.66015625,-40.52734375,-35.15625,-62.5
-55.6640625,-25.87890625,-32.2265625,-71.77734375
-79.58984375,-35.64453125,-59.08203125,-110.3515625
-89.35546875,-40.52734375,-66.40625,-129.8828125
-84.47265625,-22.94921875,-59.5703125,-114.2578125
-62.01171875,-16.11328125,-59.08203125,-79.1015625
-43.45703125,-25.390625,-57.6171875,-63.96484375
-56.640625,-39.0625,-58.10546875,-83.49609375
-77.1484375,-48.33984375,-75.1953125,-100.09765625
-76.66015625,-41.015625,-69.3359375,-83.49609375
-44.921875,-25.390625,-46.875,-50.78125
-27.34375,-22.94921875,-37.109375,-31.25
-26.3671875,-30.76171875,-23.4375,-26.85546875
-58.10546875,-50.78125,-37.59765625,-54.6875
-65.91796875,-58.10546875,-52.24609375,-54.6875
-26.85546875,-41.015625,-39.55078125,-17.08984375
-6.8359375,-36.62109375,-35.15625,-5.37109375
-5.859375,-57.12890625,-48.33984375,-29.296875
-17.578125,-62.98828125,-58.10546875,-45.41015625
-21.97265625,-55.17578125,-52.734375,-20.99609375
-1.953125,-46.38671875,-46.38671875,20.01953125
13.18359375,-41.015625,-52.24609375,32.71484375
-0.9765625,-62.01171875,-73.2421875,0.48828125
-4.8828125,-64.94140625,-61.03515625,-5.37109375
-3.90625,-57.6171875,-39.0625,4.8828125
0.48828125,-61.03515625,-44.921875,12.20703125
29.78515625,-56.640625,-40.52734375,33.203125
36.62109375,-70.80078125,-31.25,23.4375
7.32421875,-87.40234375,-44.921875,-5.859375
-16.11328125,-84.47265625,-56.15234375,-14.16015625
3.41796875,-61.5234375,-37.109375,27.34375
26.85546875,-56.15234375,-31.73828125,47.8515625
17.578125,-73.2421875,-38.57421875,19.53125
-19.04296875,-82.51953125,-51.7578125,-9.765625
-25.87890625,-74.21875,-56.15234375,-8.7890625
16.6015625,-45.8984375,-36.1328125,41.9921875
33.69140625,-46.875,-44.43359375,57.12890625
24.90234375,-65.91796875,-59.08203125,29.296875
4.8828125,-74.70703125,-68.359375,0.9765625
-15.13671875,-83.49609375,-70.3125,-15.625
-5.37109375,-69.82421875,-54.19921875,9.27734375
20.99609375,-59.5703125,-54.19921875,33.203125
43.9453125,-59.5703125,-47.8515625,36.62109375
18.5546875,-72.75390625,-40.52734375,4.8828125
-26.85546875,-87.40234375,-52.734375,-27.34375
-17.578125,-69.3359375,-45.41015625,2.9296875
21.97265625,-41.9921875,-34.1796875,35.15625
36.1328125,-37.109375,-34.66796875,29.78515625
15.625,-60.546875,-52.734375,-1.46484375
-15.13671875,-74.21875,-66.40625,-25.390625
5.859375,-49.31640625,-39.55078125,7.8125
34.66796875,-34.1796875,-28.80859375,38.0859375
32.2265625,-44.43359375,-39.0625,17.578125
21.484375,-62.01171875,-45.8984375,-18.06640625
-16.6015625,-79.1015625,-60.05859375,-41.015625
-25.390625,-57.6171875,-60.05859375,-23.4375
-1.46484375,-41.50390625,-53.22265625,7.32421875
10.25390625,-48.828125,-48.828125,20.01953125
14.6484375,-46.875,-47.36328125,14.16015625
-13.18359375,-69.3359375,-67.87109375,-17.578125
-28.3203125,-70.80078125,-72.265625,-16.11328125
-1.46484375,-43.45703125,-43.45703125,15.13671875
18.5546875,-30.76171875,-23.92578125,19.53125
8.7890625,-39.55078125,-39.55078125,-13.671875
-22.4609375,-58.10546875,-61.03515625,-50.78125
-31.25,-52.734375,-55.6640625,-41.50390625
-7.8125,-32.2265625,-37.109375,-2.9296875
5.859375,-37.109375,-41.9921875,-0.9765625
-5.859375,-54.6875,-55.6640625,-27.34375
-47.8515625,-70.80078125,-66.89453125,-49.31640625
-63.4765625,-71.77734375,-66.40625,-48.828125
-33.203125,-48.828125,-44.921875,-15.13671875
-20.01953125,-48.828125,-42.96875,-2.9296875
-2.44140625,-45.8984375,-37.59765625,-3.90625
-19.04296875,-40.52734375,-25.87890625,-18.5546875
-68.84765625,-59.08203125,-49.31640625,-46.38671875
-57.12890625,-53.22265625,-47.36328125,-21.97265625
-25.390625,-41.50390625,-28.3203125,0.9765625
-14.16015625,-46.38671875,-35.15625,-18.5546875
-40.52734375,-59.08203125,-48.828125,-52.24609375
-63.4765625,-61.03515625,-54.6875,-63.96484375
-41.015625,-49.31640625,-52.24609375,-26.3671875
-19.53125,-33.69140625,-39.55078125,-6.34765625
-26.85546875,-49.8046875,-43.45703125,-38.57421875
-33.69140625,-62.01171875,-45.8984375,-55.17578125
-39.0625,-47.8515625,-29.78515625,-45.41015625
-48.828125,-50.78125,-34.66796875,-30.76171875
-33.203125,-50.29296875,-37.59765625,-11.71875
-29.78515625,-53.22265625,-42.96875,-20.01953125
-51.7578125,-68.359375,-60.05859375,-52.734375
-74.21875,-81.0546875,-60.546875,-73.73046875
-76.66015625,-77.63671875,-44.921875,-55.17578125
-45.8984375,-53.22265625,-29.296875,-14.16015625
-30.2734375,-31.73828125,-26.85546875,-4.39453125
-46.875,-22.4609375,-33.69140625,-39.0625
-74.21875,-34.1796875,-50.29296875,-71.77734375
-47.8515625,-8.7890625,-24.4140625,-28.80859375
-10.25390625,22.4609375,-10.25390625,11.23046875
-24.4140625,6.8359375,-42.48046875,-17.08984375
-33.69140625,-3.41796875,-47.8515625,-43.45703125
-47.8515625,-10.7421875,-47.8515625,-58.59375
-59.5703125,-11.71875,-52.734375,-54.19921875
-39.55078125,-4.39453125,-51.7578125,-32.2265625
-23.92578125,-0.9765625,-45.8984375,-24.4140625
-32.71484375,-4.39453125,-48.33984375,-51.7578125
-54.19921875,-20.01953125,-54.6875,-82.03125
-58.59375,-10.7421875,-60.05859375,-77.1484375
-31.25,7.32421875,-50.78125,-35.15625
-8.30078125,8.30078125,-29.78515625,-6.8359375
-30.2734375,-15.625,-44.43359375,-44.921875
-63.4765625,-33.69140625,-61.03515625,-77.63671875
-78.61328125,-27.83203125,-57.12890625,-74.70703125
-53.7109375,-10.7421875,-48.828125,-41.015625
-21.97265625,-3.41796875,-45.41015625,-21.484375
-31.25,-23.4375,-54.6875,-47.36328125
-43.45703125,-25.390625,-45.41015625,-62.5
-51.7578125,-30.2734375,-43.45703125,-63.96484375
-47.8515625,-29.296875,-47.8515625,-42.48046875
-38.0859375,-16.6015625,-45.8984375,-22.94921875
-30.2734375,-26.3671875,-37.59765625,-29.296875
-48.33984375,-41.9921875,-45.8984375,-62.01171875
-84.9609375,-51.26953125,-65.91796875,-98.14453125
-61.5234375,-32.71484375,-61.5234375,-66.89453125
-22.4609375,-20.5078125,-54.6875,-33.203125
-28.3203125,-36.62109375,-51.26953125,-39.55078125
-67.3828125,-55.17578125,-55.17578125,-66.89453125
-101.07421875,-50.78125,-53.7109375,-74.21875
-82.51953125,-37.59765625,-42.96875,-39.0625
-43.45703125,-30.2734375,-33.69140625,-9.765625
-32.2265625,-31.25,-41.50390625,-23.4375
-39.0625,-41.50390625,-50.78125,-47.8515625
-52.24609375,-41.9921875,-47.8515625,-58.59375
-63.4765625,-40.52734375,-49.8046875,-53.22265625
-41.50390625,-36.62109375,-46.38671875,-29.296875
-19.04296875,-34.1796875,-43.9453125,-22.94921875
-33.69140625,-43.9453125,-57.12890625,-61.03515625
-70.80078125,-57.6171875,-61.5234375,-94.7265625
-66.40625,-50.29296875,-48.33984375,-71.77734375
-34.66796875,-32.2265625,-41.9921875,-32.71484375
-29.296875,-28.3203125,-42.48046875,-24.90234375
-54.6875,-45.41015625,-50.78125,-56.640625
-84.9609375,-60.546875,-56.640625,-92.7734375
-79.1015625,-41.015625,-46.875,-78.61328125
-45.41015625,-20.99609375,-35.15625,-31.73828125
-29.296875,-30.2734375,-40.52734375,-19.53125
-45.8984375,-54.6875,-60.546875,-57.12890625
-76.171875,-68.359375,-67.3828125,-87.40234375
-88.37890625,-57.6171875,-55.17578125,-71.77734375
-62.01171875,-38.57421875,-39.55078125,-31.73828125
-35.15625,-31.25,-34.66796875,-17.578125
-44.921875,-46.875,-41.9921875,-47.8515625
-74.21875,-67.3828125,-55.6640625,-80.078125
-85.9375,-67.87109375,-65.4296875,-78.125
-53.7109375,-43.45703125,-51.7578125,-34.66796875
4.8828125,3.90625,-11.71875,20.01953125
1.953125,-7.8125,-11.71875,-6.34765625
-58.10546875,-58.59375,-50.29296875,-78.61328125
-75.68359375,-56.15234375,-53.7109375,-86.9140625
-53.7109375,-41.015625,-43.45703125,-48.828125
-44.921875,-41.50390625,-33.203125,-20.5078125
-61.03515625,-47.36328125,-40.52734375,-41.9921875
-76.171875,-61.03515625,-58.10546875,-74.70703125
-73.73046875,-65.91796875,-58.59375,-69.3359375
-51.26953125,-43.45703125,-45.8984375,-34.1796875
-36.62109375,-40.0390625,-44.921875,-16.11328125
-42.96875,-44.921875,-58.59375,-39.0625
-70.3125,-42.96875,-67.87109375,-76.66015625
-92.7734375,-47.8515625,-65.91796875,-93.26171875
-73.2421875,-33.203125,-60.05859375,-68.359375
-20.01953125,0.0,-39.55078125,-17.578125
-11.71875,-1.953125,-37.59765625,-20.5078125
-52.24609375,-34.66796875,-66.40625,-73.73046875
-71.2890625,-42.48046875,-73.2421875,-95.21484375
-65.4296875,-26.3671875,-62.5,-63.96484375
-27.83203125,-14.6484375,-51.7578125,-20.5078125
-15.13671875,-24.90234375,-53.22265625,-28.3203125
-44.43359375,-45.8984375,-62.5,-66.89453125
-65.4296875,-54.19921875,-65.4296875,-87.40234375
-53.22265625,-44.43359375,-70.3125,-71.2890625
-24.90234375,-39.0625,-70.80078125,-42.48046875
-11.71875,-27.34375,-51.7578125,-29.78515625
-28.3203125,-27.83203125,-36.62109375,-55.17578125
-74.21875,-63.4765625,-56.15234375,-88.8671875
-82.03125,-64.453125,-62.98828125,-77.1484375
-50.29296875,-38.0859375,-45.41015625,-39.0625
-30.2734375,-27.83203125,-33.69140625,-20.5078125
-40.0390625,-43.9453125,-46.38671875,-54.6875
-63.4765625,-60.05859375,-67.3828125,-85.44921875
-71.2890625,-43.9453125,-64.453125,-67.3828125
-52.24609375,-28.80859375,-48.33984375,-24.4140625
-35.15625,-21.97265625,-39.0625,-1.953125
-51.7578125,-46.38671875,-45.8984375,-35.15625
-56.640625,-59.5703125,-43.45703125,-61.5234375
-43.9453125,-34.1796875,-45.8984375,-46.875
-37.109375,-31.73828125,-61.5234375,-26.3671875
-26.3671875,-42.96875,-44.43359375,-19.04296875
-38.0859375,-56.15234375,-41.50390625,-50.78125
-75.1953125,-70.80078125,-54.19921875,-89.35546875
-94.7265625,-68.359375,-54.6875,-90.33203125
-61.5234375,-42.96875,-42.96875,-43.9453125
-31.73828125,-36.62109375,-39.55078125,-13.18359375
-41.50390625,-50.29296875,-55.6640625,-40.52734375
-67.3828125,-58.10546875,-59.5703125,-78.125
-88.37890625,-69.82421875,-62.98828125,-82.51953125
-73.2421875,-65.91796875,-50.29296875,-42.96875
-43.45703125,-49.8046875,-28.80859375,-12.20703125
-47.8515625,-61.03515625,-45.41015625,-39.0625
-58.10546875,-57.12890625,-48.33984375,-62.98828125
-65.4296875,-41.015625,-29.296875,-62.01171875
-68.84765625,-38.0859375,-31.25,-45.8984375
-42.96875,-38.0859375,-26.3671875,-20.5078125
-28.80859375,-44.43359375,-24.4140625,-27.34375
-47.36328125,-55.17578125,-36.62109375,-61.5234375
-79.58984375,-67.87109375,-56.15234375,-92.28515625
-67.87109375,-51.7578125,-47.8515625,-62.01171875
-17.578125,-29.78515625,-28.3203125,-11.71875
2.9296875,-35.64453125,-34.1796875,-18.06640625
-22.94921875,-54.19921875,-56.640625,-66.89453125
-58.59375,-68.359375,-68.359375,-93.26171875
-62.5,-54.19921875,-60.05859375,-60.05859375
-38.57421875,-31.73828125,-42.48046875,-12.6953125
-34.1796875,-43.45703125,-43.45703125,-15.625
-50.29296875,-55.17578125,-50.29296875,-51.26953125
-61.03515625,-49.31640625,-46.875,-67.87109375
-61.5234375,-46.38671875,-46.38671875,-51.7578125
-40.52734375,-42.48046875,-41.9921875,-25.390625
-28.3203125,-34.66796875,-37.59765625,-19.53125
-36.1328125,-31.25,-33.69140625,-35.15625
-90.8203125,-58.10546875,-55.17578125,-82.51953125
-115.72265625,-56.15234375,-63.96484375,-80.078125
-69.82421875,-35.15625,-48.33984375,-32.71484375
-45.8984375,-36.1328125,-49.8046875,-22.4609375
-55.6640625,-49.8046875,-60.05859375,-57.6171875
-74.70703125,-59.5703125,-65.91796875,-92.7734375
-81.0546875,-47.36328125,-60.546875,-75.1953125
-56.640625,-31.73828125,-48.828125,-29.78515625
-39.55078125,-36.62109375,-44.43359375,-4.39453125
-45.41015625,-52.24609375,-61.5234375,-37.59765625
-35.15625,-36.1328125,-52.734375,-64.94140625
-37.109375,-24.90234375,-33.69140625,-48.33984375
-51.7578125,-36.1328125,-54.6875,-29.296875
-42.96875,-35.64453125,-59.5703125,-16.11328125
-43.9453125,-46.38671875,-53.22265625,-41.015625
-68.84765625,-56.15234375,-61.03515625,-72.75390625
-81.0546875,-52.734375,-70.3125,-74.21875
-54.6875,-35.64453125,-59.08203125,-28.3203125
-35.15625,-24.4140625,-47.36328125,4.39453125
-30.76171875,-37.59765625,-46.38671875,-19.04296875
-41.50390625,-53.22265625,-55.6640625,-61.5234375
-57.12890625,-50.29296875,-66.40625,-72.75390625
-41.50390625,-26.3671875,-48.828125,-27.83203125
-3.90625,-13.18359375,-37.59765625,6.34765625
-17.578125,-39.0625,-58.10546875,-24.4140625
-51.26953125,-54.19921875,-66.40625,-62.01171875
-36.62109375,-35.64453125,-36.1328125,-48.828125
-31.25,-32.2265625,-41.015625,-25.390625
-32.2265625,-36.62109375,-56.15234375,-11.23046875
-30.76171875,-45.41015625,-46.875,-22.94921875
-53.7109375,-64.94140625,-56.15234375,-68.359375
-73.73046875,-71.2890625,-72.265625,-92.7734375
-58.59375,-48.828125,-64.453125,-55.6640625
-31.25,-28.80859375,-45.8984375,-6.8359375
-28.3203125,-28.3203125,-43.9453125,-13.18359375
-57.6171875,-63.4765625,-61.5234375,-67.3828125
-91.30859375,-79.58984375,-70.3125,-101.07421875
-68.359375,-51.7578125,-47.8515625,-49.31640625
-24.4140625,-36.62109375,-33.203125,6.34765625
-19.04296875,-41.9921875,-50.78125,-4.8828125
-38.57421875,-57.12890625,-54.6875,-47.8515625
-63.96484375,-61.5234375,-41.015625,-76.66015625
-53.22265625,-50.78125,-34.1796875,-51.7578125
-28.80859375,-41.015625,-34.66796875,-13.671875
-28.80859375,-38.57421875,-44.43359375,-7.32421875
-46.875,-50.78125,-56.15234375,-45.8984375
-66.40625,-58.10546875,-60.05859375,-77.63671875
-80.56640625,-56.640625,-60.05859375,-63.96484375
-54.6875,-34.1796875,-36.1328125,-20.99609375
-17.578125,-20.01953125,-15.13671875,3.90625
-38.57421875,-52.24609375,-39.55078125,-45.8984375
-81.54296875,-74.70703125,-63.96484375,-96.6796875
-89.84375,-52.734375,-55.17578125,-80.078125
-60.546875,-33.69140625,-35.64453125,-30.76171875
-52.734375,-39.0625,-38.0859375,-21.97265625
-62.01171875,-61.5234375,-49.31640625,-53.7109375
-72.75390625,-91.30859375,-57.12890625,-82.03125
-75.1953125,-92.7734375,-57.12890625,-77.63671875
-51.26953125,-74.21875,-47.36328125,-33.69140625
-30.2734375,-73.73046875,-43.9453125,-15.625
-9.765625,-89.35546875,-39.55078125,-36.62109375
-30.2734375,-108.3984375,-50.29296875,-71.2890625
-77.63671875,-118.1640625,-76.171875,-93.26171875
-67.3828125,-90.33203125,-55.17578125,-47.36328125
-40.52734375,-72.265625,-37.109375,-12.6953125
-39.55078125,-87.40234375,-51.26953125,-38.0859375
-57.6171875,-96.6796875,-68.359375,-82.03125
-75.68359375,-92.28515625,-77.1484375,-99.12109375
-40.0390625,-70.3125,-50.78125,-41.015625
-13.671875,-67.87109375,-29.296875,-5.859375
-38.0859375,-80.56640625,-35.64453125,-39.0625
-65.4296875,-98.14453125,-44.921875,-73.73046875
-82.51953125,-105.95703125,-41.50390625,-88.8671875
-75.68359375,-92.28515625,-40.52734375,-57.6171875
-47.8515625,-81.0546875,-40.52734375,-16.6015625
-40.52734375,-87.890625,-42.48046875,-29.296875
-62.5,-100.09765625,-53.22265625,-74.21875
-81.54296875,-98.6328125,-57.6171875,-97.65625
-76.171875,-84.9609375,-43.45703125,-66.40625
-45.41015625,-75.1953125,-29.296875,-20.99609375
-27.83203125,-74.70703125,-27.34375,-18.06640625
-43.9453125,-84.47265625,-42.96875,-63.4765625
-71.77734375,-93.26171875,-57.12890625,-96.19140625
-57.6171875,-71.77734375,-39.0625,-58.10546875
-19.53125,-58.10546875,-22.4609375,-8.30078125
-19.04296875,-66.40625,-33.203125,-19.04296875
-40.52734375,-73.73046875,-50.29296875,-65.91796875
-62.01171875,-72.265625,-55.17578125,-93.75
-67.3828125,-62.5,-50.29296875,-70.3125
-41.015625,-53.7109375,-45.8984375,-28.3203125
-21.484375,-49.31640625,-40.0390625,-13.18359375
-34.1796875,-63.96484375,-39.55078125,-49.31640625
-55.17578125,-84.9609375,-51.26953125,-90.8203125
-65.91796875,-76.66015625,-50.78125,-85.9375
-35.15625,-31.73828125,-38.57421875,-29.296875
0.9765625,-16.6015625,-34.1796875,10.25390625
-21.97265625,-52.734375,-48.828125,-38.0859375
-63.4765625,-82.03125,-63.96484375,-94.23828125
-59.5703125,-69.3359375,-46.875,-74.21875
-35.64453125,-44.921875,-20.01953125,-17.08984375
-24.90234375,-49.8046875,-33.69140625,-4.39453125
-23.92578125,-65.4296875,-56.640625,-45.8984375
-53.22265625,-80.078125,-52.734375,-85.44921875
-81.0546875,-82.03125,-54.6875,-87.890625
-69.82421875,-63.4765625,-61.03515625,-49.8046875
-58.59375,-48.33984375,-58.10546875,-19.53125
-53.22265625,-51.26953125,-60.05859375,-42.96875
-74.21875,-73.2421875,-72.265625,-88.37890625
-103.02734375,-80.078125,-71.2890625,-110.83984375
-83.984375,-53.22265625,-51.7578125,-64.94140625
-36.62109375,-27.34375,-28.80859375,-10.7421875
-30.2734375,-34.1796875,-38.0859375,-34.1796875
-69.82421875,-63.4765625,-69.3359375,-96.6796875
-91.796875,-78.125,-73.73046875,-118.1640625
-69.3359375,-57.6171875,-52.734375,-67.3828125
-48.828125,-40.0390625,-43.9453125,-27.34375
-56.640625,-52.734375,-53.22265625,-46.38671875
-79.58984375,-67.3828125,-64.94140625,-89.84375
-94.23828125,-66.40625,-70.80078125,-110.3515625
-76.66015625,-57.6171875,-64.453125,-73.73046875
-48.33984375,-49.8046875,-51.26953125,-30.76171875
-27.34375,-41.9921875,-25.390625,-20.99609375
-44.43359375,-49.31640625,-31.25,-52.24609375
-84.9609375,-68.359375,-63.4765625,-96.6796875
-74.70703125,-53.7109375,-62.01171875,-72.75390625
-21.97265625,-27.34375,-47.8515625,-20.01953125
-7.32421875,-25.87890625,-43.45703125,-22.94921875
-42.96875,-34.66796875,-61.5234375,-78.61328125
-86.9140625,-46.875,-69.82421875,-115.72265625
-78.125,-34.1796875,-51.7578125,-74.70703125
-43.45703125,-11.71875,-35.64453125,-19.53125
-40.0390625,-19.04296875,-41.015625,-16.6015625
-63.4765625,-38.57421875,-59.08203125,-61.03515625
-82.51953125,-46.38671875,-48.828125,-83.49609375
-75.1953125,-40.52734375,-38.57421875,-59.5703125
-52.24609375,-33.69140625,-40.0390625,-23.4375
-31.25,-29.296875,-34.1796875,1.46484375
-38.57421875,-47.36328125,-44.921875,-30.76171875
-62.01171875,-57.6171875,-59.5703125,-74.21875
-68.84765625,-46.38671875,-61.5234375,-70.80078125
-45.41015625,-31.73828125,-44.921875,-13.18359375
-19.53125,-25.390625,-39.55078125,10.7421875
-20.99609375,-35.15625,-56.640625,-34.66796875
-52.24609375,-52.734375,-71.77734375,-87.40234375
-64.453125,-51.7578125,-68.359375,-91.30859375
-19.04296875,-16.11328125,-26.3671875,-15.625
-11.23046875,-14.6484375,-20.5078125,0.48828125
-33.69140625,-45.41015625,-44.921875,-59.5703125
-49.8046875,-58.10546875,-51.7578125,-93.75
-66.40625,-52.734375,-58.10546875,-97.16796875
-44.921875,-37.59765625,-51.7578125,-44.43359375
-23.4375,-35.15625,-48.33984375,-2.44140625
-42.48046875,-46.38671875,-59.5703125,-31.25
-72.75390625,-56.15234375,-62.5,-77.63671875
-97.16796875,-57.12890625,-66.40625,-102.05078125
-86.42578125,-47.8515625,-56.640625,-61.5234375
-32.71484375,-26.85546875,-31.25,-7.32421875
-15.625,-24.90234375,-44.921875,-20.5078125
-59.08203125,-60.05859375,-69.82421875,-76.66015625
-82.51953125,-64.94140625,-65.4296875,-99.12109375
-57.6171875,-37.109375,-43.9453125,-41.015625
-26.3671875,-28.3203125,-28.3203125,9.765625
-27.34375,-41.9921875,-38.0859375,-8.7890625
-60.05859375,-55.6640625,-52.24609375,-54.6875
-80.078125,-62.98828125,-59.08203125,-81.0546875
-60.546875,-52.24609375,-45.8984375,-44.43359375
-31.73828125,-37.109375,-24.90234375,3.41796875
-8.7890625,-32.2265625,-19.53125,1.953125
-6.34765625,-32.71484375,-27.34375,-40.0390625
-43.45703125,-56.640625,-54.6875,-89.35546875
-60.546875,-56.640625,-63.4765625,-70.3125
-35.64453125,-25.390625,-45.8984375,-11.71875
-28.3203125,-23.92578125,-33.69140625,-4.8828125
-38.0859375,-49.31640625,-46.875,-59.5703125
-60.546875,-62.01171875,-67.3828125,-101.5625
-58.10546875,-43.45703125,-56.15234375,-65.91796875
-22.94921875,-20.5078125,-38.0859375,-9.765625
-10.7421875,-21.484375,-33.69140625,-5.859375
-33.203125,-38.57421875,-43.45703125,-59.08203125
-56.15234375,-55.6640625,-53.22265625,-88.37890625
-62.98828125,-45.8984375,-49.8046875,-75.68359375
-63.4765625,-32.71484375,-60.05859375,-48.33984375
-50.29296875,-27.83203125,-57.12890625,-27.34375
-60.546875,-38.57421875,-53.22265625,-68.359375
-82.03125,-57.6171875,-62.98828125,-107.421875
-92.28515625,-56.640625,-75.1953125,-100.5859375
-64.94140625,-38.0859375,-57.12890625,-47.8515625
-34.66796875,-35.15625,-35.64453125,-18.06640625
-41.015625,-58.10546875,-42.48046875,-58.10546875
-68.359375,-73.2421875,-59.08203125,-109.86328125
-79.1015625,-62.98828125,-69.3359375,-114.2578125
-35.15625,-44.43359375,-47.8515625,-41.9921875
-5.37109375,-34.66796875,-40.52734375,-1.953125
-22.4609375,-38.0859375,-61.03515625,-42.96875
-42.96875,-51.26953125,-76.66015625,-89.35546875
-61.03515625,-53.7109375,-81.0546875,-101.5625
-47.36328125,-40.52734375,-70.3125,-51.7578125
-12.6953125,-23.4375,-54.19921875,-3.41796875
-7.8125,-30.76171875,-48.828125,-30.2734375
-43.9453125,-59.08203125,-59.08203125,-88.8671875
-65.4296875,-63.96484375,-65.4296875,-110.3515625
-46.38671875,-34.66796875,-56.640625,-59.5703125
-20.5078125,-15.625,-36.62109375,-4.8828125
-4.39453125,-21.484375,-31.73828125,-12.20703125
-34.1796875,-47.36328125,-57.6171875,-63.96484375
-70.3125,-67.87109375,-69.82421875,-100.09765625
-57.12890625,-55.17578125,-52.24609375,-56.15234375
-25.390625,-34.66796875,-44.921875,-5.37109375
-24.90234375,-35.15625,-46.38671875,-17.08984375
-46.875,-53.7109375,-53.22265625,-65.4296875
-62.01171875,-64.94140625,-73.2421875,-97.16796875
-52.24609375,-52.734375,-54.6875,-61.03515625
-31.25,-41.50390625,-26.85546875,-5.859375
-14.16015625,-37.59765625,-23.4375,0.9765625
-28.80859375,-44.921875,-40.0390625,-49.8046875
-69.3359375,-66.40625,-55.6640625,-90.33203125
-81.0546875,-64.453125,-47.36328125,-63.4765625
-51.26953125,-38.57421875,-28.3203125,-1.46484375
-20.01953125,-21.484375,-11.71875,29.296875
-40.52734375,-44.43359375,-39.55078125,-30.76171875
-79.1015625,-67.87109375,-68.84765625,-91.30859375
-82.51953125,-55.17578125,-54.6875,-66.89453125
-51.7578125,-40.52734375,-40.0390625,-6.34765625
-26.3671875,-37.109375,-38.57421875,10.7421875
-32.2265625,-50.29296875,-53.7109375,-43.45703125
-65.4296875,-63.4765625,-60.05859375,-91.796875
-80.078125,-56.15234375,-50.29296875,-82.03125
-45.8984375,-39.0625,-32.2265625,-19.53125
-30.2734375,-28.80859375,-32.71484375,5.859375
-56.15234375,-49.8046875,-54.6875,-44.43359375
-74.21875,-65.4296875,-67.87109375,-101.07421875
-82.51953125,-50.78125,-62.5,-96.6796875
-65.91796875,-29.78515625,-38.0859375,-32.2265625
-35.15625,-24.90234375,-37.59765625,-0.48828125
-35.15625,-36.1328125,-51.7578125,-31.25
-52.734375,-47.8515625,-59.5703125,-76.171875
-62.98828125,-61.03515625,-70.80078125,-87.890625
-35.64453125,-50.29296875,-51.26953125,-16.11328125
-20.5078125,-21.97265625,-20.99609375,29.296875
-40.0390625,-34.66796875,-26.85546875,-20.99609375
-61.03515625,-65.4296875,-43.9453125,-78.61328125
-71.2890625,-62.98828125,-43.9453125,-84.47265625
-57.12890625,-41.50390625,-26.85546875,-30.76171875
-34.1796875,-32.2265625,-24.4140625,9.27734375
-30.76171875,-38.0859375,-35.15625,-12.6953125
-47.8515625,-55.17578125,-44.921875,-68.84765625
-57.12890625,-66.40625,-59.08203125,-95.21484375
-40.52734375,-40.0390625,-46.38671875,-38.0859375
-13.18359375,-21.97265625,-27.34375,17.578125
-4.39453125,-32.2265625,-37.109375,0.48828125
-22.4609375,-50.78125,-53.7109375,-58.10546875
-54.6875,-58.59375,-58.59375,-89.84375
-49.31640625,-37.109375,-40.0390625,-42.96875
-25.390625,-23.4375,-20.99609375,13.18359375
-25.390625,-33.203125,-30.2734375,-5.37109375
-45.41015625,-51.26953125,-46.875,-68.359375
-82.51953125,-70.80078125,-63.96484375,-104.4921875
-79.58984375,-52.734375,-53.7109375,-63.96484375
-57.6171875,-25.390625,-42.48046875,-5.37109375
-45.8984375,-32.71484375,-45.41015625,0.48828125
-55.6640625,-61.03515625,-42.96875,-52.734375
-82.03125,-77.63671875,-54.6875,-99.609375
-80.078125,-60.05859375,-50.78125,-71.77734375
-50.78125,-39.0625,-28.3203125,-7.8125
-21.97265625,-23.92578125,-10.25390625,22.94921875
-37.109375,-44.921875,-25.87890625,-37.109375
-72.265625,-75.1953125,-52.24609375,-104.98046875
-75.68359375,-66.89453125,-53.22265625,-91.30859375
-43.45703125,-49.8046875,-39.0625,-24.90234375
-19.53125,-42.48046875,-36.1328125,-3.41796875
-22.4609375,-46.875,-51.26953125,-56.15234375
-56.15234375,-55.17578125,-66.89453125,-104.00390625
-78.61328125,-57.12890625,-68.84765625,-98.6328125
-60.546875,-47.8515625,-49.31640625,-34.1796875
-46.38671875,-32.71484375,-27.83203125,5.859375
-57.12890625,-45.41015625,-39.55078125,-33.69140625
-82.03125,-67.3828125,-52.24609375,-95.21484375
-89.84375,-60.05859375,-44.921875,-104.98046875
-65.4296875,-42.48046875,-34.66796875,-38.57421875
-18.5546875,-15.625,-18.5546875,19.53125
-11.23046875,-25.87890625,-26.3671875,-16.6015625
-62.01171875,-75.1953125,-47.36328125,-96.6796875
-90.33203125,-84.47265625,-59.5703125,-117.67578125
-74.21875,-63.4765625,-60.05859375,-52.24609375
-41.015625,-49.31640625,-40.52734375,-1.953125
-36.1328125,-52.734375,-44.43359375,-37.109375
-63.4765625,-54.6875,-51.7578125,-84.47265625
-74.70703125,-54.19921875,-42.96875,-91.30859375
-65.4296875,-52.24609375,-44.43359375,-47.36328125
-47.36328125,-42.96875,-39.0625,-1.953125
-35.15625,-43.9453125,-45.41015625,-15.625
-51.7578125,-57.12890625,-63.96484375,-72.75390625
-73.2421875,-66.40625,-66.89453125,-106.4453125
-53.7109375,-57.6171875,-51.26953125,-62.98828125
-9.765625,-41.50390625,-34.1796875,4.8828125
0.9765625,-42.96875,-36.1328125,1.46484375
-37.109375,-54.19921875,-59.08203125,-71.77734375
-72.75390625,-60.05859375,-64.453125,-110.3515625
-69.3359375,-50.78125,-45.8984375,-63.96484375
-45.41015625,-41.9921875,-34.1796875,-9.27734375
-34.66796875,-55.6640625,-35.64453125,-14.16015625
-63.96484375,-62.98828125,-49.31640625,-73.2421875
-90.33203125,-62.01171875,-59.08203125,-110.3515625
-84.47265625,-61.03515625,-52.734375,-81.54296875
-50.78125,-53.7109375,-44.43359375,-23.92578125
-21.97265625,-47.8515625,-36.62109375,-3.41796875
-38.57421875,-58.10546875,-47.36328125,-61.03515625
-70.3125,-65.91796875,-61.5234375,-109.375
-78.61328125,-64.453125,-48.33984375,-87.40234375
-47.8515625,-42.96875,-23.4375,-22.94921875
-19.04296875,-29.78515625,-18.06640625,7.8125
-29.78515625,-57.6171875,-40.0390625,-47.8515625
-52.734375,-77.63671875,-58.10546875,-99.12109375
-54.6875,-70.3125,-54.6875,-81.54296875
-30.76171875,-53.22265625,-39.0625,-11.23046875
-22.4609375,-45.41015625,-31.73828125,19.04296875
-33.203125,-55.6640625,-46.875,-32.2265625
-51.26953125,-62.98828125,-59.08203125,-79.1015625
-66.40625,-50.29296875,-53.22265625,-80.56640625
-47.8515625,-33.203125,-38.0859375,-20.99609375
-30.76171875,-34.1796875,-27.83203125,17.08984375
-37.59765625,-42.48046875,-33.69140625,-19.04296875
-57.12890625,-52.24609375,-49.31640625,-72.265625
-68.84765625,-59.08203125,-62.98828125,-89.84375
-52.24609375,-51.26953125,-56.640625,-30.2734375
-17.08984375,-39.0625,-32.71484375,26.85546875
-20.01953125,-40.0390625,-25.390625,-2.9296875
-64.94140625,-56.640625,-46.38671875,-75.68359375
-86.9140625,-68.84765625,-56.15234375,-102.05078125
-67.3828125,-57.12890625,-44.43359375,-41.50390625
-32.2265625,-38.57421875,-36.62109375,18.06640625
-32.2265625,-45.8984375,-40.52734375,-6.8359375
-54.6875,-62.5,-48.828125,-69.3359375
-68.84765625,-66.89453125,-52.24609375,-102.05078125
-57.12890625,-49.31640625,-41.9921875,-51.7578125
-21.97265625,-40.52734375,-36.1328125,8.30078125
2.44140625,-32.2265625,-29.296875,2.44140625
-13.671875,-39.0625,-25.87890625,-43.9453125
-65.91796875,-71.77734375,-50.78125,-89.84375
-78.125,-57.6171875,-58.10546875,-59.5703125
-40.52734375,-35.64453125,-41.50390625,-1.953125
-22.94921875,-41.015625,-37.109375,-2.9296875
-49.31640625,-57.6171875,-52.734375,-64.94140625
-79.1015625,-66.40625,-66.89453125,-107.421875
-74.21875,-61.03515625,-60.05859375,-71.2890625
-40.0390625,-47.8515625,-43.9453125,-11.23046875
-22.4609375,-34.66796875,-42.48046875,-5.37109375
-41.50390625,-49.8046875,-60.546875,-66.40625
-68.84765625,-61.03515625,-56.15234375,-109.86328125
-77.63671875,-45.8984375,-41.015625,-88.37890625
-50.78125,-37.59765625,-37.59765625,-32.71484375
-28.80859375,-41.50390625,-33.69140625,-5.859375
-37.109375,-51.7578125,-41.50390625,-53.7109375
-62.98828125,-71.2890625,-55.6640625,-101.07421875
-69.3359375,-77.1484375,-61.5234375,-83.0078125
-39.0625,-52.734375,-44.43359375,-18.06640625
-21.97265625,-33.69140625,-23.92578125,15.625
-35.15625,-46.875,-44.921875,-31.25
-61.5234375,-60.05859375,-68.84765625,-88.37890625
-70.3125,-60.546875,-52.24609375,-87.890625
-40.0390625,-47.8515625,-22.4609375,-19.04296875
-8.30078125,-38.57421875,-20.5078125,9.765625
-3.90625,-41.50390625,-38.57421875,-37.109375
-47.8515625,-52.734375,-47.36328125,-86.9140625
-82.03125,-62.01171875,-55.6640625,-100.09765625
-66.40625,-49.31640625,-45.41015625,-39.55078125
-48.33984375,-37.59765625,-37.109375,9.765625
-41.9921875,-43.45703125,-43.45703125,-21.97265625
-66.40625,-61.5234375,-50.78125,-83.49609375
-80.078125,-64.453125,-59.08203125,-106.93359375
-42.96875,-36.1328125,-45.8984375,-42.96875
3.90625,-16.6015625,-21.97265625,19.04296875
4.8828125,-35.64453125,-22.94921875,-3.41796875
-26.3671875,-55.17578125,-42.96875,-68.84765625
-62.01171875,-59.08203125,-52.734375,-99.12109375
-66.89453125,-48.33984375,-42.96875,-49.8046875
-36.1328125,-33.203125,-31.73828125,4.8828125
-33.69140625,-37.109375,-41.50390625,-14.6484375
-58.59375,-53.7109375,-53.22265625,-77.63671875
-69.82421875,-64.453125,-57.12890625,-106.4453125
-54.6875,-50.78125,-43.45703125,-55.6640625
-34.1796875,-38.0859375,-30.76171875,0.9765625
-20.5078125,-32.71484375,-36.1328125,-0.9765625
-11.71875,-25.87890625,-41.50390625,-41.50390625
-40.0390625,-51.7578125,-52.24609375,-84.9609375
-72.75390625,-62.5,-47.8515625,-76.66015625
-52.734375,-45.8984375,-35.15625,-27.83203125
-27.34375,-42.96875,-34.66796875,-20.5078125
-44.43359375,-50.29296875,-39.0625,-82.03125
-79.1015625,-67.87109375,-47.8515625,-123.53515625
-80.078125,-64.94140625,-46.875,-87.40234375
-40.52734375,-42.48046875,-37.109375,-24.90234375
-6.8359375,-39.55078125,-28.3203125,-2.9296875
-19.53125,-59.08203125,-44.43359375,-52.24609375
-44.921875,-62.98828125,-55.17578125,-93.26171875
-67.87109375,-65.91796875,-42.96875,-68.84765625
-50.29296875,-53.22265625,-28.3203125,-2.9296875
-17.08984375,-31.73828125,-29.296875,21.97265625
-18.06640625,-37.109375,-43.9453125,-25.87890625
-45.8984375,-52.24609375,-50.29296875,-77.63671875
-72.75390625,-56.640625,-53.22265625,-82.03125
-49.8046875,-36.62109375,-41.9921875,-22.94921875
-25.87890625,-32.71484375,-28.80859375,8.7890625
-37.59765625,-47.8515625,-40.52734375,-37.59765625
-71.77734375,-63.4765625,-57.6171875,-97.16796875
-86.42578125,-61.03515625,-53.7109375,-97.16796875
-59.5703125,-31.73828125,-33.69140625,-23.92578125
-36.62109375,-26.3671875,-27.34375,14.6484375
-44.921875,-51.7578125,-46.38671875,-35.64453125
-62.5,-61.5234375,-53.7109375,-84.47265625
-71.77734375,-52.24609375,-49.8046875,-85.44921875
-59.08203125,-39.55078125,-40.52734375,-31.73828125
-31.25,-30.76171875,-35.15625,9.27734375
-20.01953125,-32.71484375,-38.0859375,-20.01953125
-42.96875,-41.50390625,-41.50390625,-76.171875
-65.91796875,-53.22265625,-54.6875,-103.02734375
-52.734375,-37.59765625,-45.41015625,-50.78125
-30.76171875,-25.87890625,-31.25,1.953125
-21.484375,-33.203125,-36.62109375,-15.625
-43.9453125,-46.875,-53.7109375,-74.70703125
-80.078125,-56.640625,-62.98828125,-107.421875
-76.66015625,-42.96875,-48.33984375,-58.59375
-40.0390625,-28.3203125,-37.109375,-3.41796875
-27.34375,-33.69140625,-46.38671875,-17.578125
-49.31640625,-48.828125,-57.12890625,-79.1015625
-71.77734375,-61.03515625,-60.05859375,-111.81640625
-60.05859375,-47.36328125,-45.41015625,-61.5234375
-24.4140625,-25.390625,-30.2734375,-0.9765625
-12.20703125,-39.0625,-33.203125,-7.32421875
-25.390625,-57.12890625,-47.36328125,-69.82421875
-51.7578125,-53.7109375,-52.734375,-108.3984375
-62.01171875,-44.921875,-47.8515625,-67.3828125
-43.45703125,-37.59765625,-38.57421875,-5.859375
-20.5078125,-34.66796875,-33.69140625,8.30078125
-33.203125,-49.31640625,-53.7109375,-47.36328125
-69.82421875,-63.4765625,-66.40625,-99.12109375
-74.70703125,-54.19921875,-49.31640625,-73.73046875
-43.45703125,-35.64453125,-32.2265625,-7.8125
-14.6484375,-29.296875,-33.69140625,14.16015625
-28.80859375,-44.921875,-57.6171875,-41.9921875
-65.91796875,-59.08203125,-70.80078125,-94.7265625
-84.47265625,-57.6171875,-61.5234375,-81.0546875
-58.10546875,-33.203125,-46.875,-20.01953125
-27.34375,-19.04296875,-38.57421875,5.37109375
-23.92578125,-37.109375,-39.55078125,-38.57421875
-45.41015625,-62.98828125,-54.6875,-91.30859375
-76.66015625,-82.03125,-65.4296875,-104.00390625
-67.87109375,-75.1953125,-46.38671875,-41.9921875
-44.43359375,-72.265625,-32.2265625,-0.9765625
-36.62109375,-83.984375,-43.45703125,-37.59765625
-53.7109375,-99.12109375,-59.08203125,-90.33203125
-74.21875,-108.88671875,-62.98828125,-95.21484375
-53.22265625,-95.21484375,-52.734375,-25.390625
-15.625,-76.171875,-46.38671875,17.578125
-16.6015625,-77.1484375,-54.19921875,-24.4140625
-55.6640625,-97.16796875,-61.03515625,-80.56640625
-69.3359375,-98.6328125,-51.7578125,-85.9375
-48.828125,-77.63671875,-38.57421875,-33.69140625
-25.87890625,-74.21875,-35.64453125,6.34765625
-11.71875,-70.3125,-38.0859375,-11.71875
-37.59765625,-82.51953125,-50.29296875,-66.89453125
-73.2421875,-100.5859375,-64.94140625,-102.5390625
-58.10546875,-79.1015625,-51.26953125,-48.828125
-51.26953125,-67.87109375,-40.0390625,-1.46484375
-61.03515625,-81.0546875,-41.015625,-24.90234375
-79.1015625,-94.23828125,-51.7578125,-76.66015625
-100.09765625,-86.9140625,-66.40625,-108.3984375
-83.0078125,-69.82421875,-54.6875,-62.98828125
-49.8046875,-62.98828125,-31.73828125,-5.859375
-34.1796875,-59.5703125,-40.0390625,-9.27734375
-43.9453125,-69.3359375,-61.03515625,-70.3125
-73.73046875,-82.03125,-63.96484375,-111.328125
-70.80078125,-69.82421875,-48.828125,-63.4765625
-43.45703125,-57.6171875,-38.0859375,-3.90625
-28.3203125,-55.17578125,-37.59765625,6.8359375
-40.0390625,-64.94140625,-47.36328125,-44.921875
-74.21875,-75.1953125,-58.59375,-89.84375
-75.1953125,-64.453125,-55.17578125,-61.03515625
-36.62109375,-47.36328125,-40.52734375,0.0
-20.01953125,-45.8984375,-31.73828125,21.484375
-36.62109375,-61.5234375,-42.48046875,-41.50390625
-62.98828125,-70.80078125,-61.5234375,-97.16796875
-70.3125,-66.40625,-55.6640625,-80.078125
-43.9453125,-50.29296875,-28.80859375,-17.578125
-22.4609375,-42.48046875,-22.4609375,6.34765625
-28.3203125,-48.828125,-45.8984375,-45.8984375
-60.05859375,-65.91796875,-69.3359375,-104.98046875
-73.2421875,-65.91796875,-64.94140625,-99.609375
-47.8515625,-48.33984375,-45.41015625,-34.1796875
-32.2265625,-40.0390625,-36.1328125,-9.27734375
-24.4140625,-31.25,-29.78515625,-39.0625
-33.203125,-41.015625,-36.62109375,-80.078125
-55.6640625,-58.59375,-58.59375,-100.5859375
-36.62109375,-39.55078125,-43.45703125,-36.62109375
-13.18359375,-30.76171875,-28.80859375,11.71875
-18.06640625,-46.875,-43.45703125,-30.2734375
-45.8984375,-63.4765625,-56.640625,-84.9609375
-75.68359375,-63.4765625,-59.5703125,-93.26171875
-62.01171875,-44.921875,-41.015625,-30.2734375
-33.203125,-35.64453125,-27.83203125,17.578125
-31.73828125,-45.8984375,-36.62109375,-14.16015625
-50.29296875,-65.91796875,-56.15234375,-75.68359375
-72.265625,-67.87109375,-66.89453125,-97.65625
-58.10546875,-47.8515625,-54.19921875,-40.52734375
-22.4609375,-42.48046875,-30.2734375,13.671875
-15.625,-47.36328125,-22.94921875,-4.8828125
-38.57421875,-48.33984375,-32.2265625,-60.546875
-73.2421875,-58.59375,-46.875,-101.5625
-80.078125,-56.15234375,-49.31640625,-66.40625
-55.6640625,-40.52734375,-42.48046875,-11.71875
-44.921875,-46.875,-39.55078125,-22.4609375
-58.59375,-57.6171875,-42.48046875,-81.0546875
-79.1015625,-64.94140625,-49.8046875,-119.62890625
-73.73046875,-59.08203125,-48.33984375,-78.125
-55.17578125,-41.015625,-37.59765625,-13.18359375
-45.8984375,-41.50390625,-28.80859375,-8.30078125
-59.08203125,-59.08203125,-45.8984375,-71.2890625
-72.75390625,-60.546875,-59.08203125,-99.609375
-56.640625,-47.8515625,-53.22265625,-56.640625
-36.1328125,-43.45703125,-47.8515625,-11.23046875
-16.6015625,-41.015625,-28.80859375,2.9296875
-27.83203125,-51.26953125,-38.0859375,-51.7578125
-60.05859375,-60.05859375,-61.5234375,-104.4921875
-67.87109375,-53.22265625,-55.17578125,-77.1484375
-36.62109375,-34.1796875,-38.57421875,-8.7890625
-24.4140625,-31.25,-38.57421875,9.765625
-38.0859375,-43.45703125,-49.8046875,-45.41015625
-65.4296875,-61.03515625,-67.87109375,-102.05078125
-74.21875,-62.98828125,-61.5234375,-87.40234375
-37.59765625,-37.109375,-39.0625,-13.671875
-16.11328125,-34.1796875,-37.59765625,0.48828125
-26.85546875,-51.26953125,-45.41015625,-54.19921875
-49.31640625,-57.12890625,-55.17578125,-97.65625
-63.96484375,-58.59375,-60.546875,-97.16796875
-55.6640625,-51.26953125,-55.17578125,-36.62109375
-35.64453125,-41.015625,-37.109375,0.9765625
-49.31640625,-50.29296875,-38.57421875,-41.9921875
-79.1015625,-61.03515625,-56.15234375,-95.21484375
-87.40234375,-54.19921875,-57.12890625,-105.95703125
-68.84765625,-48.828125,-49.8046875,-48.33984375
-36.62109375,-43.9453125,-36.62109375,1.46484375
-34.1796875,-41.9921875,-37.59765625,-34.66796875
-67.87109375,-58.10546875,-54.6875,-94.7265625
-81.0546875,-60.05859375,-59.5703125,-109.375
-60.05859375,-46.875,-47.8515625,-52.734375
-35.64453125,-40.52734375,-35.15625,1.953125
-32.2265625,-48.828125,-42.48046875,-21.97265625
-58.59375,-64.94140625,-55.6640625,-83.984375
-72.265625,-70.3125,-59.5703125,-107.421875
-49.31640625,-44.921875,-45.8984375,-53.7109375
-21.97265625,-23.92578125,-29.296875,1.953125
-15.625,-44.43359375,-38.57421875,-8.30078125
-36.62109375,-67.87109375,-53.7109375,-70.3125
-71.77734375,-62.98828125,-58.10546875,-111.81640625
-82.03125,-44.43359375,-45.8984375,-71.77734375
-51.7578125,-27.83203125,-31.73828125,-11.23046875
-35.64453125,-26.3671875,-34.66796875,-5.859375
-54.6875,-48.828125,-53.22265625,-67.87109375
-71.2890625,-65.4296875,-67.87109375,-112.3046875
-61.5234375,-50.29296875,-51.26953125,-70.80078125
-33.69140625,-35.15625,-31.25,-10.25390625
-24.4140625,-36.1328125,-31.25,-5.37109375
-41.015625,-42.96875,-49.8046875,-59.5703125
-65.91796875,-50.78125,-64.453125,-97.65625
-73.73046875,-51.7578125,-59.08203125,-70.80078125
-45.41015625,-37.59765625,-41.015625,-9.27734375
-20.01953125,-32.2265625,-38.0859375,12.20703125
-27.34375,-40.52734375,-46.875,-41.9921875
-56.15234375,-54.6875,-54.19921875,-95.21484375
-64.94140625,-60.05859375,-56.640625,-84.47265625
-37.59765625,-43.9453125,-41.015625,-22.94921875
-12.6953125,-35.64453125,-29.296875,4.39453125
-19.04296875,-45.8984375,-43.45703125,-47.8515625
-40.0390625,-51.26953125,-60.546875,-99.609375
-54.19921875,-41.015625,-57.6171875,-88.8671875
-51.26953125,-38.57421875,-42.48046875,-21.97265625
-41.50390625,-45.8984375,-33.69140625,11.23046875
-42.96875,-52.734375,-42.96875,-33.69140625
-62.98828125,-63.4765625,-52.24609375,-81.0546875
-73.2421875,-54.19921875,-45.8984375,-72.75390625
-57.6171875,-35.64453125,-37.109375,-11.23046875
-34.66796875,-31.25,-34.66796875,23.4375
-28.80859375,-49.8046875,-46.875,-18.5546875
-49.31640625,-70.3125,-58.59375,-75.68359375
-68.84765625,-65.91796875,-61.5234375,-86.42578125
-63.4765625,-51.7578125,-48.828125,-29.78515625
-41.015625,-36.62109375,-23.92578125,20.01953125
-42.48046875,-46.38671875,-30.76171875,-14.6484375
-64.453125,-69.82421875,-53.22265625,-78.61328125
-73.73046875,-68.359375,-66.40625,-101.07421875
-37.59765625,-28.3203125,-36.1328125,-26.3671875
-4.39453125,-12.20703125,-15.13671875,28.3203125
-21.484375,-29.296875,-37.109375,-16.11328125
-53.7109375,-50.78125,-54.19921875,-84.47265625
-71.2890625,-65.4296875,-57.12890625,-109.375
-57.12890625,-52.24609375,-47.8515625,-59.5703125
-27.83203125,-44.43359375,-45.8984375,-10.7421875
-21.484375,-43.45703125,-49.8046875,-17.578125
-45.41015625,-43.45703125,-53.22265625,-69.82421875
-69.3359375,-63.4765625,-57.6171875,-110.83984375
-72.75390625,-68.84765625,-54.19921875,-76.171875
-41.50390625,-45.41015625,-32.71484375,-1.953125
-20.99609375,-31.25,-20.5078125,17.08984375
-49.31640625,-49.8046875,-41.50390625,-49.8046875
-78.61328125,-61.5234375,-57.12890625,-95.703125
-71.77734375,-48.828125,-49.8046875,-61.5234375
-34.66796875,-34.66796875,-32.2265625,2.44140625
-18.5546875,-27.83203125,-32.2265625,13.18359375
-32.2265625,-42.48046875,-51.26953125,-52.24609375
-56.640625,-51.7578125,-52.734375,-94.7265625
-62.01171875,-41.9921875,-40.0390625,-70.3125
-41.9921875,-42.96875,-34.66796875,-13.671875
-25.87890625,-37.109375,-33.69140625,2.9296875
-27.34375,-33.69140625,-35.64453125,-46.38671875
-52.734375,-43.45703125,-49.8046875,-97.65625
-65.91796875,-41.50390625,-59.5703125,-97.16796875
-32.2265625,-32.71484375,-45.41015625,-29.78515625
-3.41796875,-31.25,-30.76171875,5.859375
-8.7890625,-36.62109375,-39.55078125,-40.0390625
-48.33984375,-51.26953125,-62.01171875,-102.05078125
-72.75390625,-57.6171875,-69.82421875,-101.5625
-53.7109375,-40.0390625,-61.03515625,-32.71484375
-22.4609375,-24.4140625,-41.9921875,8.30078125
-18.06640625,-34.1796875,-39.55078125,-32.2265625
-47.36328125,-49.31640625,-51.26953125,-86.42578125
-62.98828125,-49.8046875,-48.33984375,-89.84375
-52.24609375,-37.109375,-34.66796875,-28.3203125
-28.80859375,-29.296875,-22.4609375,17.578125
-26.3671875,-34.1796875,-23.4375,-16.11328125
-54.6875,-51.26953125,-43.9453125,-76.171875
-76.66015625,-59.08203125,-56.640625,-99.609375
-72.265625,-41.9921875,-46.38671875,-46.875
-43.9453125,-27.83203125,-40.0390625,3.90625
-33.203125,-32.2265625,-47.8515625,-20.99609375
-54.6875,-46.38671875,-59.5703125,-84.9609375
-76.171875,-64.94140625,-70.80078125,-114.74609375
-57.12890625,-46.38671875,-48.33984375,-51.7578125
-25.87890625,-22.94921875,-24.90234375,5.37109375
-28.3203125,-41.9921875,-32.71484375,-18.06640625
-48.33984375,-63.96484375,-40.52734375,-86.42578125
-81.0546875,-70.3125,-47.36328125,-120.60546875
-81.54296875,-52.734375,-43.45703125,-68.84765625
-49.31640625,-38.0859375,-40.0390625,-16.11328125
-35.64453125,-48.828125,-46.38671875,-19.04296875
-50.29296875,-63.4765625,-61.5234375,-75.1953125
-72.265625,-58.59375,-64.94140625,-112.79296875
-70.80078125,-38.0859375,-58.59375,-74.70703125
-45.41015625,-28.3203125,-45.41015625,-11.71875
-22.4609375,-27.83203125,-22.94921875,8.30078125
-49.31640625,-42.96875,-35.15625,-56.640625
-80.078125,-53.7109375,-48.828125,-103.515625
-74.70703125,-48.828125,-41.50390625,-68.359375
-49.8046875,-38.57421875,-38.0859375,-14.6484375
-33.69140625,-36.62109375,-37.59765625,5.37109375
-39.55078125,-54.6875,-45.8984375,-43.9453125
-55.6640625,-63.4765625,-55.17578125,-92.7734375
-65.91796875,-51.7578125,-57.6171875,-74.21875
-48.33984375,-33.203125,-43.9453125,-12.20703125
-19.04296875,-18.06640625,-31.73828125,7.8125
-14.16015625,-31.25,-37.109375,-34.1796875
-43.9453125,-55.17578125,-51.26953125,-82.03125
-73.73046875,-57.12890625,-57.12890625,-89.84375
-49.8046875,-33.203125,-40.0390625,-29.78515625
-19.04296875,-24.4140625,-30.76171875,3.90625
-27.34375,-42.96875,-39.0625,-39.55078125
-59.08203125,-56.15234375,-56.15234375,-98.14453125
-78.61328125,-55.17578125,-62.5,-102.5390625
-55.17578125,-30.2734375,-41.015625,-31.25
-22.4609375,-29.296875,-27.83203125,16.11328125
-32.2265625,-50.78125,-45.41015625,-20.99609375
-60.546875,-52.24609375,-64.94140625,-82.51953125
-69.82421875,-46.38671875,-61.03515625,-87.40234375
-58.59375,-40.52734375,-47.8515625,-31.25
-31.25,-30.76171875,-42.96875,4.8828125
-19.53125,-45.41015625,-47.8515625,-23.92578125
-51.7578125,-65.91796875,-55.17578125,-88.37890625
-85.44921875,-70.80078125,-61.03515625,-111.81640625
-71.2890625,-58.59375,-52.734375,-51.7578125
-32.2265625,-38.0859375,-36.1328125,6.8359375
-24.90234375,-41.9921875,-36.62109375,-10.7421875
-51.7578125,-62.01171875,-54.6875,-79.1015625
-79.1015625,-70.3125,-66.89453125,-111.81640625
-71.2890625,-40.52734375,-49.8046875,-54.19921875
-36.62109375,-22.4609375,-37.59765625,3.90625
-35.64453125,-47.8515625,-50.78125,-11.71875
-57.12890625,-61.03515625,-65.91796875,-74.21875
-63.96484375,-57.12890625,-68.84765625,-102.5390625
-56.640625,-44.43359375,-53.22265625,-55.17578125
-32.71484375,-30.76171875,-36.1328125,2.9296875
-18.5546875,-28.80859375,-32.71484375,6.34765625
-45.8984375,-48.828125,-48.828125,-61.03515625
-77.63671875,-62.5,-61.5234375,-107.91015625
-77.1484375,-53.22265625,-55.17578125,-77.1484375
-50.78125,-41.015625,-38.57421875,-19.04296875
-30.76171875,-32.2265625,-30.76171875,-0.48828125
-34.1796875,-48.33984375,-46.875,-60.546875
-57.6171875,-70.3125,-68.359375,-115.72265625
-62.98828125,-52.734375,-65.4296875,-80.078125
-15.13671875,-21.97265625,-36.62109375,-0.48828125
8.7890625,-27.34375,-26.3671875,19.04296875
-10.7421875,-46.875,-42.48046875,-36.1328125
-44.921875,-54.6875,-59.5703125,-88.8671875
-62.98828125,-53.7109375,-65.91796875,-85.44921875
-37.109375,-38.0859375,-43.9453125,-19.53125
-19.04296875,-28.3203125,-33.203125,10.7421875
-19.53125,-37.59765625,-48.828125,-35.15625
-33.203125,-44.43359375,-52.734375,-82.51953125
-57.6171875,-54.19921875,-51.26953125,-94.23828125
-52.24609375,-49.31640625,-40.0390625,-30.76171875
-33.203125,-38.57421875,-30.2734375,12.6953125
-39.0625,-50.29296875,-36.62109375,-29.296875
-72.265625,-63.4765625,-46.875,-89.84375
-88.37890625,-61.5234375,-51.7578125,-102.05078125
-54.19921875,-49.8046875,-44.921875,-40.0390625
-27.34375,-45.41015625,-30.76171875,1.953125
-37.59765625,-51.7578125,-29.78515625,-26.85546875
-63.96484375,-59.5703125,-42.96875,-80.56640625
-90.8203125,-60.546875,-52.734375,-107.421875
-79.1015625,-41.9921875,-46.875,-51.26953125
-39.0625,-26.85546875,-35.15625,11.23046875
-31.73828125,-36.62109375,-38.57421875,-9.765625
-52.24609375,-52.24609375,-56.640625,-71.77734375
-73.73046875,-55.6640625,-61.03515625,-101.5625
-69.3359375,-44.921875,-48.33984375,-55.6640625
-35.15625,-29.78515625,-32.2265625,-0.48828125
-20.01953125,-38.0859375,-29.296875,-11.23046875
-32.2265625,-60.546875,-39.55078125,-72.265625
-49.31640625,-64.94140625,-54.19921875,-112.79296875
-46.875,-55.6640625,-50.29296875,-69.3359375
-25.390625,-42.96875,-35.15625,-4.39453125
-22.4609375,-37.59765625,-39.55078125,-6.8359375
-43.9453125,-56.15234375,-54.19921875,-62.98828125
-68.359375,-73.73046875,-66.89453125,-106.93359375
-63.4765625,-56.640625,-61.03515625,-75.1953125
-38.57421875,-36.62109375,-45.8984375,-16.6015625
-17.578125,-41.015625,-37.59765625,-10.7421875
-19.04296875,-49.31640625,-46.875,-66.40625
-60.546875,-55.17578125,-62.01171875,-116.2109375
-66.40625,-49.8046875,-47.36328125,-85.44921875
-32.2265625,-37.59765625,-31.73828125,-18.06640625
-19.04296875,-26.3671875,-31.25,0.0
-34.1796875,-40.0390625,-40.52734375,-56.15234375
-73.2421875,-58.59375,-58.10546875,-109.375
-83.984375,-55.6640625,-54.6875,-96.19140625
-41.50390625,-42.96875,-22.94921875,-17.08984375
-24.4140625,-35.64453125,-15.625,12.6953125
-31.73828125,-41.9921875,-45.8984375,-46.875
-38.0859375,-48.33984375,-62.98828125,-89.35546875
-55.6640625,-46.38671875,-55.17578125,-85.44921875
-49.8046875,-39.0625,-41.015625,-27.34375
-23.92578125,-39.0625,-28.3203125,19.04296875
-32.2265625,-45.8984375,-35.15625,-16.6015625
-67.3828125,-53.7109375,-54.19921875,-75.1953125
-86.42578125,-58.59375,-55.17578125,-87.40234375
-60.05859375,-41.50390625,-37.59765625,-22.4609375
-22.94921875,-31.73828125,-20.5078125,28.80859375
-25.87890625,-52.24609375,-31.25,-6.8359375
-54.19921875,-65.4296875,-57.12890625,-61.03515625
-67.3828125,-64.453125,-68.84765625,-80.078125
-35.64453125,-41.015625,-48.33984375,-22.94921875
-12.20703125,-27.34375,-28.80859375,25.87890625
-27.34375,-48.33984375,-35.64453125,-8.7890625
-59.08203125,-64.453125,-52.734375,-66.89453125
-90.8203125,-62.01171875,-65.91796875,-94.7265625
-87.40234375,-50.78125,-55.6640625,-47.8515625
-54.6875,-47.36328125,-41.9921875,2.9296875
-39.55078125,-49.31640625,-48.828125,-16.6015625
-56.640625,-58.59375,-56.640625,-73.73046875
-69.82421875,-72.75390625,-69.3359375,-108.88671875
-59.08203125,-66.40625,-61.5234375,-63.4765625
-41.9921875,-46.38671875,-35.64453125,-0.9765625
-39.0625,-42.96875,-30.76171875,-5.37109375
-56.15234375,-61.5234375,-44.921875,-66.40625
-77.1484375,-74.70703125,-59.5703125,-105.95703125
-72.265625,-62.01171875,-52.24609375,-60.546875
-42.96875,-40.52734375,-35.64453125,4.39453125
-34.66796875,-34.66796875,-34.66796875,7.8125
-55.17578125,-45.8984375,-50.78125,-49.8046875
-65.91796875,-57.12890625,-57.6171875,-83.984375
-62.01171875,-64.453125,-52.24609375,-55.17578125
-46.875,-51.7578125,-38.0859375,0.9765625
-32.71484375,-39.0625,-28.80859375,15.625
-39.55078125,-49.8046875,-42.96875,-43.45703125
-60.05859375,-59.08203125,-56.15234375,-95.21484375
-70.3125,-54.6875,-50.29296875,-75.1953125
-44.43359375,-46.875,-37.109375,-16.11328125
-22.4609375,-40.0390625,-33.69140625,6.8359375
-34.1796875,-43.45703125,-45.41015625,-40.52734375
-61.5234375,-59.5703125,-60.05859375,-96.6796875
-69.3359375,-53.7109375,-62.98828125,-94.23828125
-40.52734375,-26.85546875,-44.921875,-16.11328125
-23.4375,-24.4140625,-36.1328125,21.484375
-32.71484375,-44.43359375,-50.78125,-37.109375
-48.33984375,-59.08203125,-62.5,-88.8671875
-60.05859375,-56.15234375,-63.96484375,-87.890625
-36.1328125,-38.57421875,-44.921875,-26.85546875
-7.8125,-26.85546875,-24.90234375,7.8125
-23.92578125,-32.71484375,-32.71484375,-28.3203125
-58.10546875,-51.26953125,-47.8515625,-81.0546875
-78.125,-59.08203125,-52.24609375,-100.5859375
-70.3125,-40.0390625,-39.55078125,-40.52734375
-44.43359375,-26.3671875,-31.25,5.37109375
-41.9921875,-39.0625,-46.38671875,-33.203125
-63.4765625,-53.22265625,-59.5703125,-91.796875
-79.1015625,-65.4296875,-67.3828125,-118.1640625
-57.12890625,-44.921875,-54.19921875,-55.6640625
-23.4375,-20.5078125,-40.0390625,2.9296875
-16.11328125,-35.15625,-49.31640625,-27.83203125
-46.38671875,-57.6171875,-57.6171875,-88.37890625
-80.078125,-66.89453125,-61.03515625,-114.74609375
-71.77734375,-55.17578125,-48.828125,-54.6875
-50.29296875,-43.45703125,-35.15625,6.34765625
-33.203125,-42.48046875,-34.66796875,-4.8828125
-43.45703125,-54.19921875,-49.31640625,-65.4296875
-62.98828125,-58.10546875,-60.546875,-101.5625
-57.6171875,-47.8515625,-52.734375,-55.6640625
-37.109375,-36.1328125,-33.203125,2.9296875
-21.97265625,-29.78515625,-20.99609375,12.6953125
-50.29296875,-53.7109375,-43.9453125,-59.5703125
-84.9609375,-66.89453125,-67.3828125,-110.83984375
-78.61328125,-50.29296875,-51.7578125,-62.98828125
-49.31640625,-38.57421875,-28.80859375,1.953125
-26.3671875,-36.62109375,-27.83203125,11.71875
-35.64453125,-48.33984375,-44.43359375,-50.29296875
-63.4765625,-61.5234375,-59.5703125,-101.07421875
-64.94140625,-55.17578125,-57.6171875,-76.171875
-43.9453125,-40.52734375,-41.015625,-15.13671875
-35.64453125,-37.109375,-30.76171875,3.41796875
-49.8046875,-51.7578125,-41.9921875,-49.8046875
-76.171875,-65.4296875,-54.19921875,-106.93359375
-85.44921875,-59.5703125,-53.7109375,-104.4921875
-63.4765625,-39.55078125,-43.9453125,-39.0625
-33.203125,-26.85546875,-34.66796875,-6.8359375
-30.2734375,-44.921875,-45.8984375,-57.6171875
-51.7578125,-60.546875,-67.87109375,-111.81640625
-62.01171875,-57.12890625,-65.91796875,-106.93359375
-51.7578125,-48.33984375,-41.015625,-36.62109375
-57.12890625,-49.8046875,-31.25,-1.953125
-67.3828125,-56.640625,-45.41015625,-38.57421875
-74.21875,-62.5,-50.78125,-77.63671875
-75.68359375,-64.94140625,-40.52734375,-78.125
-52.734375,-52.734375,-41.9921875,-18.5546875
-29.296875,-39.55078125,-39.0625,20.99609375
-27.83203125,-47.36328125,-36.1328125,-15.13671875
-53.22265625,-62.5,-45.8984375,-79.58984375
-76.171875,-65.4296875,-54.6875,-110.83984375
-62.5,-48.828125,-53.22265625,-55.17578125
-30.76171875,-29.78515625,-35.15625,13.671875
-18.5546875,-40.0390625,-30.76171875,1.46484375
-47.8515625,-61.03515625,-52.24609375,-64.94140625
-69.82421875,-60.546875,-56.15234375,-97.65625
-38.0859375,-41.9921875,-28.80859375,-30.2734375
-4.8828125,-36.1328125,-12.20703125,25.390625
-10.7421875,-48.828125,-27.83203125,-5.37109375
-49.31640625,-58.10546875,-45.8984375,-72.75390625
-81.54296875,-63.4765625,-62.5,-111.81640625
-70.3125,-48.828125,-51.7578125,-57.6171875
-48.828125,-33.69140625,-26.85546875,4.39453125
-34.1796875,-43.45703125,-29.296875,-6.8359375
-54.6875,-64.453125,-45.8984375,-78.125
-83.0078125,-68.84765625,-55.6640625,-115.234375
-78.61328125,-51.7578125,-47.36328125,-68.84765625
-48.33984375,-32.71484375,-28.3203125,-9.765625
-0.9765625,-8.30078125,1.46484375,29.78515625
-9.765625,-34.1796875,-9.765625,-23.4375
-62.01171875,-77.1484375,-45.41015625,-91.796875
-60.05859375,-56.15234375,-38.57421875,-56.15234375
-17.578125,-29.296875,-26.85546875,5.37109375
-4.8828125,-31.25,-29.78515625,18.06640625
-16.11328125,-53.22265625,-48.828125,-31.73828125
-35.64453125,-60.05859375,-60.546875,-77.63671875
-64.453125,-51.7578125,-49.31640625,-67.3828125
-50.29296875,-44.43359375,-32.2265625,-15.13671875
-20.5078125,-40.52734375,-36.1328125,9.27734375
-18.5546875,-41.9921875,-41.015625,-29.296875
-45.41015625,-56.640625,-51.7578125,-87.40234375
-70.3125,-67.87109375,-62.01171875,-92.7734375
-51.26953125,-48.828125,-40.52734375,-24.90234375
-23.92578125,-40.0390625,-29.78515625,15.625
-29.296875,-47.36328125,-44.921875,-30.76171875
-52.734375,-56.15234375,-58.59375,-85.9375
-74.21875,-61.5234375,-56.15234375,-88.8671875
-57.12890625,-44.921875,-44.921875,-27.83203125
-26.85546875,-31.25,-38.0859375,10.7421875
-25.87890625,-36.1328125,-44.43359375,-26.85546875
-53.7109375,-53.22265625,-60.05859375,-84.47265625
-87.40234375,-61.5234375,-62.5,-106.4453125
-75.68359375,-46.38671875,-50.29296875,-49.8046875
-39.0625,-34.66796875,-43.45703125,-1.953125
-28.3203125,-41.9921875,-41.015625,-27.34375
-48.33984375,-62.01171875,-44.921875,-85.9375
-73.73046875,-70.80078125,-49.8046875,-111.328125
-69.3359375,-51.26953125,-41.9921875,-51.26953125
-40.0390625,-42.48046875,-28.80859375,7.8125
-37.109375,-47.8515625,-35.15625,-13.671875
-63.96484375,-53.22265625,-53.22265625,-73.2421875
-87.40234375,-57.6171875,-60.05859375,-97.16796875
-75.68359375,-45.8984375,-50.29296875,-44.921875
-32.2265625,-35.15625,-41.50390625,10.25390625
-11.23046875,-43.45703125,-44.43359375,2.9296875
-36.1328125,-56.640625,-45.8984375,-55.17578125
-68.84765625,-59.08203125,-52.734375,-98.14453125
-62.5,-46.38671875,-50.29296875,-58.59375
-28.3203125,-33.203125,-32.2265625,-1.953125
-12.6953125,-35.15625,-33.203125,-1.953125
-26.3671875,-52.734375,-50.78125,-63.4765625
-56.640625,-61.03515625,-56.640625,-110.3515625
-66.89453125,-46.38671875,-48.33984375,-72.265625
-42.96875,-38.57421875,-37.109375,-9.765625
-10.25390625,-14.6484375,-15.13671875,19.04296875
-19.53125,-8.30078125,-26.85546875,-30.76171875
-63.96484375,-41.9921875,-56.15234375,-95.21484375
-74.21875,-40.0390625,-50.29296875,-74.70703125
-47.36328125,-16.6015625,-26.85546875,-0.9765625
-35.64453125,-19.53125,-25.390625,21.97265625
-38.57421875,-40.52734375,-48.33984375,-34.66796875
-49.31640625,-51.26953125,-65.4296875,-83.984375
-60.05859375,-44.921875,-62.98828125,-77.63671875
-40.0390625,-31.25,-42.96875,-20.01953125
-13.18359375,-20.5078125,-30.2734375,11.71875
-14.16015625,-26.85546875,-40.0390625,-35.15625
-43.45703125,-44.921875,-58.59375,-96.6796875
-63.96484375,-44.921875,-63.96484375,-102.5390625
-39.0625,-25.87890625,-41.9921875,-32.71484375
-6.34765625,-17.578125,-15.13671875,17.08984375
-13.18359375,-29.296875,-26.3671875,-24.90234375
-50.29296875,-46.38671875,-56.640625,-86.9140625
-84.9609375,-53.7109375,-70.80078125,-99.609375
-59.08203125,-35.64453125,-45.8984375,-26.85546875
-19.04296875,-26.3671875,-23.92578125,21.484375
-29.78515625,-41.015625,-41.9921875,-27.34375
-51.7578125,-51.26953125,-59.5703125,-83.49609375
-59.5703125,-56.640625,-60.05859375,-98.6328125
-51.26953125,-43.9453125,-47.36328125,-41.015625
-30.2734375,-24.4140625,-42.96875,11.71875
-24.4140625,-32.2265625,-40.0390625,-7.32421875
-52.24609375,-50.78125,-39.0625,-56.15234375
-80.078125,-60.546875,-52.24609375,-87.890625
-72.265625,-50.78125,-54.19921875,-48.828125
-45.8984375,-32.2265625,-31.25,8.30078125
-43.45703125,-31.25,-27.34375,0.9765625
-67.87109375,-49.31640625,-47.36328125,-65.91796875
-93.75,-64.453125,-53.22265625,-103.02734375
-86.9140625,-53.7109375,-49.8046875,-58.10546875
-47.36328125,-40.52734375,-43.45703125,0.0
-25.390625,-46.875,-39.55078125,-5.37109375
-45.8984375,-59.08203125,-59.08203125,-73.2421875
-58.10546875,-52.734375,-56.15234375,-93.75
-50.29296875,-44.43359375,-29.78515625,-46.875
-33.203125,-41.50390625,-22.94921875,-10.25390625
-21.484375,-39.0625,-29.78515625,-4.39453125
-47.8515625,-48.828125,-54.6875,-62.5
-76.66015625,-58.59375,-68.359375,-113.28125
-79.1015625,-58.10546875,-56.640625,-82.03125
-53.7109375,-46.38671875,-38.0859375,-19.04296875
-31.25,-35.15625,-33.69140625,2.9296875
-38.57421875,-45.41015625,-49.8046875,-50.78125
-69.82421875,-61.5234375,-62.98828125,-105.95703125
-76.66015625,-52.734375,-55.17578125,-81.54296875
-41.9921875,-36.62109375,-33.203125,-5.37109375
-32.2265625,-40.0390625,-29.78515625,9.27734375
-46.38671875,-51.7578125,-49.31640625,-50.78125
-75.1953125,-63.4765625,-58.10546875,-99.609375
-89.35546875,-59.5703125,-61.5234375,-94.23828125
-60.546875,-36.62109375,-57.12890625,-28.3203125
-37.109375,-33.69140625,-42.48046875,10.25390625
-38.0859375,-54.6875,-47.8515625,-35.15625
-47.8515625,-61.5234375,-61.03515625,-84.9609375
-59.5703125,-61.5234375,-62.01171875,-89.35546875
-67.87109375,-62.5,-45.41015625,-50.78125
-48.33984375,-44.921875,-23.92578125,-5.37109375
-30.76171875,-43.45703125,-24.90234375,-18.5546875
-64.453125,-74.70703125,-49.8046875,-89.84375
-94.23828125,-81.54296875,-59.5703125,-115.234375
-69.3359375,-57.12890625,-46.875,-51.26953125
-29.78515625,-47.8515625,-43.45703125,-6.34765625
-29.78515625,-57.6171875,-54.19921875,-35.15625
-65.91796875,-72.75390625,-62.5,-87.890625
-104.00390625,-75.1953125,-68.359375,-110.3515625
-99.12109375,-60.05859375,-53.7109375,-49.8046875
-59.5703125,-45.8984375,-37.109375,6.34765625
-38.0859375,-45.8984375,-40.0390625,-17.578125
-51.26953125,-58.59375,-50.29296875,-78.61328125
-75.68359375,-59.08203125,-57.6171875,-103.515625
-74.70703125,-46.875,-50.29296875,-56.640625
-42.48046875,-34.1796875,-37.109375,-0.48828125
-13.671875,-24.90234375,-17.08984375,11.71875
-33.203125,-47.36328125,-38.57421875,-52.734375
-65.4296875,-67.87109375,-67.87109375,-104.98046875
-58.59375,-52.24609375,-54.19921875,-62.98828125
-26.85546875,-34.66796875,-37.59765625,-0.9765625
-3.41796875,-35.64453125,-36.62109375,0.9765625
-24.4140625,-53.22265625,-54.6875,-66.89453125
-68.359375,-64.453125,-61.03515625,-106.93359375
-70.3125,-48.828125,-46.875,-69.82421875
-35.15625,-37.109375,-33.203125,-9.27734375
-29.296875,-46.38671875,-32.2265625,0.0
-25.87890625,-39.0625,-29.296875,-41.015625
-31.73828125,-36.62109375,-30.76171875,-75.1953125
-53.7109375,-47.36328125,-41.50390625,-69.3359375
-24.4140625,-34.1796875,-36.1328125,-7.32421875
-6.8359375,-34.1796875,-38.57421875,13.18359375
-33.69140625,-53.22265625,-46.875,-45.41015625
-64.453125,-64.453125,-56.15234375,-98.14453125
-75.1953125,-56.640625,-51.7578125,-84.47265625
-49.8046875,-41.50390625,-39.0625,-23.4375
-29.296875,-37.109375,-46.875,2.44140625
-43.45703125,-59.5703125,-57.12890625,-48.33984375
-69.3359375,-75.1953125,-59.5703125,-102.05078125
-72.265625,-59.5703125,-57.12890625,-93.75
-55.17578125,-46.38671875,-44.921875,-34.1796875
-39.0625,-37.109375,-35.15625,1.46484375
-33.69140625,-39.55078125,-42.48046875,-36.1328125
-52.24609375,-53.22265625,-58.59375,-92.28515625
-76.171875,-63.4765625,-69.82421875,-109.86328125
-55.17578125,-45.41015625,-55.17578125,-46.38671875
-25.390625,-35.15625,-42.48046875,-1.953125
-24.4140625,-47.8515625,-53.22265625,-33.69140625
-45.41015625,-57.6171875,-68.84765625,-85.44921875
-61.5234375,-69.82421875,-83.49609375,-108.3984375
-36.1328125,-52.24609375,-56.640625,-38.57421875
-7.32421875,-27.34375,-19.04296875,21.484375
-15.625,-38.57421875,-30.76171875,-13.18359375
-41.015625,-54.6875,-46.38671875,-73.73046875
-69.3359375,-65.91796875,-51.7578125,-105.95703125
-57.12890625,-60.05859375,-44.921875,-51.7578125
-32.2265625,-43.45703125,-31.25,11.71875
-26.3671875,-46.38671875,-36.1328125,-6.8359375
-30.2734375,-54.6875,-49.31640625,-61.5234375
-55.6640625,-61.5234375,-62.01171875,-98.6328125
-64.453125,-50.78125,-57.6171875,-59.08203125
-35.15625,-31.25,-36.1328125,4.39453125
-13.671875,-27.34375,-30.76171875,8.30078125
-31.73828125,-44.921875,-48.828125,-61.03515625
-61.5234375,-63.96484375,-56.640625,-111.81640625
-59.5703125,-53.7109375,-45.8984375,-77.63671875
-23.92578125,-34.66796875,-36.1328125,-17.08984375
-19.04296875,-35.64453125,-40.52734375,-3.41796875
-49.8046875,-53.7109375,-55.6640625,-54.6875
-84.47265625,-67.87109375,-66.40625,-99.12109375
-91.796875,-57.6171875,-62.01171875,-72.265625
-60.05859375,-41.50390625,-40.0390625,-11.23046875
-36.62109375,-32.2265625,-35.64453125,0.9765625
-34.1796875,-35.64453125,-42.48046875,-47.36328125
-54.6875,-50.78125,-44.921875,-86.9140625
-81.0546875,-56.640625,-55.17578125,-78.61328125
-66.40625,-51.7578125,-49.31640625,-23.4375
-40.52734375,-45.41015625,-38.57421875,3.41796875
-37.109375,-51.7578125,-45.8984375,-40.0390625
-51.7578125,-62.01171875,-60.546875,-92.28515625
-57.12890625,-58.10546875,-60.546875,-86.9140625
-31.73828125,-44.921875,-39.0625,-17.578125
-10.7421875,-34.1796875,-30.2734375,15.625
-21.484375,-45.8984375,-41.50390625,-27.34375
-51.7578125,-53.7109375,-52.24609375,-74.70703125
-75.68359375,-58.10546875,-56.640625,-82.03125
-60.05859375,-54.6875,-47.8515625,-26.85546875
-41.015625,-37.109375,-36.62109375,8.7890625
-36.62109375,-42.48046875,-38.57421875,-25.390625
-48.33984375,-64.453125,-55.17578125,-82.03125
-78.125,-76.66015625,-73.2421875,-112.3046875
-67.3828125,-62.5,-59.5703125,-53.22265625
-28.3203125,-38.0859375,-40.52734375,0.9765625
-19.53125,-40.52734375,-40.52734375,-24.4140625
-47.8515625,-64.94140625,-49.8046875,-87.890625
-64.94140625,-72.75390625,-62.5,-119.140625
-42.48046875,-46.875,-46.875,-45.8984375
-38.0859375,-45.8984375,-20.99609375,9.27734375
-49.31640625,-67.87109375,-36.1328125,-18.06640625
-48.828125,-60.546875,-55.17578125,-66.40625
-65.91796875,-61.5234375,-55.6640625,-98.6328125
-56.640625,-49.8046875,-55.6640625,-52.734375
-16.11328125,-26.3671875,-43.9453125,2.9296875
-17.578125,-37.109375,-37.59765625,-11.71875
-45.8984375,-59.08203125,-51.26953125,-73.73046875
-71.2890625,-66.89453125,-65.91796875,-108.88671875
-88.37890625,-57.6171875,-59.5703125,-69.82421875
-63.4765625,-38.0859375,-34.1796875,-10.25390625
-39.55078125,-34.66796875,-23.92578125,-1.953125
-58.10546875,-59.5703125,-41.015625,-58.59375
-80.56640625,-80.078125,-55.17578125,-106.93359375
-76.66015625,-66.89453125,-51.7578125,-71.77734375
-42.96875,-40.0390625,-44.43359375,-4.39453125
-19.53125,-33.203125,-42.96875,11.23046875
-24.4140625,-49.8046875,-52.24609375,-42.48046875
-48.33984375,-64.94140625,-57.12890625,-88.37890625
-52.734375,-56.15234375,-47.8515625,-67.3828125
-27.83203125,-42.48046875,-41.015625,-11.23046875
-7.8125,-38.57421875,-35.15625,10.7421875
-7.32421875,-41.9921875,-33.69140625,-30.2734375
-34.1796875,-51.7578125,-53.22265625,-86.9140625
-62.5,-62.5,-69.3359375,-89.35546875
-47.36328125,-55.6640625,-49.31640625,-24.4140625
-24.4140625,-41.50390625,-28.3203125,12.6953125
-34.1796875,-44.43359375,-34.1796875,-31.73828125
-64.94140625,-59.5703125,-53.22265625,-92.7734375
-78.61328125,-62.01171875,-55.6640625,-99.609375
-52.24609375,-47.8515625,-39.55078125,-31.73828125
-23.92578125,-35.64453125,-30.76171875,6.34765625
-25.390625,-46.875,-39.55078125,-36.1328125
-49.31640625,-61.5234375,-54.6875,-90.33203125
-68.359375,-60.546875,-63.4765625,-107.91015625
-45.41015625,-43.45703125,-49.31640625,-44.921875
-23.4375,-31.25,-47.36328125,6.8359375
-33.203125,-41.50390625,-58.10546875,-24.4140625
-39.0625,-34.66796875,-38.0859375,-55.6640625
-63.96484375,-41.50390625,-39.0625,-79.1015625
-70.3125,-47.36328125,-47.36328125,-44.921875
-44.43359375,-35.64453125,-35.64453125,6.34765625
-36.1328125,-42.96875,-40.52734375,-19.53125
-53.22265625,-54.6875,-49.8046875,-81.54296875
-70.3125,-63.4765625,-61.5234375,-111.81640625
-58.59375,-49.8046875,-63.4765625,-62.01171875
-25.390625,-32.2265625,-45.8984375,-4.8828125
-14.6484375,-31.73828125,-38.57421875,-13.18359375
-42.48046875,-51.7578125,-55.17578125,-73.73046875
-63.4765625,-64.94140625,-68.359375,-116.2109375
-61.03515625,-57.6171875,-62.98828125,-70.80078125
-41.50390625,-46.38671875,-51.26953125,-7.8125
-26.3671875,-41.9921875,-48.828125,-8.30078125
-47.36328125,-58.10546875,-62.5,-70.80078125
-68.84765625,-61.03515625,-67.87109375,-104.4921875
-67.3828125,-48.828125,-49.8046875,-62.98828125
-53.22265625,-42.96875,-40.52734375,-6.8359375
-33.69140625,-46.38671875,-51.7578125,3.41796875
-40.0390625,-63.4765625,-61.03515625,-56.15234375
-64.94140625,-65.91796875,-64.453125,-102.05078125
-74.21875,-58.10546875,-60.05859375,-80.078125
-52.734375,-50.78125,-44.43359375,-22.4609375
-40.0390625,-42.48046875,-39.55078125,-10.25390625
-47.36328125,-55.6640625,-52.734375,-66.40625
-76.171875,-75.68359375,-68.359375,-116.2109375
-98.14453125,-70.3125,-62.98828125,-102.05078125
-67.3828125,-52.734375,-39.0625,-35.15625
-39.0625,-46.38671875,-30.2734375,-2.44140625
-46.875,-53.22265625,-46.875,-48.33984375
-65.4296875,-63.4765625,-61.5234375,-99.12109375
-71.2890625,-54.19921875,-57.6171875,-97.16796875
-48.828125,-36.1328125,-47.36328125,-36.62109375
-18.5546875,-35.64453125,-34.66796875,4.39453125
-11.71875,-43.45703125,-38.57421875,-32.2265625
-46.875,-63.96484375,-52.24609375,-99.609375
-77.1484375,-68.359375,-54.19921875,-109.375
-60.05859375,-50.78125,-48.828125,-38.57421875
-34.1796875,-44.43359375,-35.15625,7.8125
-35.15625,-52.734375,-41.9921875,-31.25
-56.15234375,-60.05859375,-57.6171875,-90.33203125
-76.66015625,-65.91796875,-61.5234375,-104.98046875
-64.94140625,-50.78125,-46.875,-40.52734375
-29.78515625,-30.2734375,-35.64453125,10.7421875
-29.78515625,-37.109375,-43.45703125,-23.4375
-50.29296875,-49.31640625,-47.36328125,-75.68359375
-81.54296875,-61.03515625,-58.10546875,-104.00390625
-79.1015625,-44.921875,-57.6171875,-64.94140625
-44.921875,-19.04296875,-40.52734375,-6.8359375
-40.0390625,-25.87890625,-41.015625,-20.01953125
-64.453125,-38.57421875,-53.22265625,-79.1015625
-84.47265625,-40.0390625,-63.96484375,-112.3046875
-65.91796875,-24.4140625,-55.17578125,-64.94140625
-22.4609375,-5.37109375,-34.66796875,-4.39453125
-16.6015625,-6.8359375,-36.62109375,-12.6953125
-49.8046875,-26.85546875,-58.10546875,-72.75390625
-82.03125,-32.2265625,-62.5,-99.12109375
-78.125,-26.3671875,-58.59375,-54.19921875
-44.921875,-21.97265625,-50.78125,-6.8359375
-31.25,-19.53125,-49.31640625,-10.7421875
-33.203125,-20.99609375,-58.10546875,-57.6171875
-59.5703125,-36.1328125,-64.94140625,-107.421875
-75.1953125,-34.1796875,-63.96484375,-90.8203125
-44.921875,-19.53125,-52.24609375,-25.390625
-30.2734375,-24.4140625,-44.921875,-16.11328125
-52.24609375,-31.73828125,-49.31640625,-71.2890625
-90.8203125,-48.828125,-62.5,-114.2578125
-100.09765625,-40.0390625,-67.87109375,-95.703125
-64.453125,-10.25390625,-50.29296875,-29.78515625
-39.0625,-17.578125,-35.15625,-3.90625
-44.43359375,-46.38671875,-49.8046875,-56.640625
-69.82421875,-56.640625,-58.59375,-103.02734375
-72.265625,-42.96875,-38.57421875,-78.125
-41.50390625,-27.83203125,-26.85546875,-14.16015625
-29.296875,-27.83203125,-39.0625,4.39453125
-41.015625,-38.0859375,-46.38671875,-41.50390625
-65.4296875,-50.78125,-55.6640625,-93.26171875
-80.56640625,-54.6875,-66.40625,-96.6796875
-50.78125,-34.66796875,-56.640625,-29.78515625
-23.92578125,-21.97265625,-42.96875,16.11328125
-33.203125,-33.69140625,-42.48046875,-28.3203125
-54.6875,-47.8515625,-56.640625,-83.984375
-80.56640625,-53.7109375,-71.2890625,-95.703125
-62.01171875,-30.76171875,-44.43359375,-26.85546875
-22.4609375,-14.6484375,-19.04296875,22.4609375
-28.80859375,-25.390625,-40.52734375,-22.4609375
-56.640625,-44.43359375,-64.453125,-86.42578125
-68.359375,-54.19921875,-62.5,-98.14453125
-50.78125,-35.64453125,-47.8515625,-35.15625
-26.3671875,-21.484375,-39.0625,8.7890625
-17.08984375,-25.87890625,-34.66796875,-11.71875
-34.66796875,-48.33984375,-45.41015625,-72.75390625
-60.05859375,-61.03515625,-54.6875,-105.46875
-60.05859375,-49.8046875,-48.33984375,-65.4296875
-27.34375,-28.80859375,-37.109375,-12.20703125
-12.20703125,-20.01953125,-23.4375,-4.8828125
-51.7578125,-36.62109375,-43.45703125,-69.82421875
-92.7734375,-44.921875,-74.70703125,-119.140625
-80.56640625,-30.76171875,-67.3828125,-77.1484375
-43.9453125,-22.4609375,-40.0390625,-17.08984375
-30.2734375,-29.78515625,-32.71484375,-18.5546875
-43.9453125,-41.50390625,-47.8515625,-75.68359375
-68.84765625,-50.29296875,-52.24609375,-102.05078125
-71.2890625,-40.52734375,-41.9921875,-53.22265625
-44.921875,-22.94921875,-33.69140625,7.32421875
-33.203125,-30.76171875,-39.0625,8.30078125
-37.109375,-44.43359375,-45.41015625,-43.9453125
-50.29296875,-44.921875,-52.734375,-88.37890625
-65.91796875,-45.41015625,-62.98828125,-77.1484375
-38.0859375,-29.78515625,-46.38671875,-8.7890625
-14.6484375,-20.01953125,-32.71484375,18.06640625
-19.53125,-40.0390625,-49.31640625,-39.0625
-44.43359375,-58.59375,-66.89453125,-91.796875
-70.80078125,-60.05859375,-61.03515625,-84.9609375
-43.45703125,-41.015625,-43.9453125,-26.3671875
-23.92578125,-32.71484375,-38.57421875,-1.953125
-42.48046875,-36.1328125,-51.7578125,-48.828125
-67.87109375,-50.29296875,-60.546875,-100.09765625
-78.61328125,-63.4765625,-54.6875,-95.703125
-57.12890625,-50.29296875,-42.96875,-34.66796875
-41.9921875,-48.828125,-41.9921875,-9.765625
-47.8515625,-51.7578125,-44.921875,-43.9453125
-67.87109375,-56.15234375,-54.19921875,-88.8671875
-86.9140625,-64.453125,-69.82421875,-111.81640625
-59.5703125,-40.52734375,-53.22265625,-49.8046875
-23.92578125,-25.390625,-38.0859375,-2.9296875
-23.4375,-43.9453125,-50.29296875,-39.0625
-49.8046875,-60.546875,-62.01171875,-87.890625
-72.265625,-60.546875,-63.4765625,-109.86328125
-41.015625,-33.203125,-35.15625,-35.15625
-9.27734375,-22.94921875,-17.578125,27.34375
-25.390625,-42.96875,-48.33984375,-14.6484375
-59.08203125,-59.08203125,-63.4765625,-75.68359375
-77.1484375,-62.98828125,-59.5703125,-95.703125
-65.4296875,-50.29296875,-52.24609375,-40.0390625
-45.8984375,-38.0859375,-42.96875,16.6015625
-30.2734375,-43.9453125,-39.55078125,-0.48828125
-43.9453125,-50.78125,-48.828125,-62.5
-74.21875,-56.640625,-54.6875,-97.65625
-66.89453125,-52.734375,-43.9453125,-52.734375
-36.62109375,-36.62109375,-34.66796875,7.32421875
-21.484375,-39.0625,-28.80859375,11.71875
-42.48046875,-63.96484375,-48.828125,-52.734375
-65.91796875,-73.2421875,-67.3828125,-92.28515625
-63.96484375,-60.05859375,-45.8984375,-53.7109375
-51.26953125,-43.9453125,-29.296875,-16.6015625
-32.71484375,-42.48046875,-26.85546875,-14.6484375
-41.9921875,-60.05859375,-37.109375,-66.89453125
-66.40625,-65.91796875,-44.43359375,-111.328125
-71.2890625,-59.5703125,-37.59765625,-76.66015625
-50.78125,-48.828125,-36.1328125,-14.16015625
-33.69140625,-41.50390625,-40.52734375,0.48828125
-39.0625,-49.8046875,-52.734375,-45.8984375
-56.15234375,-72.265625,-59.5703125,-93.75
-68.359375,-74.70703125,-50.29296875,-79.1015625
-47.8515625,-50.29296875,-33.203125,-10.7421875
-24.4140625,-37.109375,-25.390625,20.5078125
-37.109375,-45.8984375,-40.0390625,-28.80859375
-71.77734375,-62.98828125,-54.19921875,-84.9609375
-77.63671875,-59.08203125,-56.640625,-74.21875
-52.24609375,-32.71484375,-42.48046875,-6.34765625
-25.87890625,-25.390625,-24.90234375,27.83203125
-26.85546875,-51.26953125,-36.62109375,-22.4609375
-55.6640625,-62.01171875,-61.5234375,-80.56640625
-67.87109375,-38.57421875,-56.640625,-75.68359375
-46.38671875,-29.296875,-36.1328125,-14.16015625
-25.87890625,-38.0859375,-38.0859375,13.671875
-23.92578125,-41.015625,-48.828125,-18.06640625
-53.22265625,-51.7578125,-56.15234375,-76.66015625
-73.2421875,-58.59375,-57.12890625,-103.02734375
-51.26953125,-48.33984375,-42.96875,-43.9453125
-25.390625,-38.0859375,-28.3203125,6.8359375
-21.484375,-41.9921875,-34.1796875,-21.484375
-48.828125,-54.19921875,-55.6640625,-81.54296875
-61.03515625,-60.05859375,-59.5703125,-95.703125
-48.828125,-48.33984375,-40.0390625,-34.1796875
-29.78515625,-30.76171875,-28.3203125,8.30078125
-25.87890625,-35.15625,-30.2734375,-16.6015625
-58.59375,-59.08203125,-42.96875,-80.56640625
-79.58984375,-59.5703125,-44.43359375,-104.4921875
-63.96484375,-37.109375,-30.2734375,-49.31640625
-40.0390625,-26.3671875,-29.78515625,-1.46484375
-37.109375,-32.2265625,-40.52734375,-12.20703125
-60.05859375,-51.26953125,-51.26953125,-77.63671875
-79.58984375,-63.96484375,-64.94140625,-118.65234375
-69.82421875,-52.24609375,-60.546875,-72.265625
-37.59765625,-36.1328125,-40.0390625,-14.16015625
-26.85546875,-35.64453125,-31.73828125,-14.16015625
-34.1796875,-42.96875,-38.0859375,-68.359375
-53.7109375,-52.24609375,-44.921875,-109.86328125
-57.6171875,-46.875,-41.50390625,-77.63671875
-23.4375,-26.3671875,-23.92578125,-2.9296875
0.48828125,-22.94921875,-18.06640625,15.13671875
-15.625,-38.57421875,-38.0859375,-53.22265625
-56.15234375,-63.96484375,-57.12890625,-107.91015625
-70.3125,-65.4296875,-57.6171875,-77.63671875
-47.8515625,-45.41015625,-43.45703125,-15.13671875
-32.2265625,-41.50390625,-43.45703125,-1.46484375
-50.78125,-56.640625,-56.640625,-55.17578125
-76.66015625,-69.3359375,-62.98828125,-102.5390625
-87.40234375,-59.5703125,-51.7578125,-86.9140625
-64.453125,-48.828125,-43.9453125,-27.83203125
-28.80859375,-40.52734375,-25.87890625,10.25390625
-32.2265625,-48.828125,-26.3671875,-35.15625
-65.4296875,-67.3828125,-58.59375,-99.12109375
-90.33203125,-60.546875,-62.98828125,-100.09765625
-61.03515625,-33.69140625,-46.875,-29.296875
-27.34375,-29.296875,-42.96875,15.625
-45.8984375,-55.17578125,-56.15234375,-36.1328125
-65.4296875,-69.3359375,-62.5,-96.19140625
-71.2890625,-61.03515625,-51.7578125,-98.14453125
-54.6875,-41.50390625,-37.109375,-36.62109375
-18.5546875,-23.4375,-30.2734375,8.7890625
-11.71875,-32.2265625,-38.57421875,-22.94921875
-36.62109375,-54.6875,-52.734375,-79.58984375
-56.640625,-59.08203125,-57.12890625,-100.09765625
-47.36328125,-52.24609375,-46.875,-42.48046875
-31.25,-39.55078125,-36.62109375,9.765625
-35.64453125,-39.55078125,-47.36328125,-22.4609375
-69.3359375,-61.03515625,-65.91796875,-82.51953125
-97.16796875,-73.2421875,-72.265625,-106.4453125
-81.0546875,-52.24609375,-56.15234375,-49.8046875
-48.828125,-35.64453125,-36.1328125,4.39453125
-43.45703125,-48.828125,-34.1796875,-16.6015625
-56.640625,-57.6171875,-48.33984375,-73.2421875
-62.98828125,-53.7109375,-56.640625,-100.5859375
-48.33984375,-45.8984375,-47.8515625,-57.6171875
-20.5078125,-39.0625,-37.59765625,-9.27734375
-11.71875,-41.50390625,-37.59765625,-14.6484375
-34.66796875,-54.19921875,-53.7109375,-72.265625
-52.24609375,-65.91796875,-59.5703125,-110.3515625
-49.8046875,-61.03515625,-49.8046875,-67.87109375
-34.1796875,-46.38671875,-31.25,-4.8828125
-19.04296875,-36.62109375,-24.4140625,-0.9765625
-29.296875,-45.8984375,-46.38671875,-59.5703125
-67.87109375,-66.40625,-71.77734375,-112.79296875
-79.1015625,-59.5703125,-70.3125,-90.33203125
-36.62109375,-30.76171875,-38.0859375,-11.23046875
-17.08984375,-28.3203125,-34.1796875,4.8828125
-36.62109375,-53.7109375,-63.96484375,-66.89453125
-66.89453125,-73.73046875,-75.68359375,-121.09375
-75.1953125,-66.40625,-65.91796875,-96.6796875
-48.33984375,-50.29296875,-41.015625,-23.92578125
-39.0625,-48.33984375,-38.57421875,0.0
-43.9453125,-52.734375,-53.22265625,-42.48046875
-66.89453125,-60.05859375,-58.59375,-94.23828125
-83.984375,-62.98828125,-59.08203125,-99.12109375
-65.4296875,-53.7109375,-46.875,-37.59765625
-36.62109375,-37.109375,-36.1328125,-1.953125
-34.1796875,-44.921875,-44.921875,-45.8984375
-57.6171875,-60.546875,-56.640625,-100.5859375
-77.63671875,-62.5,-54.19921875,-112.79296875
-58.10546875,-44.43359375,-40.52734375,-46.875
-37.109375,-34.66796875,-38.0859375,-4.8828125
-40.52734375,-50.78125,-51.26953125,-44.921875
-59.08203125,-61.5234375,-56.640625,-93.26171875
-82.51953125,-62.01171875,-56.15234375,-107.421875
-64.94140625,-42.96875,-41.9921875,-45.41015625
-32.2265625,-41.015625,-39.0625,4.8828125
-27.34375,-53.22265625,-47.8515625,-21.484375
-49.8046875,-56.15234375,-55.17578125,-75.68359375
-65.91796875,-68.359375,-63.96484375,-95.703125
-48.33984375,-58.59375,-57.6171875,-39.0625
-18.06640625,-30.2734375,-36.62109375,22.4609375
-4.8828125,-22.94921875,-31.25,10.7421875
-28.80859375,-50.29296875,-52.24609375,-62.01171875
-68.359375,-69.3359375,-69.82421875,-101.5625
-67.87109375,-59.5703125,-47.36328125,-48.828125
-53.22265625,-51.26953125,-23.4375,0.9765625
-50.29296875,-52.24609375,-37.109375,-12.6953125
-58.10546875,-66.40625,-56.15234375,-70.3125
-83.984375,-80.56640625,-66.40625,-117.67578125
-79.1015625,-58.59375,-60.05859375,-83.49609375
-41.50390625,-40.0390625,-45.8984375,-20.5078125
-22.94921875,-45.8984375,-48.33984375,-14.16015625
-35.64453125,-56.15234375,-58.59375,-68.84765625
-65.91796875,-67.3828125,-60.05859375,-109.375
-75.1953125,-60.05859375,-54.6875,-80.078125
-48.828125,-43.45703125,-39.0625,-22.4609375
-39.55078125,-36.62109375,-28.3203125,-5.37109375
-61.5234375,-52.734375,-40.52734375,-55.6640625
-79.1015625,-67.87109375,-55.6640625,-100.09765625
-77.1484375,-62.98828125,-55.6640625,-76.66015625
-47.8515625,-46.875,-40.0390625,-13.671875
-20.01953125,-36.62109375,-28.3203125,13.18359375
-19.53125,-53.7109375,-52.734375,-39.0625
-46.875,-75.68359375,-73.73046875,-92.28515625
-62.01171875,-75.68359375,-63.4765625,-76.66015625
-45.41015625,-58.10546875,-46.38671875,-12.20703125
-23.92578125,-41.50390625,-33.203125,19.04296875
-16.11328125,-41.9921875,-39.0625,-26.3671875
-36.1328125,-57.6171875,-57.6171875,-88.37890625
-53.22265625,-63.4765625,-60.546875,-96.6796875
-34.66796875,-49.8046875,-41.015625,-27.34375
-16.11328125,-43.9453125,-27.34375,10.25390625
-27.34375,-50.29296875,-38.0859375,-37.59765625
-54.19921875,-59.08203125,-51.26953125,-90.8203125
-76.171875,-69.82421875,-61.03515625,-104.98046875
-53.7109375,-55.17578125,-42.48046875,-35.15625
-25.390625,-37.109375,-28.3203125,15.625
-38.0859375,-44.43359375,-42.96875,-29.296875
-66.89453125,-58.10546875,-52.734375,-89.35546875
-82.03125,-61.03515625,-57.12890625,-112.79296875
-56.640625,-38.0859375,-43.45703125,-54.6875
-26.85546875,-34.66796875,-37.59765625,-4.8828125
-36.62109375,-55.6640625,-50.29296875,-30.76171875
-64.453125,-68.84765625,-58.10546875,-82.51953125
-88.8671875,-67.3828125,-63.96484375,-106.93359375
-78.125,-47.8515625,-58.10546875,-52.734375
-46.38671875,-41.015625,-37.109375,8.30078125
-27.34375,-41.015625,-26.85546875,4.8828125
-38.57421875,-45.41015625,-43.9453125,-53.7109375
-64.94140625,-65.4296875,-56.640625,-102.05078125
-57.6171875,-56.640625,-45.8984375,-65.91796875
-33.69140625,-36.62109375,-32.71484375,-6.8359375
-28.3203125,-37.109375,-41.015625,-6.8359375
-46.875,-51.26953125,-58.59375,-64.453125
-85.9375,-60.546875,-60.05859375,-105.46875
-89.35546875,-50.78125,-49.8046875,-66.40625
-46.38671875,-33.203125,-39.0625,-5.37109375
-22.4609375,-25.87890625,-33.69140625,3.90625
-40.52734375,-47.36328125,-41.50390625,-50.29296875
-78.125,-60.546875,-50.78125,-97.65625
-76.66015625,-39.55078125,-41.50390625,-69.3359375
-40.0390625,-25.390625,-31.25,-6.34765625
-15.625,-24.90234375,-31.73828125,13.671875
-24.4140625,-36.1328125,-41.50390625,-40.52734375
-53.22265625,-55.6640625,-54.19921875,-96.19140625
-67.3828125,-53.7109375,-50.78125,-75.1953125
-35.64453125,-37.59765625,-32.2265625,-4.39453125
-13.671875,-30.76171875,-29.296875,19.04296875
-30.76171875,-45.41015625,-43.9453125,-37.59765625
-56.640625,-52.734375,-52.24609375,-86.42578125
-65.91796875,-47.8515625,-49.8046875,-78.125
-45.41015625,-39.0625,-42.48046875,-26.3671875
-20.99609375,-31.25,-39.0625,-3.90625
-18.5546875,-43.45703125,-44.43359375,-43.45703125
-42.48046875,-61.5234375,-59.08203125,-94.7265625
-67.87109375,-64.94140625,-63.4765625,-107.421875
-58.10546875,-50.29296875,-47.36328125,-44.921875
-35.15625,-34.66796875,-28.3203125,-5.859375
-29.78515625,-42.96875,-33.69140625,-49.8046875
-50.29296875,-66.40625,-50.78125,-98.6328125
-74.70703125,-63.96484375,-61.5234375,-112.79296875
-50.29296875,-40.0390625,-51.7578125,-50.29296875
-23.4375,-31.73828125,-35.64453125,6.34765625
-20.99609375,-35.64453125,-46.38671875,-26.85546875
-48.828125,-46.38671875,-62.98828125,-86.9140625
-88.37890625,-59.5703125,-65.91796875,-109.375
-73.2421875,-46.875,-51.7578125,-47.8515625
-47.36328125,-28.80859375,-34.1796875,4.39453125
-41.9921875,-37.59765625,-34.66796875,-18.06640625
-54.6875,-54.6875,-50.78125,-78.125
-74.70703125,-61.03515625,-61.03515625,-109.375
-64.453125,-51.26953125,-50.78125,-61.03515625
-37.109375,-38.0859375,-36.62109375,-5.859375
-27.83203125,-35.15625,-32.2265625,-7.8125
-42.96875,-49.8046875,-48.33984375,-67.3828125
-62.5,-62.01171875,-63.96484375,-108.88671875
-56.15234375,-45.41015625,-51.26953125,-67.3828125
-22.94921875,-25.390625,-35.15625,2.44140625
-15.13671875,-27.34375,-43.9453125,4.8828125
-33.203125,-42.48046875,-59.08203125,-62.5
-54.6875,-58.10546875,-56.15234375,-105.95703125
-62.98828125,-55.17578125,-46.875,-75.68359375
-43.45703125,-38.57421875,-39.0625,-17.08984375
-29.78515625,-31.25,-38.57421875,-0.9765625
-39.0625,-44.43359375,-50.78125,-55.6640625
-63.96484375,-59.08203125,-61.5234375,-106.93359375
-76.171875,-58.10546875,-58.10546875,-80.078125
-53.7109375,-50.29296875,-44.921875,-13.671875
-29.296875,-38.57421875,-34.66796875,13.18359375
-39.0625,-49.31640625,-43.9453125,-33.203125
-79.58984375,-72.75390625,-66.40625,-96.6796875
-93.75,-59.08203125,-59.08203125,-93.75
-71.2890625,-41.9921875,-37.59765625,-30.2734375
-52.734375,-40.0390625,-35.15625,-1.46484375
-56.15234375,-45.8984375,-54.19921875,-49.8046875
-74.21875,-58.59375,-63.96484375,-105.46875
-75.68359375,-56.640625,-51.7578125,-102.05078125
-52.734375,-33.69140625,-29.296875,-29.78515625
-37.109375,-26.85546875,-23.4375,4.8828125
-38.0859375,-40.52734375,-38.57421875,-32.71484375
-54.19921875,-55.6640625,-54.19921875,-75.1953125
-82.03125,-62.5,-58.59375,-95.703125
-73.73046875,-42.48046875,-42.48046875,-46.875
-31.73828125,-24.90234375,-27.83203125,9.27734375
-19.04296875,-39.55078125,-35.15625,-18.5546875
-43.45703125,-60.05859375,-49.31640625,-81.54296875
-62.98828125,-62.5,-59.08203125,-104.98046875
-43.9453125,-47.8515625,-49.31640625,-45.41015625
-12.6953125,-38.57421875,-34.66796875,11.23046875
-13.671875,-46.875,-43.45703125,-11.23046875
-38.57421875,-62.5,-57.12890625,-67.87109375
-52.24609375,-71.77734375,-55.17578125,-86.42578125
-45.41015625,-57.6171875,-44.43359375,-37.109375
-41.9921875,-47.8515625,-39.55078125,7.8125
-42.96875,-50.78125,-38.0859375,-1.953125
-59.08203125,-56.15234375,-53.7109375,-70.80078125
-85.9375,-66.89453125,-70.80078125,-120.1171875
-77.63671875,-59.5703125,-62.5,-82.03125
-38.57421875,-36.1328125,-44.921875,-24.90234375
-25.390625,-40.0390625,-41.015625,-26.3671875
-53.7109375,-61.03515625,-51.26953125,-93.75
-93.26171875,-66.40625,-62.98828125,-139.16015625
-93.26171875,-56.640625,-63.96484375,-99.609375
-60.546875,-42.96875,-44.921875,-35.64453125
-42.96875,-34.1796875,-30.2734375,-18.5546875
-47.8515625,-46.875,-37.59765625,-70.3125
-77.63671875,-62.98828125,-52.734375,-118.65234375
-84.47265625,-56.15234375,-47.8515625,-85.44921875
-48.33984375,-45.41015625,-31.25,-17.578125
-31.73828125,-45.8984375,-27.34375,5.37109375
-43.45703125,-59.5703125,-30.76171875,-41.50390625
-71.77734375,-78.125,-49.31640625,-92.7734375
-70.3125,-71.77734375,-58.10546875,-73.73046875
-30.2734375,-45.8984375,-39.0625,-4.8828125
-10.25390625,-45.41015625,-24.90234375,27.34375
-32.71484375,-68.359375,-37.109375,-19.53125
-63.4765625,-72.265625,-58.10546875,-76.66015625
-71.2890625,-64.94140625,-64.453125,-76.66015625
-50.29296875,-49.31640625,-46.875,-15.625
-26.85546875,-41.50390625,-28.80859375,17.08984375
-15.625,-52.24609375,-38.57421875,-19.53125
-24.4140625,-53.7109375,-53.22265625,-67.87109375
-48.828125,-46.875,-56.640625,-86.42578125
-43.9453125,-28.80859375,-45.41015625,-39.0625
-36.62109375,-20.5078125,-41.9921875,-7.32421875
-36.62109375,-24.4140625,-60.05859375,-45.41015625
-55.17578125,-34.1796875,-76.171875,-101.07421875
-83.49609375,-40.0390625,-89.35546875,-126.46484375
-64.453125,-18.5546875,-83.0078125,-74.70703125
-35.64453125,-5.859375,-69.82421875,-31.25
-30.76171875,-16.6015625,-68.359375,-59.08203125
-44.43359375,-35.64453125,-76.66015625,-113.76953125
-79.58984375,-45.8984375,-86.42578125,-135.7421875
-83.984375,-31.73828125,-82.51953125,-77.1484375
-47.36328125,-12.20703125,-62.5,-17.08984375
-35.64453125,-14.6484375,-47.8515625,-29.78515625
-55.17578125,-32.71484375,-64.94140625,-90.8203125
-66.89453125,-36.1328125,-76.66015625,-116.69921875
-66.40625,-33.69140625,-65.4296875,-68.359375
-44.921875,-36.1328125,-50.78125,-15.13671875
-28.80859375,-30.76171875,-41.9921875,-19.04296875
-49.8046875,-43.45703125,-59.08203125,-77.63671875
-68.359375,-55.6640625,-73.2421875,-115.72265625
-59.08203125,-53.22265625,-60.546875,-77.1484375
-38.0859375,-45.41015625,-47.8515625,-18.06640625
-27.83203125,-35.15625,-50.29296875,-7.32421875
-45.8984375,-46.875,-63.4765625,-68.359375
-77.63671875,-59.08203125,-76.66015625,-122.0703125
-72.265625,-48.33984375,-74.70703125,-90.8203125
-39.0625,-27.83203125,-62.98828125,-30.76171875
-27.34375,-30.2734375,-55.17578125,-15.625
-42.48046875,-53.22265625,-67.87109375,-69.3359375
-67.3828125,-57.12890625,-74.70703125,-117.1875
-74.21875,-41.015625,-53.7109375,-85.44921875
-47.36328125,-30.2734375,-41.015625,-15.625
-29.78515625,-31.25,-42.48046875,6.8359375
-39.55078125,-39.0625,-45.8984375,-42.48046875
-53.7109375,-44.43359375,-57.12890625,-87.40234375
-62.01171875,-39.0625,-68.84765625,-78.125
-43.9453125,-37.59765625,-64.94140625,-22.4609375
-11.71875,-30.2734375,-41.9921875,17.08984375
-21.484375,-28.80859375,-41.50390625,-28.80859375
-52.734375,-46.38671875,-68.84765625,-97.16796875
-66.40625,-48.828125,-76.171875,-103.515625
-41.50390625,-25.87890625,-52.24609375,-36.62109375
-10.25390625,-14.16015625,-39.55078125,2.9296875
-23.92578125,-31.73828125,-54.6875,-50.78125
-50.29296875,-41.50390625,-58.59375,-104.00390625
-79.1015625,-45.41015625,-57.6171875,-107.91015625
-83.49609375,-38.0859375,-47.8515625,-47.36328125
-49.8046875,-26.3671875,-35.15625,-3.41796875
-31.73828125,-34.1796875,-41.50390625,-34.1796875
-52.24609375,-48.828125,-59.08203125,-88.37890625
-74.70703125,-51.26953125,-63.96484375,-105.95703125
-56.15234375,-38.57421875,-45.41015625,-41.9921875
-22.94921875,-34.1796875,-28.3203125,12.6953125
