TP9,AF7,AF8,TP10
13.671875,34.66796875,-34.66796875,-93.75
36.62109375,7.8125,-27.83203125,-56.15234375
-32.2265625,-60.546875,-17.578125,20.01953125
-101.07421875,-74.21875,-29.296875,26.85546875
-63.4765625,-3.41796875,-33.69140625,-28.80859375
16.6015625,74.70703125,-28.3203125,-66.40625
48.828125,-11.71875,-27.34375,-56.640625
-23.4375,-75.1953125,-15.625,14.16015625
-100.09765625,-62.98828125,0.48828125,29.296875
-82.03125,-57.12890625,-3.41796875,-33.203125
-4.39453125,14.16015625,-21.97265625,-79.58984375
38.57421875,5.37109375,-32.2265625,-63.96484375
-15.13671875,-42.96875,-23.4375,13.18359375
-87.40234375,-60.05859375,-14.16015625,40.52734375
-83.49609375,-20.5078125,-13.671875,-6.34765625
-4.39453125,21.97265625,-19.53125,-68.84765625
50.29296875,35.15625,-28.80859375,-70.80078125
6.34765625,-9.765625,-16.6015625,3.41796875
-72.265625,-94.7265625,-3.41796875,29.78515625
-102.05078125,-73.73046875,-2.9296875,-19.04296875
-26.85546875,-4.8828125,-8.7890625,-76.66015625
43.45703125,8.7890625,-20.01953125,-81.0546875
2.44140625,-18.06640625,-28.80859375,-1.46484375
-70.3125,-59.08203125,-32.71484375,40.52734375
-86.42578125,-73.2421875,-28.80859375,3.41796875
-21.484375,-9.765625,-17.08984375,-67.3828125
27.83203125,20.99609375,-12.20703125,-98.6328125
5.37109375,-40.52734375,-20.5078125,-31.73828125
-68.84765625,-99.609375,-18.5546875,21.484375
-106.93359375,-62.01171875,-9.27734375,-1.953125
-43.9453125,-27.34375,-14.6484375,-69.3359375
21.97265625,-35.15625,-24.90234375,-86.9140625
10.25390625,-37.59765625,-22.94921875,-24.4140625
-68.84765625,-70.80078125,-17.08984375,26.85546875
-126.46484375,-75.1953125,-30.2734375,1.46484375
-74.21875,8.30078125,-43.45703125,-70.80078125
-2.9296875,10.25390625,-46.875,-104.4921875
-1.46484375,-36.1328125,-44.921875,-67.87109375
-73.2421875,-88.8671875,-35.15625,-8.30078125
-137.6953125,-106.4453125,-34.66796875,-14.6484375
-90.33203125,-26.85546875,-40.0390625,-84.47265625
-7.8125,16.6015625,-44.921875,-118.65234375
4.8828125,-54.6875,-46.38671875,-85.44921875
-71.2890625,-127.44140625,-48.33984375,-10.7421875
-126.46484375,-111.81640625,-50.78125,3.41796875
-93.26171875,-52.734375,-51.7578125,-67.87109375
-20.5078125,-8.30078125,-57.12890625,-111.81640625
7.32421875,-30.2734375,-47.36328125,-86.9140625
-59.08203125,-62.5,-32.2265625,-14.16015625
-129.8828125,-81.0546875,-35.15625,-3.41796875
-106.4453125,-43.45703125,-48.828125,-61.5234375
-30.76171875,-19.04296875,-61.03515625,-108.88671875
3.90625,-33.69140625,-64.94140625,-93.75
-54.6875,-72.265625,-58.10546875,-16.6015625
-133.7890625,-111.81640625,-56.640625,-0.48828125
-132.8125,-98.6328125,-65.91796875,-65.4296875
-49.31640625,-44.921875,-75.1953125,-116.69921875
9.765625,-45.41015625,-88.37890625,-107.421875
-41.015625,-106.93359375,-75.1953125,-35.64453125
-120.1171875,-116.69921875,-57.12890625,-6.8359375
-122.55859375,-77.63671875,-61.03515625,-53.22265625
-42.48046875,4.8828125,-66.40625,-110.83984375
8.30078125,-8.7890625,-72.265625,-115.72265625
-32.71484375,-103.515625,-69.3359375,-43.9453125
-110.83984375,-104.98046875,-58.10546875,-6.34765625
-129.39453125,-38.0859375,-48.828125,-39.55078125
-51.26953125,-40.52734375,-61.5234375,-99.12109375
18.06640625,-29.296875,-73.73046875,-108.3984375
-8.30078125,-53.7109375,-51.26953125,-35.64453125
-87.890625,-146.484375,-36.62109375,4.39453125
-124.0234375,-118.65234375,-41.50390625,-27.83203125
-56.15234375,-32.71484375,-52.734375,-96.19140625
24.90234375,12.6953125,-62.5,-110.3515625
4.39453125,-39.0625,-54.19921875,-41.9921875
-77.63671875,-97.16796875,-32.2265625,11.71875
-122.55859375,-81.54296875,-33.203125,-8.7890625
-67.87109375,-4.8828125,-53.22265625,-79.58984375
20.01953125,50.78125,-56.15234375,-99.609375
21.484375,-40.52734375,-63.96484375,-48.828125
-64.453125,-117.1875,-48.828125,8.30078125
-122.0703125,-104.00390625,-30.2734375,-1.46484375
-89.35546875,-57.6171875,-52.734375,-84.9609375
-8.7890625,3.41796875,-67.87109375,-113.76953125
3.90625,-21.484375,-61.5234375,-75.1953125
-78.61328125,-106.4453125,-49.31640625,-5.859375
-136.23046875,-108.3984375,-39.55078125,3.90625
-94.23828125,-39.55078125,-48.828125,-74.21875
-8.30078125,10.7421875,-59.5703125,-104.98046875
18.5546875,8.30078125,-52.734375,-66.89453125
-45.8984375,-40.0390625,-38.0859375,0.48828125
-117.1875,-109.86328125,-37.109375,2.9296875
-94.7265625,-60.546875,-47.36328125,-69.3359375
-11.71875,4.8828125,-53.7109375,-102.5390625
28.80859375,-19.04296875,-56.640625,-75.1953125
-39.0625,-86.42578125,-52.734375,-7.8125
-112.79296875,-105.46875,-49.31640625,11.23046875
-95.703125,-50.29296875,-48.33984375,-45.41015625
-8.30078125,24.4140625,-53.22265625,-92.7734375
40.52734375,35.15625,-53.7109375,-90.33203125
-15.625,-69.82421875,-31.25,-15.13671875
-97.16796875,-97.16796875,-18.06640625,19.04296875
-100.5859375,-20.5078125,-24.90234375,-33.69140625
-23.4375,-29.78515625,-38.57421875,-95.703125
35.64453125,-14.6484375,-45.8984375,-94.7265625
-2.9296875,-51.7578125,-37.109375,-16.6015625
-83.49609375,-123.53515625,-33.69140625,16.6015625
-106.93359375,-76.66015625,-40.0390625,-28.3203125
-39.55078125,-12.20703125,-49.31640625,-93.75
23.92578125,6.8359375,-53.22265625,-95.703125
-10.7421875,-32.71484375,-40.0390625,-20.5078125
-85.44921875,-89.84375,-31.25,15.625
-121.09375,-69.3359375,-36.1328125,-16.6015625
-47.36328125,-7.8125,-45.41015625,-77.63671875
34.1796875,23.4375,-51.7578125,-99.609375
15.13671875,-31.73828125,-40.0390625,-35.15625
-69.3359375,-136.71875,-31.25,10.7421875
-110.83984375,-116.69921875,-35.64453125,-9.27734375
-43.9453125,-20.99609375,-40.0390625,-67.87109375
34.66796875,17.578125,-48.33984375,-90.8203125
30.76171875,-34.66796875,-50.29296875,-37.59765625
-54.6875,-93.75,-39.0625,19.04296875
-110.3515625,-73.2421875,-46.38671875,2.9296875
-74.70703125,-16.6015625,-55.17578125,-77.1484375
-0.48828125,18.06640625,-50.29296875,-100.5859375
14.6484375,-30.2734375,-51.7578125,-55.6640625
-54.19921875,-64.453125,-42.48046875,7.32421875
-115.234375,-100.5859375,-40.0390625,1.46484375
-79.58984375,-54.19921875,-53.7109375,-69.82421875
-0.48828125,25.390625,-53.7109375,-94.7265625
23.4375,-35.64453125,-50.78125,-55.17578125
-56.15234375,-120.1171875,-44.921875,1.46484375
-125.48828125,-103.515625,-52.24609375,-4.39453125
-89.35546875,-29.78515625,-67.87109375,-76.66015625
-3.41796875,24.4140625,-64.94140625,-113.76953125
34.66796875,3.41796875,-54.19921875,-78.125
-26.85546875,-68.84765625,-44.921875,-1.953125
-104.98046875,-125.9765625,-34.66796875,16.6015625
-101.07421875,-47.36328125,-35.64453125,-47.36328125
-12.20703125,17.08984375,-50.78125,-95.703125
28.3203125,-41.9921875,-54.19921875,-82.51953125
-26.3671875,-60.546875,-36.1328125,-1.953125
-98.6328125,-103.515625,-22.4609375,20.5078125
-104.98046875,-59.5703125,-24.90234375,-41.9921875
-34.1796875,17.08984375,-34.66796875,-94.7265625
17.578125,-18.06640625,-51.26953125,-80.56640625
-28.80859375,-82.03125,-50.29296875,-3.41796875
-107.91015625,-110.3515625,-28.80859375,27.34375
-119.62890625,-69.3359375,-29.78515625,-25.87890625
-37.109375,24.4140625,-50.78125,-92.28515625
31.25,44.921875,-53.22265625,-104.00390625
-6.34765625,-65.91796875,-41.50390625,-39.55078125
-84.47265625,-124.0234375,-27.83203125,-3.90625
-107.91015625,-50.78125,-31.73828125,-37.59765625
-14.6484375,20.99609375,-48.828125,-82.51953125
62.98828125,22.94921875,-45.8984375,-83.49609375
20.01953125,-27.83203125,-27.83203125,-25.390625
-77.63671875,-95.21484375,-11.23046875,6.8359375
-118.65234375,-51.26953125,-14.6484375,-23.4375
-49.31640625,-3.90625,-33.69140625,-80.078125
18.5546875,-36.62109375,-46.875,-90.8203125
1.953125,-38.57421875,-40.0390625,-40.0390625
-76.171875,-43.9453125,-30.2734375,12.20703125
-136.23046875,-99.12109375,-27.83203125,-20.5078125
-79.1015625,-36.1328125,-30.2734375,-92.28515625
11.23046875,20.5078125,-36.1328125,-100.09765625
25.390625,-16.6015625,-33.203125,-47.36328125
-48.33984375,-72.75390625,-17.08984375,19.53125
-105.46875,-83.49609375,-10.25390625,14.6484375
-59.08203125,-27.34375,-16.11328125,-54.19921875
12.6953125,18.06640625,-23.4375,-76.171875
34.66796875,9.27734375,-25.390625,-28.80859375
-33.203125,-64.94140625,-16.11328125,45.41015625
-107.421875,-83.0078125,-9.765625,45.41015625
-77.1484375,-5.37109375,-16.11328125,-38.0859375
2.44140625,19.53125,-22.4609375,-82.03125
21.97265625,-42.96875,-28.80859375,-65.91796875
-42.48046875,-82.03125,-22.4609375,4.39453125
-109.86328125,-76.171875,-25.87890625,18.5546875
-85.44921875,-20.01953125,-34.66796875,-38.57421875
4.39453125,20.5078125,-37.59765625,-68.84765625
48.33984375,-11.71875,-42.48046875,-57.6171875
-19.04296875,-72.75390625,-38.57421875,-2.9296875
-97.16796875,-80.078125,-24.90234375,18.5546875
-89.35546875,-41.015625,-18.5546875,-37.109375
-13.18359375,24.90234375,-35.15625,-95.21484375
38.57421875,38.57421875,-47.8515625,-79.1015625
-15.625,-72.75390625,-35.64453125,-5.859375
-86.9140625,-104.00390625,-17.578125,19.53125
-104.00390625,-62.01171875,-23.4375,-35.15625
-27.34375,-15.13671875,-43.45703125,-99.609375
42.48046875,10.25390625,-50.29296875,-97.16796875
-6.8359375,-47.8515625,-41.015625,-22.94921875
-84.47265625,-83.49609375,-31.73828125,15.625
-98.6328125,-50.78125,-32.71484375,-16.11328125
-37.59765625,-19.53125,-41.015625,-75.68359375
28.3203125,-6.8359375,-48.33984375,-77.1484375
-0.48828125,-52.24609375,-38.57421875,-8.7890625
-72.75390625,-43.45703125,-22.94921875,31.25
-102.5390625,-71.77734375,-17.578125,-4.8828125
-50.78125,-55.6640625,-24.90234375,-72.265625
21.97265625,0.48828125,-39.55078125,-85.44921875
0.0,-35.64453125,-41.50390625,-26.85546875
-76.171875,-72.75390625,-28.80859375,16.11328125
-117.67578125,-70.80078125,-26.85546875,-16.6015625
-59.08203125,-34.66796875,-41.015625,-86.42578125
12.20703125,-0.9765625,-57.12890625,-104.4921875
10.25390625,-29.78515625,-57.12890625,-50.78125
-49.31640625,-77.1484375,-37.59765625,13.671875
-82.03125,-43.9453125,-23.92578125,3.90625
-42.96875,31.25,-26.3671875,-73.2421875
14.6484375,5.37109375,-29.78515625,-100.5859375
12.6953125,-81.0546875,-36.1328125,-62.01171875
-57.12890625,-82.51953125,-30.76171875,12.20703125
-96.19140625,-50.78125,-18.5546875,24.4140625
-55.6640625,-17.08984375,-22.4609375,-47.36328125
3.41796875,-4.39453125,-36.1328125,-88.8671875
8.7890625,-26.3671875,-46.38671875,-67.87109375
-49.8046875,-57.6171875,-36.1328125,3.90625
-91.796875,-31.25,-20.01953125,27.34375
-56.640625,-32.71484375,-27.34375,-32.71484375
7.32421875,-30.2734375,-41.015625,-71.2890625
24.90234375,-11.23046875,-38.0859375,-53.7109375
-37.59765625,-71.2890625,-24.4140625,15.13671875
-90.8203125,-76.66015625,-13.671875,43.9453125
-70.3125,-12.20703125,-13.18359375,-14.16015625
7.8125,9.765625,-24.90234375,-70.80078125
32.2265625,-36.1328125,-36.1328125,-67.3828125
-41.9921875,-63.4765625,-35.64453125,-1.953125
-100.09765625,-61.5234375,-30.76171875,19.04296875
-89.84375,-27.34375,-37.109375,-32.71484375
-25.390625,-11.23046875,-49.31640625,-98.6328125
9.27734375,-42.48046875,-62.5,-107.421875
-38.57421875,-63.96484375,-54.6875,-31.25
-86.42578125,-32.2265625,-31.25,9.27734375
-84.9609375,-26.3671875,-29.296875,-25.390625
-32.71484375,-62.01171875,-42.96875,-90.33203125
7.8125,-50.29296875,-58.59375,-104.4921875
-35.15625,-64.453125,-59.08203125,-33.69140625
-90.8203125,-82.51953125,-39.55078125,17.08984375
-92.28515625,-40.0390625,-32.2265625,-6.34765625
-30.2734375,-3.90625,-45.41015625,-78.125
14.16015625,-27.83203125,-57.6171875,-108.3984375
-22.94921875,-58.10546875,-46.875,-49.31640625
-89.84375,-68.359375,-29.296875,8.30078125
-104.4921875,-23.4375,-27.34375,-3.41796875
-45.41015625,28.3203125,-38.0859375,-75.68359375
-4.39453125,-43.45703125,-49.8046875,-109.86328125
-25.390625,-90.33203125,-46.875,-59.08203125
-84.47265625,-66.40625,-35.64453125,-2.44140625
-107.421875,-66.40625,-34.1796875,-9.27734375
-49.31640625,-14.6484375,-44.921875,-74.21875
9.27734375,-7.32421875,-51.7578125,-102.5390625
-5.37109375,-68.84765625,-49.8046875,-62.01171875
-69.3359375,-75.1953125,-41.9921875,2.9296875
-107.421875,-33.203125,-35.15625,4.8828125
-66.40625,-5.859375,-42.96875,-64.94140625
-6.34765625,0.9765625,-49.31640625,-98.6328125
-12.6953125,-24.4140625,-47.8515625,-72.75390625
-85.44921875,-101.07421875,-46.38671875,-14.6484375
-123.046875,-75.1953125,-49.8046875,0.48828125
-74.21875,-28.80859375,-56.15234375,-56.640625
-11.71875,-26.85546875,-48.828125,-96.19140625
-1.46484375,-51.26953125,-36.1328125,-80.078125
-63.4765625,-61.5234375,-37.59765625,-14.6484375
-110.83984375,-60.05859375,-44.921875,9.765625
-80.56640625,-26.85546875,-45.41015625,-51.7578125
-10.7421875,0.9765625,-41.9921875,-105.46875
5.859375,-51.7578125,-39.55078125,-97.16796875
-50.29296875,-61.5234375,-23.4375,-18.06640625
-98.6328125,-19.04296875,-19.04296875,17.578125
-88.37890625,-34.66796875,-38.57421875,-32.2265625
-22.94921875,-48.33984375,-51.26953125,-89.35546875
6.8359375,-43.45703125,-61.03515625,-94.7265625
-47.8515625,-76.66015625,-57.12890625,-19.53125
-91.30859375,-64.94140625,-33.69140625,17.08984375
-79.58984375,-21.97265625,-28.80859375,-27.83203125
-17.578125,-18.06640625,-41.50390625,-91.30859375
25.87890625,-18.5546875,-51.7578125,-101.5625
-19.53125,-51.7578125,-54.6875,-37.109375
-79.1015625,-93.75,-48.33984375,-0.48828125
-83.984375,-25.390625,-43.45703125,-24.90234375
-14.6484375,39.55078125,-46.38671875,-81.0546875
30.76171875,-27.83203125,-49.31640625,-97.65625
-17.578125,-79.1015625,-48.828125,-41.015625
-81.0546875,-75.1953125,-37.59765625,-1.953125
-95.21484375,-47.8515625,-31.25,-17.578125
-41.015625,-9.27734375,-48.828125,-75.68359375
14.16015625,-27.34375,-55.17578125,-86.42578125
-16.11328125,-62.01171875,-45.8984375,-24.90234375
-95.21484375,-72.265625,-37.59765625,20.5078125
-117.67578125,-61.03515625,-35.15625,5.37109375
-47.8515625,-22.94921875,-47.8515625,-74.70703125
17.08984375,-28.80859375,-59.08203125,-123.53515625
3.90625,-38.0859375,-59.08203125,-81.0546875
-64.453125,-47.8515625,-53.7109375,-24.90234375
-107.421875,-74.21875,-43.45703125,-33.203125
-64.453125,-48.33984375,-41.50390625,-88.8671875
1.953125,-16.6015625,-47.8515625,-109.86328125
9.27734375,-41.9921875,-46.875,-69.3359375
-61.03515625,-79.58984375,-36.62109375,-4.8828125
-122.55859375,-82.03125,-38.0859375,-6.34765625
-86.9140625,-35.15625,-51.26953125,-64.94140625
-5.859375,11.23046875,-56.640625,-91.796875
7.8125,-41.015625,-58.59375,-72.265625
-69.3359375,-64.94140625,-58.10546875,-7.8125
-120.60546875,-28.80859375,-45.8984375,7.32421875
-90.33203125,-56.15234375,-39.0625,-54.19921875
-20.5078125,-20.5078125,-46.875,-93.75
18.06640625,-16.11328125,-53.22265625,-70.80078125
-43.45703125,-92.7734375,-41.015625,-5.37109375
-114.74609375,-84.47265625,-39.55078125,-1.46484375
-96.6796875,-47.8515625,-44.921875,-54.6875
-21.97265625,-5.859375,-50.29296875,-94.7265625
14.6484375,-13.18359375,-56.640625,-92.7734375
-42.48046875,-78.61328125,-45.8984375,-25.87890625
-106.4453125,-97.65625,-37.109375,-9.27734375
-107.91015625,-39.0625,-39.0625,-62.5
-28.80859375,14.6484375,-52.734375,-112.3046875
21.97265625,-24.4140625,-65.91796875,-104.00390625
-26.3671875,-100.5859375,-66.40625,-25.390625
-96.19140625,-118.1640625,-55.17578125,1.46484375
-111.328125,-57.12890625,-49.31640625,-41.9921875
-20.99609375,22.94921875,-70.80078125,-90.33203125
50.78125,12.20703125,-69.82421875,-82.03125
-18.5546875,-100.09765625,-43.45703125,-39.55078125
-113.28125,-123.046875,-35.64453125,-14.6484375
-136.23046875,-65.4296875,-35.15625,-34.66796875
-74.70703125,-33.69140625,-53.22265625,-100.09765625
-5.37109375,-42.48046875,-59.08203125,-115.72265625
-24.90234375,-37.109375,-46.38671875,-61.5234375
-97.65625,-87.40234375,-39.55078125,-20.5078125
-147.4609375,-140.625,-37.59765625,-46.38671875
-87.890625,-45.41015625,-42.48046875,-106.4453125
-11.23046875,-11.71875,-54.19921875,-118.65234375
-23.4375,-84.47265625,-58.10546875,-67.87109375
-94.7265625,-114.74609375,-41.015625,-13.671875
-144.04296875,-92.28515625,-40.0390625,-25.390625
-97.65625,-32.71484375,-55.17578125,-89.35546875
-10.25390625,2.44140625,-61.03515625,-104.00390625
-7.8125,-92.7734375,-59.5703125,-64.453125
-86.9140625,-111.328125,-46.38671875,1.46484375
-131.8359375,-43.9453125,-52.24609375,-1.46484375
-71.77734375,-51.7578125,-60.05859375,-59.08203125
5.37109375,-55.17578125,-57.6171875,-82.51953125
-7.32421875,-62.01171875,-59.5703125,-90.8203125
-88.37890625,-122.0703125,-46.875,-49.31640625
-157.2265625,-134.27734375,-37.59765625,-32.2265625
-139.6484375,-76.66015625,-36.1328125,-101.07421875
-63.4765625,-41.9921875,-30.76171875,-149.4140625
-31.25,-96.19140625,-19.53125,-118.65234375
-112.79296875,-147.94921875,-7.8125,-57.6171875
-192.3828125,-140.625,-4.39453125,-59.08203125
-175.78125,-86.42578125,-4.8828125,-113.28125
-93.26171875,-14.16015625,-15.13671875,-144.04296875
-52.24609375,-62.5,-17.578125,-118.65234375
-122.55859375,-164.55078125,-7.32421875,-48.828125
-193.84765625,-166.015625,-7.32421875,-20.99609375
-194.82421875,-117.1875,-7.8125,-58.10546875
-113.28125,-89.84375,-22.4609375,-118.1640625
-41.50390625,-84.47265625,-43.9453125,-130.37109375
-85.9375,-113.76953125,-33.69140625,-64.94140625
-165.0390625,-153.3203125,-17.08984375,-47.8515625
-166.9921875,-115.234375,-5.859375,-84.9609375
-73.73046875,-50.29296875,-8.30078125,-130.859375
1.953125,-33.69140625,-19.04296875,-121.09375
-38.0859375,-54.6875,-17.578125,-45.8984375
-111.328125,-116.69921875,-11.23046875,8.30078125
-144.53125,-123.53515625,-20.01953125,-11.71875
-74.70703125,-31.25,-28.80859375,-68.84765625
-2.9296875,-37.59765625,-33.203125,-77.63671875
-25.390625,-77.63671875,-44.43359375,-13.671875
-95.703125,-108.88671875,-38.57421875,20.5078125
-133.7890625,-99.12109375,-29.296875,-5.37109375
-65.4296875,-22.94921875,-53.22265625,-50.29296875
21.484375,15.13671875,-65.4296875,-69.82421875
14.6484375,-73.73046875,-39.55078125,-29.296875
-67.87109375,-109.86328125,-18.5546875,25.87890625
-109.86328125,-20.01953125,-21.484375,18.06640625
-59.5703125,-31.25,-32.71484375,-41.9921875
17.578125,-20.5078125,-40.52734375,-54.6875
17.08984375,-32.2265625,-45.41015625,-11.71875
-65.91796875,-77.63671875,-40.0390625,37.59765625
-119.140625,-57.6171875,-48.828125,30.2734375
-72.75390625,-15.625,-62.5,-35.64453125
9.765625,-13.18359375,-58.59375,-76.66015625
31.73828125,-22.4609375,-60.546875,-44.921875
-39.55078125,-59.5703125,-50.78125,0.9765625
-108.3984375,-68.359375,-41.015625,-17.08984375
-72.75390625,-6.34765625,-39.55078125,-80.078125
7.32421875,41.9921875,-51.26953125,-102.05078125
24.4140625,-25.390625,-61.03515625,-63.96484375
-53.7109375,-84.47265625,-54.19921875,0.48828125
-130.859375,-93.26171875,-55.6640625,2.44140625
-108.88671875,-45.41015625,-63.4765625,-54.6875
-10.7421875,13.671875,-67.87109375,-81.0546875
27.83203125,-10.25390625,-69.3359375,-69.82421875
-35.64453125,-63.96484375,-51.7578125,-13.671875
-102.05078125,-63.4765625,-39.55078125,0.48828125
-89.84375,-16.11328125,-53.22265625,-47.36328125
-20.01953125,-7.8125,-71.2890625,-93.26171875
30.2734375,11.71875,-65.4296875,-77.1484375
-18.06640625,-15.625,-49.31640625,-15.625
-89.35546875,-86.9140625,-38.57421875,-7.8125
-88.8671875,-63.4765625,-38.0859375,-47.36328125
-18.06640625,4.8828125,-49.8046875,-80.56640625
29.296875,-12.20703125,-62.98828125,-62.5
-20.5078125,-61.5234375,-60.546875,16.6015625
-84.47265625,-76.66015625,-45.41015625,54.6875
-113.28125,-51.7578125,-43.45703125,-2.44140625
-64.453125,-13.671875,-49.8046875,-86.9140625
1.953125,-18.06640625,-49.8046875,-93.26171875
-21.97265625,-56.15234375,-49.8046875,-41.50390625
-100.09765625,-78.61328125,-43.9453125,-38.0859375
-128.90625,-10.7421875,-38.0859375,-83.49609375
-59.5703125,4.8828125,-48.828125,-134.27734375
5.859375,-38.57421875,-60.05859375,-125.9765625
-18.06640625,-49.8046875,-60.546875,-62.98828125
-88.8671875,-70.3125,-49.8046875,-15.625
-130.859375,-70.80078125,-48.33984375,-36.1328125
-72.265625,-26.85546875,-57.12890625,-85.9375
10.25390625,-12.20703125,-67.3828125,-97.16796875
8.7890625,-25.87890625,-76.171875,-52.24609375
-80.56640625,-78.125,-64.453125,-6.8359375
-141.6015625,-86.42578125,-51.7578125,-17.08984375
-82.51953125,-21.484375,-59.5703125,-64.94140625
2.44140625,30.2734375,-71.77734375,-72.265625
7.32421875,-32.2265625,-70.80078125,-36.62109375
-74.21875,-115.72265625,-53.22265625,-1.46484375
-128.41796875,-78.125,-45.8984375,-17.578125
-96.19140625,-50.29296875,-57.6171875,-88.37890625
-15.625,-13.671875,-69.82421875,-114.2578125
8.30078125,-31.73828125,-63.96484375,-81.54296875
-63.96484375,-68.359375,-53.7109375,-24.90234375
-130.37109375,-72.75390625,-51.26953125,-26.3671875
-108.88671875,-45.8984375,-69.3359375,-84.47265625
-22.4609375,-11.23046875,-83.984375,-105.95703125
16.6015625,-36.1328125,-77.63671875,-74.21875
-50.78125,-43.9453125,-66.89453125,-17.08984375
-125.0,-85.9375,-54.19921875,-10.7421875
-113.28125,-91.30859375,-55.17578125,-69.3359375
-26.3671875,-18.06640625,-66.89453125,-117.1875
23.4375,-21.484375,-82.03125,-104.98046875
-37.109375,-51.7578125,-76.66015625,-44.921875
-113.28125,-76.171875,-57.6171875,-21.97265625
-114.74609375,-92.7734375,-56.640625,-57.6171875
-36.1328125,-41.9921875,-62.01171875,-91.796875
4.39453125,-43.9453125,-72.75390625,-86.9140625
-43.9453125,-66.40625,-72.265625,-24.4140625
-111.328125,-94.7265625,-50.29296875,-5.859375
-126.46484375,-57.12890625,-44.921875,-41.015625
-61.03515625,-51.7578125,-57.6171875,-95.703125
4.39453125,-65.4296875,-59.5703125,-96.19140625
-24.4140625,-53.22265625,-46.875,-35.15625
-107.91015625,-88.8671875,-33.203125,-21.484375
-126.953125,-79.1015625,-33.203125,-54.6875
-56.15234375,-26.85546875,-52.24609375,-104.4921875
9.765625,-23.4375,-61.03515625,-104.4921875
-15.13671875,-41.015625,-60.05859375,-46.38671875
-85.9375,-60.05859375,-61.03515625,-12.6953125
-124.51171875,-98.6328125,-53.22265625,-46.875
-66.89453125,-23.4375,-45.8984375,-101.07421875
23.92578125,31.73828125,-50.29296875,-94.23828125
25.390625,-59.08203125,-47.36328125,-35.64453125
-63.4765625,-96.19140625,-39.55078125,6.34765625
-117.67578125,-55.17578125,-40.52734375,-15.625
-65.91796875,-32.71484375,-59.08203125,-83.984375
7.32421875,-24.90234375,-72.75390625,-97.65625
18.06640625,-40.0390625,-59.5703125,-37.109375
-50.29296875,-71.2890625,-30.76171875,20.01953125
-115.72265625,-56.15234375,-17.578125,-9.765625
-83.984375,-10.7421875,-28.80859375,-85.44921875
2.9296875,1.46484375,-41.50390625,-101.5625
19.04296875,9.765625,-37.109375,-58.59375
-60.546875,-5.859375,-18.5546875,6.8359375
-111.81640625,-39.55078125,-8.7890625,19.04296875
-73.2421875,-53.7109375,-17.578125,-44.43359375
-2.44140625,-35.64453125,-41.015625,-82.51953125
29.296875,-16.11328125,-40.52734375,-56.640625
-32.71484375,-34.66796875,-20.01953125,2.44140625
-100.5859375,-60.05859375,-13.18359375,9.765625
-82.03125,-39.0625,-19.04296875,-41.50390625
3.90625,4.8828125,-34.1796875,-74.70703125
50.29296875,-15.13671875,-35.64453125,-59.5703125
-11.23046875,-42.96875,-37.59765625,-5.859375
-92.7734375,-52.734375,-28.80859375,0.48828125
-88.37890625,-13.671875,-13.18359375,-41.50390625
1.46484375,-9.27734375,-20.99609375,-75.1953125
51.7578125,-17.578125,-32.71484375,-59.08203125
-13.671875,-43.9453125,-35.64453125,0.48828125
-101.07421875,-100.09765625,-32.2265625,11.71875
-101.07421875,-47.36328125,-36.1328125,-23.92578125
-21.97265625,-16.11328125,-50.29296875,-77.1484375
39.55078125,-43.9453125,-50.78125,-79.1015625
-15.625,-48.828125,-40.0390625,-18.06640625
-100.5859375,-51.26953125,-27.83203125,3.41796875
-115.234375,-64.453125,-21.97265625,-34.66796875
-44.921875,-10.25390625,-41.9921875,-94.7265625
20.99609375,30.76171875,-58.10546875,-97.16796875
-12.20703125,-58.10546875,-46.875,-25.390625
-91.30859375,-128.90625,-31.25,7.8125
-117.1875,-47.8515625,-25.390625,-24.4140625
-40.52734375,-15.625,-39.55078125,-82.03125
34.66796875,-22.4609375,-49.8046875,-91.30859375
9.765625,-36.1328125,-44.43359375,-33.203125
-72.265625,-86.9140625,-32.2265625,6.34765625
-104.98046875,-66.40625,-17.578125,-13.671875
-48.33984375,-32.2265625,-20.99609375,-68.84765625
38.57421875,-25.87890625,-45.41015625,-69.82421875
39.55078125,-37.109375,-58.10546875,-34.66796875
-54.6875,-36.62109375,-41.015625,-5.859375
-113.28125,-62.5,-31.25,-13.671875
-69.82421875,-49.8046875,-47.36328125,-67.3828125
5.37109375,-1.46484375,-63.96484375,-90.8203125
19.53125,-21.97265625,-59.5703125,-60.05859375
-49.8046875,-41.9921875,-36.1328125,-2.44140625
-109.86328125,-42.96875,-33.69140625,-10.25390625
-78.125,-55.17578125,-50.29296875,-83.0078125
6.34765625,2.44140625,-52.24609375,-103.515625
22.94921875,-11.23046875,-49.8046875,-62.5
-73.73046875,-77.1484375,-50.78125,-1.953125
-130.37109375,-54.19921875,-43.9453125,10.25390625
-88.37890625,0.48828125,-46.38671875,-48.828125
-15.625,3.41796875,-62.98828125,-96.6796875
10.7421875,-57.12890625,-58.10546875,-80.078125
-45.41015625,-48.33984375,-39.55078125,-18.5546875
-105.95703125,-26.85546875,-35.64453125,-0.9765625
-95.21484375,-26.85546875,-33.69140625,-41.50390625
-15.13671875,-22.94921875,-41.9921875,-80.078125
26.3671875,-41.9921875,-55.6640625,-66.89453125
-36.1328125,-53.22265625,-41.015625,-4.8828125
-102.5390625,-44.43359375,-30.2734375,10.7421875
-103.02734375,-65.91796875,-48.828125,-39.55078125
-24.4140625,-38.57421875,-66.89453125,-91.796875
30.76171875,2.44140625,-62.01171875,-83.49609375
-31.73828125,-47.36328125,-51.7578125,-26.85546875
-108.3984375,-106.93359375,-31.25,-10.25390625
-114.2578125,-65.91796875,-16.11328125,-45.8984375
-40.52734375,-25.390625,-32.71484375,-104.4921875
21.484375,-16.6015625,-47.36328125,-104.4921875
-6.34765625,-27.34375,-38.0859375,-30.2734375
-81.0546875,-50.78125,-36.1328125,8.30078125
-111.328125,-51.26953125,-40.0390625,-15.13671875
-45.8984375,-24.4140625,-35.64453125,-68.359375
28.3203125,-28.3203125,-41.50390625,-69.3359375
4.39453125,-33.203125,-48.33984375,-9.27734375
-83.0078125,-12.6953125,-30.2734375,15.13671875
-120.60546875,-73.2421875,-17.578125,-25.87890625
-59.08203125,-46.875,-32.71484375,-92.28515625
18.5546875,10.25390625,-42.48046875,-104.98046875
10.7421875,-53.22265625,-40.52734375,-50.29296875
-68.359375,-74.70703125,-35.64453125,3.41796875
-108.88671875,-45.41015625,-32.2265625,-17.08984375
-55.17578125,-20.99609375,-31.25,-75.68359375
15.13671875,-26.85546875,-38.0859375,-94.7265625
22.94921875,-31.25,-45.41015625,-69.3359375
-56.15234375,-43.45703125,-33.69140625,-14.16015625
-115.72265625,-44.43359375,-24.90234375,-0.48828125
-79.58984375,-11.23046875,-35.64453125,-61.5234375
0.9765625,-8.7890625,-42.96875,-89.35546875
18.5546875,-43.9453125,-41.9921875,-50.78125
-57.6171875,-62.01171875,-32.2265625,-2.9296875
-124.0234375,-75.68359375,-18.5546875,-5.859375
-93.75,-43.45703125,-31.73828125,-58.10546875
-7.32421875,3.90625,-52.734375,-89.35546875
21.97265625,-27.34375,-44.921875,-67.87109375
-49.8046875,-57.6171875,-32.2265625,-13.671875
-120.1171875,-55.17578125,-33.203125,-5.37109375
-93.26171875,-50.78125,-37.109375,-49.8046875
-9.27734375,-22.4609375,-40.52734375,-89.84375
37.59765625,9.765625,-41.9921875,-77.63671875
-36.62109375,-65.91796875,-37.109375,-15.13671875
-114.74609375,-108.3984375,-35.15625,0.48828125
-101.5625,-50.29296875,-42.96875,-33.203125
-27.83203125,-13.671875,-54.19921875,-74.70703125
23.92578125,-26.85546875,-62.5,-73.2421875
-20.01953125,-51.7578125,-45.41015625,-11.71875
-99.609375,-88.8671875,-22.4609375,8.7890625
-110.3515625,-48.828125,-21.97265625,-23.92578125
-30.76171875,-12.6953125,-40.0390625,-71.77734375
32.2265625,-32.2265625,-56.15234375,-64.453125
-7.32421875,-41.9921875,-52.734375,0.48828125
-88.37890625,-53.7109375,-33.203125,15.625
-117.67578125,-77.63671875,-25.87890625,-37.59765625
-54.6875,-66.40625,-48.828125,-114.2578125
14.6484375,-45.8984375,-60.05859375,-124.51171875
-15.13671875,-60.546875,-49.31640625,-62.98828125
-84.9609375,-67.87109375,-29.296875,-16.6015625
-117.67578125,-80.56640625,-27.34375,-36.62109375
-51.7578125,-31.73828125,-38.0859375,-85.44921875
19.53125,-13.18359375,-43.45703125,-93.26171875
-0.9765625,-43.45703125,-38.0859375,-39.55078125
-69.82421875,-80.56640625,-22.4609375,16.6015625
-125.9765625,-51.7578125,-28.3203125,-11.23046875
-87.40234375,21.484375,-44.921875,-94.7265625
-15.13671875,5.859375,-48.828125,-123.53515625
-31.73828125,-71.2890625,-49.8046875,-91.30859375
-120.1171875,-89.84375,-37.109375,-44.43359375
-183.59375,-55.6640625,-27.83203125,-70.80078125
-138.671875,-5.37109375,-42.48046875,-156.73828125
-67.87109375,19.04296875,-60.546875,-212.40234375
-67.87109375,-8.7890625,-52.734375,-198.2421875
-146.484375,-40.52734375,-34.66796875,-130.859375
-214.35546875,-43.9453125,-37.109375,-132.8125
-177.734375,-16.6015625,-47.8515625,-205.078125
-106.93359375,23.4375,-52.24609375,-244.140625
-84.9609375,60.546875,-57.6171875,-223.14453125
-159.66796875,-0.9765625,-61.03515625,-162.109375
-229.4921875,-38.0859375,-53.22265625,-140.625
-207.03125,19.04296875,-38.57421875,-190.4296875
-130.37109375,20.99609375,-52.24609375,-234.375
-84.47265625,15.625,-68.359375,-208.0078125
-130.37109375,3.41796875,-47.8515625,-129.8828125
-187.98828125,-10.25390625,-36.1328125,-103.515625
-185.546875,22.4609375,-48.33984375,-156.25
-101.07421875,50.78125,-67.87109375,-198.73046875
-33.203125,29.78515625,-68.84765625,-169.43359375
-78.61328125,14.6484375,-66.40625,-92.7734375
-155.76171875,21.484375,-63.4765625,-73.73046875
-157.71484375,-2.9296875,-62.5,-110.83984375
-64.453125,31.73828125,-73.2421875,-145.5078125
20.5078125,49.8046875,-83.984375,-118.1640625
-10.25390625,-13.671875,-80.56640625,-39.0625
-89.84375,-37.59765625,-55.6640625,-15.13671875
-98.6328125,-16.6015625,-47.8515625,-41.9921875
-6.8359375,0.0,-59.5703125,-87.40234375
62.5,3.90625,-66.89453125,-88.37890625
30.76171875,-30.76171875,-62.98828125,-14.6484375
-45.41015625,-93.75,-62.5,30.2734375
-74.21875,-87.40234375,-71.77734375,13.18359375
-1.46484375,-5.37109375,-80.56640625,-29.78515625
75.68359375,-36.62109375,-92.28515625,-41.50390625
52.734375,-103.515625,-92.28515625,7.32421875
-25.390625,-125.0,-81.54296875,61.03515625
-62.5,-104.00390625,-70.3125,51.7578125
-4.39453125,-44.921875,-65.91796875,-11.23046875
78.61328125,-25.390625,-72.75390625,-26.3671875
73.2421875,-78.125,-72.75390625,11.71875
-14.6484375,-120.1171875,-69.3359375,57.6171875
-71.77734375,-99.609375,-71.2890625,56.15234375
-17.08984375,-79.58984375,-75.1953125,0.48828125
67.3828125,-20.01953125,-80.56640625,-30.76171875
85.9375,-14.6484375,-78.125,-1.953125
-11.23046875,-124.0234375,-70.80078125,45.41015625
-87.40234375,-137.20703125,-74.70703125,40.0390625
-35.15625,-77.63671875,-80.56640625,-14.16015625
54.6875,-52.24609375,-83.984375,-35.15625
77.1484375,-89.35546875,-83.984375,-7.8125
-7.32421875,-124.51171875,-83.0078125,38.57421875
-88.37890625,-113.28125,-86.9140625,38.57421875
-60.05859375,-63.96484375,-79.58984375,-17.578125
39.55078125,-24.4140625,-76.171875,-55.17578125
75.68359375,-67.87109375,-83.0078125,-44.921875
-1.46484375,-83.0078125,-76.66015625,15.13671875
-86.9140625,-83.49609375,-71.2890625,24.90234375
-74.21875,-76.66015625,-80.56640625,-25.87890625
21.484375,-48.33984375,-89.84375,-62.01171875
74.21875,-66.89453125,-97.65625,-53.22265625
7.32421875,-120.1171875,-94.7265625,3.90625
-81.0546875,-121.09375,-69.82421875,19.04296875
-86.42578125,-76.66015625,-53.22265625,-24.4140625
-1.46484375,-17.08984375,-63.4765625,-61.5234375
59.08203125,-26.85546875,-67.3828125,-54.6875
5.859375,-91.30859375,-66.89453125,7.8125
-68.84765625,-110.3515625,-62.5,34.1796875
-79.58984375,-59.08203125,-60.05859375,-3.90625
-0.48828125,4.8828125,-62.5,-45.8984375
62.5,-38.0859375,-60.05859375,-47.36328125
20.01953125,-98.6328125,-46.875,16.6015625
-68.84765625,-97.65625,-41.9921875,45.8984375
-97.65625,-93.75,-55.6640625,2.44140625
-24.4140625,-39.55078125,-66.40625,-50.29296875
54.6875,-7.8125,-65.91796875,-58.10546875
36.1328125,-57.6171875,-54.6875,-5.859375
-51.26953125,-89.84375,-43.45703125,24.4140625
-93.75,-79.1015625,-34.66796875,2.9296875
-26.85546875,-31.25,-39.55078125,-43.9453125
55.6640625,9.765625,-42.48046875,-55.17578125
41.015625,-6.34765625,-40.52734375,-11.23046875
-51.7578125,-88.8671875,-38.57421875,27.34375
-107.421875,-89.84375,-35.15625,9.765625
-52.734375,-21.97265625,-45.8984375,-45.41015625
34.1796875,-6.34765625,-57.6171875,-52.734375
42.48046875,-20.01953125,-61.03515625,-20.01953125
-46.875,-76.171875,-43.45703125,12.6953125
-107.421875,-107.421875,-26.85546875,-2.9296875
-59.08203125,-35.64453125,-35.15625,-65.91796875
32.71484375,5.37109375,-41.50390625,-82.51953125
53.7109375,-16.6015625,-36.1328125,-45.41015625
-27.83203125,-55.6640625,-33.69140625,18.06640625
-94.7265625,-64.94140625,-37.109375,28.3203125
-66.89453125,-17.08984375,-43.45703125,-30.76171875
13.18359375,-30.2734375,-52.24609375,-66.40625
41.9921875,-42.48046875,-49.8046875,-51.26953125
-34.66796875,-45.41015625,-27.34375,4.39453125
-111.328125,-79.1015625,-17.08984375,17.08984375
-85.9375,-47.36328125,-28.80859375,-28.80859375
5.37109375,12.20703125,-40.0390625,-70.3125
46.38671875,-19.53125,-42.48046875,-63.96484375
-26.3671875,-69.3359375,-31.73828125,-6.8359375
-104.00390625,-92.28515625,-24.90234375,8.30078125
-99.609375,-48.828125,-35.15625,-44.921875
-12.20703125,31.73828125,-44.43359375,-92.28515625
38.57421875,-24.90234375,-46.875,-80.078125
-30.2734375,-93.26171875,-46.875,-27.34375
-116.2109375,-88.8671875,-42.96875,-17.08984375
-119.140625,-69.82421875,-39.0625,-55.6640625
-33.203125,-18.5546875,-44.43359375,-102.05078125
32.71484375,0.48828125,-47.8515625,-89.35546875
-19.04296875,-57.12890625,-49.8046875,-25.390625
-103.02734375,-92.28515625,-47.8515625,7.8125
-124.51171875,-71.2890625,-37.109375,-18.06640625
-49.31640625,-4.39453125,-38.57421875,-74.21875
32.2265625,7.32421875,-46.875,-78.61328125
-1.46484375,-43.45703125,-49.31640625,-26.3671875
-88.37890625,-97.16796875,-45.41015625,-0.48828125
-127.9296875,-129.39453125,-50.29296875,-21.97265625
-49.8046875,-42.48046875,-58.10546875,-63.4765625
27.34375,-7.8125,-54.6875,-71.77734375
1.46484375,-54.6875,-46.38671875,-27.34375
-92.7734375,-81.0546875,-40.52734375,11.71875
-139.6484375,-72.75390625,-47.8515625,-12.20703125
-64.94140625,-20.5078125,-62.5,-76.66015625
25.87890625,28.3203125,-54.19921875,-82.51953125
30.76171875,-43.45703125,-36.62109375,-33.203125
-55.6640625,-89.35546875,-26.3671875,11.71875
-108.3984375,-46.38671875,-25.390625,-5.859375
-54.6875,-57.6171875,-38.57421875,-75.68359375
25.87890625,-21.484375,-52.734375,-102.05078125
38.57421875,-8.30078125,-55.17578125,-60.546875
-49.8046875,-98.14453125,-41.015625,-4.39453125
-125.0,-114.2578125,-37.59765625,-9.765625
-82.03125,-24.4140625,-46.38671875,-61.03515625
10.25390625,25.87890625,-53.7109375,-79.58984375
41.9921875,-13.671875,-51.26953125,-63.96484375
-45.8984375,-92.28515625,-46.875,-19.53125
-134.765625,-106.4453125,-46.38671875,17.578125
-110.83984375,-31.25,-43.9453125,-8.7890625
-22.94921875,48.33984375,-45.41015625,-38.0859375
32.71484375,-6.8359375,-47.36328125,-9.765625
-20.01953125,-109.375,-36.1328125,25.87890625
-131.8359375,-126.953125,-25.390625,-20.01953125
-152.83203125,-41.015625,-16.11328125,-73.73046875
-68.359375,16.11328125,-17.578125,-137.20703125
-2.9296875,-20.99609375,-24.4140625,-158.203125
-84.47265625,-102.05078125,-8.7890625,-108.3984375
-226.5625,-158.203125,-8.7890625,-134.765625
-245.1171875,-110.83984375,-11.23046875,-188.4765625
-166.50390625,-46.875,-16.11328125,-232.421875
-93.26171875,-20.5078125,-16.11328125,-209.47265625
-138.671875,-59.08203125,0.48828125,-140.13671875
-236.328125,-135.25390625,18.5546875,-124.0234375
-268.5546875,-144.53125,21.97265625,-158.69140625
-214.35546875,-43.9453125,-0.48828125,-230.46875
-122.55859375,-4.8828125,-11.23046875,-216.796875
-130.859375,-81.0546875,6.34765625,-137.20703125
-236.81640625,-148.4375,34.1796875,-121.58203125
-279.296875,-117.1875,41.015625,-143.5546875
-200.1953125,-14.16015625,32.2265625,-177.24609375
-102.05078125,22.94921875,27.34375,-165.0390625
-101.07421875,-76.171875,33.69140625,-96.19140625
-195.3125,-143.5546875,46.875,-64.94140625
-237.3046875,-114.74609375,44.921875,-75.68359375
-157.71484375,-81.54296875,35.15625,-111.81640625
-47.8515625,-34.1796875,34.66796875,-104.00390625
-47.36328125,-60.05859375,29.296875,-62.5
-133.7890625,-152.34375,30.2734375,-51.26953125
-168.9453125,-119.140625,47.36328125,-59.5703125
-129.8828125,-38.57421875,34.1796875,-118.65234375
-20.99609375,0.0,8.30078125,-107.91015625
24.90234375,-15.13671875,7.32421875,-38.57421875
-65.91796875,-87.40234375,12.6953125,2.9296875
-135.7421875,-128.41796875,9.765625,14.6484375
-93.26171875,-77.63671875,-15.13671875,-33.203125
28.3203125,25.87890625,-34.66796875,-47.36328125
83.0078125,19.53125,-34.66796875,-8.30078125
-6.8359375,-103.515625,-9.765625,17.578125
-109.86328125,-146.484375,-9.765625,-2.9296875
-86.9140625,-75.68359375,-31.25,-48.828125
30.2734375,7.8125,-43.45703125,-57.6171875
90.8203125,22.4609375,-54.6875,-14.6484375
18.06640625,-56.15234375,-46.875,41.015625
-83.984375,-107.91015625,-42.96875,40.52734375
-76.66015625,-57.6171875,-60.05859375,2.9296875
20.99609375,0.9765625,-78.125,-11.71875
90.33203125,24.90234375,-79.1015625,0.9765625
31.73828125,-3.90625,-57.12890625,42.96875
-83.0078125,-107.421875,-47.8515625,41.9921875
-98.14453125,-57.12890625,-57.12890625,-20.5078125
4.8828125,33.69140625,-68.359375,-44.921875
87.890625,-5.37109375,-69.3359375,-20.99609375
37.59765625,-39.55078125,-62.98828125,14.6484375
-67.3828125,-79.58984375,-54.19921875,20.99609375
-97.16796875,-73.73046875,-57.12890625,-16.6015625
-1.46484375,0.9765625,-79.58984375,-59.08203125
97.65625,56.15234375,-85.9375,-40.0390625
64.94140625,1.953125,-74.21875,15.625
-39.0625,-58.10546875,-62.5,31.25
-84.47265625,-51.26953125,-66.89453125,-4.39453125
-9.765625,-32.71484375,-67.3828125,-45.41015625
83.0078125,-0.48828125,-55.17578125,-29.78515625
64.94140625,10.25390625,-54.19921875,23.92578125
-36.1328125,-66.89453125,-52.734375,36.1328125
-95.703125,-63.4765625,-50.29296875,3.41796875
-30.76171875,-0.48828125,-63.4765625,-31.73828125
76.171875,24.90234375,-80.56640625,-7.8125
74.21875,20.01953125,-80.56640625,50.78125
-41.015625,-67.3828125,-51.7578125,56.640625
-122.55859375,-91.796875,-42.96875,13.671875
-60.05859375,-30.2734375,-66.40625,-54.19921875
47.36328125,40.52734375,-70.80078125,-68.359375
74.70703125,-0.48828125,-62.01171875,-17.08984375
-7.32421875,-84.47265625,-49.31640625,18.5546875
-123.046875,-77.63671875,-41.50390625,-33.203125
-106.93359375,-35.64453125,-60.546875,-103.02734375
27.34375,9.27734375,-66.40625,-87.890625
62.01171875,-4.39453125,-71.2890625,-64.453125
-41.50390625,-57.6171875,-71.2890625,-34.66796875
-141.11328125,-99.609375,-63.96484375,-50.29296875
-123.046875,-63.4765625,-68.84765625,-106.93359375
-17.578125,-25.87890625,-60.546875,-105.46875
37.59765625,-22.4609375,-52.734375,-55.6640625
-32.2265625,-20.01953125,-54.6875,-8.30078125
-124.51171875,-91.796875,-62.01171875,-17.578125
-117.1875,-110.3515625,-59.5703125,-60.546875
-11.71875,-14.6484375,-57.6171875,-72.265625
61.03515625,8.7890625,-63.4765625,-39.55078125
-7.32421875,-47.36328125,-54.6875,12.20703125
-118.65234375,-92.28515625,-55.6640625,-5.37109375
-126.46484375,-70.3125,-62.01171875,-54.19921875
-16.11328125,-16.11328125,-49.31640625,-71.77734375
55.6640625,-6.34765625,-57.12890625,-59.08203125
-5.859375,-31.73828125,-64.94140625,-11.71875
-105.95703125,-89.84375,-48.828125,-13.18359375
-129.8828125,-63.4765625,-50.78125,-56.15234375
-34.1796875,-17.578125,-63.96484375,-92.28515625
62.98828125,-20.01953125,-59.08203125,-68.359375
24.90234375,-26.3671875,-53.22265625,-1.953125
-89.35546875,-65.91796875,-48.828125,-12.20703125
-137.20703125,-70.80078125,-38.57421875,-67.3828125
-48.828125,-35.64453125,-52.24609375,-87.40234375
59.5703125,-3.90625,-70.3125,-48.33984375
44.921875,-6.34765625,-48.828125,11.71875
-69.3359375,-41.50390625,-37.59765625,7.32421875
-135.25390625,-67.87109375,-44.43359375,-39.55078125
-62.98828125,-32.2265625,-53.22265625,-77.1484375
40.52734375,32.71484375,-62.98828125,-73.2421875
51.26953125,3.41796875,-58.59375,-21.484375
-47.36328125,-63.96484375,-47.8515625,-0.9765625
-125.9765625,-76.171875,-42.48046875,-34.1796875
-74.70703125,-55.6640625,-51.26953125,-79.58984375
28.3203125,-8.30078125,-58.59375,-69.3359375
41.9921875,-31.73828125,-57.12890625,-21.97265625
-58.10546875,-70.3125,-43.9453125,2.9296875
-134.765625,-70.80078125,-35.64453125,-15.625
-95.703125,-38.0859375,-58.10546875,-67.3828125
-5.37109375,8.30078125,-63.96484375,-73.73046875
36.1328125,24.4140625,-36.62109375,-28.80859375
-50.78125,-22.4609375,-20.99609375,0.9765625
-153.80859375,-95.703125,-23.92578125,-21.97265625
-109.86328125,-74.21875,-27.83203125,-60.546875
6.34765625,-7.8125,-42.48046875,-65.4296875
44.921875,-0.9765625,-53.7109375,-45.41015625
-41.50390625,-34.66796875,-50.29296875,-13.671875
-131.34765625,-66.89453125,-43.45703125,-23.4375
-116.2109375,-91.30859375,-45.8984375,-73.73046875
-10.7421875,-28.3203125,-49.31640625,-86.42578125
59.08203125,15.13671875,-38.57421875,-52.734375
-11.23046875,-16.11328125,-32.71484375,-8.30078125
-105.46875,-47.36328125,-42.96875,-14.16015625
-112.79296875,-54.6875,-38.57421875,-60.05859375
-16.6015625,-34.66796875,-41.9921875,-81.54296875
57.6171875,-11.23046875,-50.78125,-43.9453125
-1.46484375,-24.4140625,-60.546875,9.27734375
-108.3984375,-67.87109375,-52.24609375,0.9765625
-132.32421875,-66.40625,-22.4609375,-45.8984375
-30.2734375,-32.71484375,-25.87890625,-70.3125
54.19921875,-6.34765625,-41.015625,-48.828125
13.18359375,1.953125,-34.66796875,2.44140625
-86.42578125,-42.96875,-22.94921875,1.46484375
-134.27734375,-90.33203125,-32.2265625,-53.22265625
-48.828125,-44.921875,-52.734375,-92.7734375
51.7578125,20.99609375,-56.15234375,-75.1953125
21.97265625,-20.5078125,-48.828125,-21.97265625
-86.9140625,-93.75,-44.43359375,-21.484375
-129.39453125,-75.68359375,-49.8046875,-52.24609375
-39.0625,-36.62109375,-50.29296875,-74.21875
52.24609375,-15.625,-35.64453125,-69.82421875
35.64453125,-11.23046875,-26.85546875,-21.484375
-62.5,-47.8515625,-22.4609375,-1.46484375
-134.765625,-61.03515625,-26.85546875,-37.59765625
-78.61328125,-52.24609375,-47.36328125,-75.1953125
34.66796875,-8.7890625,-56.640625,-56.640625
46.875,6.34765625,-41.50390625,-10.7421875
-46.38671875,-27.83203125,-29.296875,20.01953125
-117.67578125,-69.3359375,-32.71484375,-0.48828125
-92.7734375,-91.796875,-39.0625,-59.08203125
-0.48828125,-55.17578125,-45.8984375,-73.2421875
48.33984375,-22.94921875,-40.0390625,-16.6015625
-30.2734375,-36.62109375,-26.3671875,29.78515625
-131.8359375,-58.10546875,-36.62109375,-25.87890625
-105.46875,-74.70703125,-41.9921875,-97.16796875
0.9765625,-25.87890625,-38.57421875,-96.6796875
42.96875,6.34765625,-44.43359375,-65.91796875
-45.41015625,-39.55078125,-41.015625,-35.64453125
-142.578125,-63.96484375,-32.2265625,-52.734375
-116.2109375,-23.4375,-30.2734375,-94.7265625
-14.6484375,-30.76171875,-39.0625,-98.14453125
45.8984375,-37.109375,-44.921875,-57.12890625
-15.625,-20.5078125,-35.64453125,-2.9296875
-116.2109375,-76.171875,-32.2265625,-11.23046875
-110.83984375,-77.63671875,-34.1796875,-53.22265625
-1.46484375,-24.4140625,-45.8984375,-56.640625
56.640625,19.04296875,-60.546875,-38.57421875
-21.484375,-4.39453125,-46.875,-6.34765625
-108.88671875,-47.8515625,-25.390625,5.37109375
-117.67578125,-66.40625,-41.015625,-43.9453125
-22.94921875,-31.25,-38.0859375,-85.9375
67.3828125,33.69140625,-20.5078125,-72.265625
17.578125,-0.9765625,-33.69140625,-15.625
-89.84375,-79.1015625,-36.62109375,-2.9296875
-124.0234375,-54.19921875,-19.53125,-54.19921875
-38.0859375,-4.8828125,-30.2734375,-89.35546875
43.9453125,-9.27734375,-46.875,-71.2890625
9.27734375,-6.34765625,-40.0390625,-8.7890625
-93.26171875,-74.70703125,-36.62109375,-0.9765625
-150.390625,-95.21484375,-28.80859375,-46.875
-69.82421875,-37.109375,-36.1328125,-76.171875
39.0625,-11.23046875,-52.24609375,-56.640625
29.296875,6.34765625,-35.15625,-2.9296875
-70.3125,-6.34765625,-21.97265625,-0.9765625
-144.53125,-75.1953125,-32.2265625,-56.15234375
-80.078125,-74.70703125,-40.52734375,-99.12109375
37.59765625,-25.390625,-35.64453125,-80.56640625
44.921875,-7.32421875,-44.43359375,-31.25
-58.59375,-37.59765625,-48.828125,-6.34765625
-123.046875,-61.03515625,-44.43359375,-17.08984375
-52.24609375,-52.24609375,-46.875,-46.875
33.69140625,9.27734375,-45.41015625,-56.15234375
47.36328125,25.390625,-43.9453125,-12.20703125
-58.59375,-59.08203125,-26.3671875,9.27734375
-148.4375,-69.82421875,-0.9765625,-18.06640625
-100.09765625,-32.2265625,-6.8359375,-67.87109375
-3.41796875,-33.69140625,-41.50390625,-90.33203125
46.875,-18.5546875,-49.8046875,-41.015625
-30.76171875,-33.203125,-33.69140625,14.16015625
-134.765625,-80.078125,-35.15625,-12.20703125
-109.86328125,-67.87109375,-42.96875,-86.42578125
-3.41796875,-26.3671875,-48.828125,-100.5859375
52.24609375,-25.390625,-48.828125,-51.7578125
-26.85546875,-43.9453125,-37.109375,-4.8828125
-122.0703125,-72.265625,-28.80859375,-7.8125
-115.234375,-85.44921875,-34.1796875,-59.5703125
-16.6015625,-14.16015625,-48.828125,-84.47265625
51.26953125,32.71484375,-48.828125,-47.8515625
-18.06640625,-43.45703125,-29.296875,3.90625
-126.46484375,-97.16796875,-27.83203125,0.9765625
-143.06640625,-91.30859375,-50.29296875,-52.24609375
-40.52734375,-44.43359375,-69.3359375,-76.66015625
55.17578125,6.8359375,-66.40625,-47.36328125
13.18359375,-18.5546875,-43.9453125,3.41796875
-90.33203125,-66.40625,-38.0859375,2.9296875
-122.55859375,-71.77734375,-45.8984375,-53.22265625
-36.1328125,-50.29296875,-47.8515625,-93.26171875
58.59375,-7.32421875,-50.29296875,-68.84765625
34.1796875,4.8828125,-40.52734375,-4.39453125
-70.3125,-13.671875,-26.3671875,-0.48828125
-127.9296875,-84.47265625,-45.41015625,-55.17578125
-47.8515625,-66.40625,-64.94140625,-88.37890625
50.29296875,4.8828125,-65.4296875,-77.63671875
25.87890625,-20.99609375,-45.8984375,-26.85546875
-79.58984375,-78.61328125,-30.2734375,-2.9296875
-126.46484375,-107.421875,-29.296875,-29.296875
-60.546875,-54.19921875,-49.31640625,-74.70703125
30.76171875,6.34765625,-72.75390625,-71.77734375
27.34375,-22.94921875,-60.05859375,-23.4375
-75.1953125,-68.359375,-35.64453125,1.953125
-139.6484375,-81.0546875,-36.1328125,-21.97265625
-82.03125,-44.43359375,-49.8046875,-65.4296875
24.90234375,-26.3671875,-63.4765625,-53.7109375
38.57421875,-39.55078125,-63.4765625,-12.6953125
-62.01171875,-54.19921875,-44.921875,9.765625
-141.6015625,-82.51953125,-40.0390625,-16.6015625
-98.14453125,-61.5234375,-57.12890625,-81.54296875
5.37109375,-22.4609375,-66.89453125,-90.8203125
39.0625,-36.62109375,-63.96484375,-41.50390625
-51.26953125,-41.50390625,-51.7578125,-6.8359375
-145.5078125,-72.75390625,-39.55078125,-45.41015625
-113.28125,-70.80078125,-45.41015625,-100.09765625
-0.48828125,-16.6015625,-54.6875,-92.7734375
35.15625,16.6015625,-61.03515625,-49.8046875
-64.453125,-67.87109375,-66.89453125,-13.671875
-154.296875,-133.30078125,-66.40625,-35.64453125
-124.51171875,-86.9140625,-51.7578125,-83.49609375
-12.6953125,-25.87890625,-49.31640625,-83.49609375
50.78125,-10.25390625,-47.8515625,-43.45703125
-27.83203125,-38.0859375,-34.66796875,-15.13671875
-126.46484375,-70.3125,-24.90234375,-23.92578125
-118.65234375,-68.84765625,-26.85546875,-62.01171875
-28.3203125,-12.20703125,-53.7109375,-88.37890625
36.62109375,-11.71875,-68.84765625,-66.40625
-16.11328125,-41.015625,-45.41015625,-16.11328125
-118.65234375,-42.48046875,-34.66796875,-10.25390625
-145.5078125,-86.42578125,-46.38671875,-61.03515625
-46.38671875,-80.078125,-46.875,-95.703125
48.33984375,-19.53125,-54.6875,-66.89453125
-1.46484375,-36.62109375,-50.78125,-11.71875
-102.05078125,-60.546875,-28.80859375,-0.48828125
-141.11328125,-71.2890625,-41.9921875,-54.19921875
-55.6640625,-47.36328125,-48.828125,-93.75
49.8046875,-1.953125,-33.69140625,-64.94140625
25.87890625,5.859375,-37.59765625,-16.6015625
-81.54296875,-70.3125,-35.15625,-13.671875
-137.20703125,-95.21484375,-37.109375,-58.59375
-62.5,-26.85546875,-49.31640625,-106.4453125
37.59765625,-5.37109375,-52.24609375,-81.54296875
20.5078125,-52.24609375,-53.7109375,-24.90234375
-78.61328125,-65.91796875,-41.50390625,-7.8125
-137.20703125,-69.82421875,-24.4140625,-35.64453125
-70.80078125,-46.875,-27.83203125,-84.9609375
44.43359375,8.30078125,-41.9921875,-69.3359375
54.19921875,-1.46484375,-48.33984375,-17.578125
-51.7578125,-53.7109375,-42.48046875,-3.41796875
-142.08984375,-67.3828125,-32.2265625,-39.0625
-85.44921875,-46.38671875,-39.55078125,-84.47265625
32.71484375,23.92578125,-41.50390625,-70.80078125
61.03515625,42.48046875,-53.7109375,-15.625
-36.1328125,-62.98828125,-45.41015625,20.5078125
-132.32421875,-81.0546875,-20.99609375,-12.20703125
-92.28515625,-43.9453125,-25.390625,-74.70703125
10.7421875,-37.59765625,-42.48046875,-90.33203125
46.38671875,-7.8125,-54.19921875,-52.734375
-40.0390625,-14.16015625,-35.15625,2.9296875
-140.625,-61.5234375,-26.3671875,-7.32421875
-118.1640625,-68.84765625,-40.52734375,-67.87109375
-7.8125,-28.3203125,-45.41015625,-77.1484375
55.17578125,-28.3203125,-39.0625,-29.78515625
-10.7421875,-23.4375,-27.34375,17.578125
-107.421875,-25.87890625,-21.484375,3.41796875
-109.375,-83.984375,-16.11328125,-48.33984375
-14.6484375,-30.2734375,-34.1796875,-70.3125
59.5703125,20.01953125,-54.6875,-45.41015625
0.48828125,-32.71484375,-54.19921875,1.953125
-110.3515625,-52.734375,-46.38671875,-10.25390625
-129.8828125,-71.77734375,-36.62109375,-62.01171875
-8.30078125,-45.8984375,-42.48046875,-69.3359375
73.73046875,-13.671875,-60.546875,-61.03515625
0.9765625,-46.38671875,-57.12890625,-30.2734375
-101.07421875,-82.51953125,-36.62109375,-19.53125
-135.25390625,-41.015625,-38.57421875,-64.94140625
-44.921875,25.390625,-50.78125,-101.07421875
45.8984375,4.39453125,-55.17578125,-79.58984375
-4.39453125,-25.390625,-55.17578125,-33.69140625
-119.62890625,-64.453125,-48.828125,-34.66796875
-166.9921875,-90.33203125,-51.26953125,-80.56640625
-77.1484375,-48.828125,-56.640625,-106.93359375
29.296875,-6.8359375,-51.7578125,-79.58984375
20.5078125,-11.23046875,-46.875,-24.90234375
-83.0078125,-62.98828125,-38.57421875,-22.4609375
-148.4375,-73.2421875,-40.0390625,-65.91796875
-78.61328125,-68.84765625,-57.12890625,-106.93359375
25.87890625,-31.73828125,-55.17578125,-93.75
35.15625,19.04296875,-39.0625,-37.109375
-70.3125,-66.89453125,-29.296875,-22.4609375
-150.390625,-106.4453125,-36.62109375,-49.31640625
-79.58984375,-58.59375,-55.6640625,-77.1484375
32.71484375,-0.9765625,-52.734375,-66.89453125
45.41015625,6.34765625,-40.52734375,-30.2734375
-65.4296875,-60.05859375,-35.64453125,-10.7421875
-149.4140625,-74.21875,-33.203125,-28.80859375
-95.21484375,-51.7578125,-33.203125,-65.4296875
8.7890625,4.39453125,-31.25,-56.15234375
36.1328125,-1.953125,-37.59765625,-33.203125
-45.41015625,-29.296875,-41.50390625,-9.765625
-124.0234375,-39.0625,-35.64453125,-17.08984375
-98.6328125,-55.17578125,-32.2265625,-71.2890625
-0.48828125,-42.48046875,-43.9453125,-88.8671875
41.50390625,-40.0390625,-65.91796875,-60.546875
-31.73828125,-55.17578125,-64.453125,-20.01953125
-122.55859375,-64.94140625,-53.22265625,-24.90234375
-111.328125,-60.05859375,-41.9921875,-70.80078125
-2.44140625,-9.27734375,-43.45703125,-84.47265625
62.5,-2.44140625,-44.43359375,-53.22265625
-12.20703125,-38.0859375,-26.85546875,-4.8828125
-116.2109375,-64.453125,-24.4140625,-7.32421875
-128.41796875,-52.734375,-41.015625,-64.94140625
-33.203125,12.20703125,-55.17578125,-88.37890625
51.7578125,-35.64453125,-62.5,-57.12890625
4.39453125,-52.734375,-45.8984375,-11.71875
-100.09765625,-47.36328125,-30.2734375,-17.08984375
-125.0,-86.42578125,-41.015625,-57.6171875
-37.59765625,-35.15625,-54.6875,-77.1484375
37.109375,-11.23046875,-60.05859375,-53.7109375
-4.8828125,-26.85546875,-50.29296875,1.46484375
-106.4453125,-70.80078125,-28.80859375,-1.953125
-145.5078125,-95.703125,-39.0625,-55.6640625
-62.98828125,-51.7578125,-49.8046875,-96.19140625
36.62109375,12.6953125,-40.0390625,-76.171875
20.5078125,29.78515625,-43.45703125,-22.94921875
-86.9140625,-92.7734375,-37.59765625,-10.7421875
-145.01953125,-141.11328125,-38.57421875,-51.26953125
-58.59375,-50.29296875,-59.08203125,-93.26171875
46.875,-3.90625,-58.59375,-78.125
41.015625,5.37109375,-51.7578125,-21.484375
-65.91796875,-54.19921875,-40.52734375,1.46484375
-145.5078125,-100.09765625,-18.06640625,-34.1796875
-86.42578125,-43.45703125,-27.34375,-81.54296875
18.06640625,-4.8828125,-45.41015625,-75.68359375
32.71484375,-17.578125,-48.33984375,-32.2265625
-57.6171875,-46.38671875,-41.50390625,-3.41796875
-132.8125,-41.015625,-37.59765625,-28.3203125
-91.30859375,-67.87109375,-41.9921875,-84.9609375
10.25390625,-63.4765625,-46.38671875,-90.8203125
44.43359375,-26.3671875,-41.50390625,-43.9453125
-51.26953125,-38.0859375,-28.80859375,-1.953125
-144.04296875,-81.0546875,-25.390625,-14.6484375
-108.3984375,-60.546875,-38.57421875,-64.453125
1.953125,-8.30078125,-59.08203125,-67.3828125
65.4296875,24.4140625,-65.4296875,-27.83203125
-17.08984375,-16.11328125,-43.45703125,10.7421875
-127.9296875,-102.05078125,-22.4609375,-13.18359375
-108.88671875,-60.546875,-23.4375,-76.171875
-3.41796875,30.2734375,-32.2265625,-98.6328125
60.546875,11.23046875,-34.1796875,-60.546875
-12.6953125,-44.921875,-32.2265625,-18.5546875
-120.60546875,-68.84765625,-27.83203125,-38.0859375
-128.90625,-76.171875,-38.0859375,-88.37890625
-21.484375,-30.2734375,-52.734375,-99.609375
61.5234375,0.48828125,-52.734375,-58.59375
-2.9296875,-15.13671875,-48.33984375,-15.13671875
-118.65234375,-91.30859375,-37.109375,-27.83203125
-139.16015625,-83.0078125,-32.71484375,-69.82421875
-36.62109375,-26.85546875,-46.875,-86.42578125
58.10546875,12.20703125,-62.01171875,-49.31640625
6.34765625,20.99609375,-53.22265625,3.41796875
-105.46875,-72.265625,-16.11328125,0.9765625
-140.625,-100.5859375,-17.08984375,-32.2265625
-51.26953125,-36.62109375,-39.55078125,-62.01171875
39.55078125,-19.04296875,-43.9453125,-50.29296875
8.7890625,-25.390625,-36.62109375,10.7421875
-85.44921875,-55.6640625,-19.04296875,18.5546875
-136.71875,-66.89453125,-21.97265625,-24.4140625
-52.734375,-41.50390625,-38.57421875,-60.546875
55.17578125,-7.8125,-46.38671875,-67.87109375
35.15625,-21.484375,-52.24609375,-20.5078125
-73.2421875,-44.921875,-36.62109375,6.8359375
-125.9765625,-24.90234375,-13.18359375,-18.5546875
-62.01171875,-52.734375,-23.92578125,-62.01171875
28.80859375,-26.3671875,-35.64453125,-63.96484375
41.9921875,-7.8125,-29.296875,-9.27734375
-58.10546875,-73.73046875,-26.3671875,6.8359375
-145.01953125,-83.0078125,-42.96875,-33.203125
-85.9375,-38.0859375,-50.78125,-72.75390625
20.99609375,-11.71875,-42.96875,-69.82421875
38.57421875,-9.765625,-41.015625,-30.2734375
-49.8046875,-34.1796875,-25.390625,1.953125
-132.8125,-82.03125,-19.04296875,-19.53125
-92.7734375,-63.4765625,-31.25,-71.77734375
10.7421875,16.6015625,-47.8515625,-78.125
43.9453125,-3.90625,-51.26953125,-45.41015625
-44.43359375,-75.1953125,-33.69140625,-9.27734375
-139.16015625,-76.66015625,-31.25,-27.83203125
-114.2578125,-70.3125,-39.55078125,-88.37890625
-1.953125,-11.71875,-49.8046875,-89.35546875
61.5234375,24.4140625,-62.5,-40.52734375
-10.25390625,-34.1796875,-45.8984375,0.0
-112.3046875,-87.40234375,-25.390625,-17.578125
-114.2578125,-72.265625,-35.64453125,-78.61328125
-12.20703125,-33.69140625,-55.6640625,-83.984375
56.15234375,-6.8359375,-51.26953125,-41.9921875
-23.4375,-4.8828125,-37.59765625,-7.32421875
-113.28125,-62.5,-35.15625,-8.30078125
-114.2578125,-100.09765625,-43.9453125,-55.6640625
-23.92578125,-54.19921875,-42.48046875,-81.54296875
55.6640625,0.48828125,-30.2734375,-56.15234375
-6.8359375,-20.5078125,-37.109375,-1.953125
-119.62890625,-98.14453125,-32.71484375,10.7421875
-150.87890625,-98.14453125,-25.390625,-45.41015625
-50.29296875,-26.3671875,-37.109375,-92.28515625
54.19921875,11.23046875,-39.0625,-77.63671875
16.6015625,-37.109375,-33.203125,-18.06640625
-99.609375,-93.26171875,-30.76171875,-4.8828125
-138.671875,-71.77734375,-29.78515625,-39.55078125
-54.6875,-62.5,-34.66796875,-70.80078125
49.8046875,-52.734375,-45.8984375,-55.6640625
32.2265625,-28.80859375,-47.36328125,-4.8828125
-86.42578125,-78.125,-42.48046875,6.8359375
-149.4140625,-104.98046875,-45.41015625,-28.80859375
-82.03125,-83.0078125,-57.12890625,-74.70703125
21.484375,-35.15625,-65.4296875,-73.2421875
29.296875,-8.30078125,-52.24609375,-29.296875
-72.75390625,-67.87109375,-47.36328125,-11.71875
-151.85546875,-111.328125,-53.22265625,-42.48046875
-89.35546875,-56.15234375,-59.08203125,-85.9375
15.625,11.23046875,-56.15234375,-76.66015625
40.0390625,-23.4375,-49.8046875,-34.1796875
-58.10546875,-113.76953125,-45.41015625,-11.71875
-145.01953125,-126.953125,-48.33984375,-36.62109375
-94.23828125,-60.05859375,-61.03515625,-88.37890625
15.13671875,-5.859375,-63.4765625,-90.33203125
47.8515625,-15.13671875,-52.734375,-45.8984375
-45.8984375,-47.36328125,-27.34375,-8.7890625
-135.25390625,-84.9609375,-29.78515625,-22.94921875
-113.76953125,-76.171875,-58.10546875,-71.77734375
-12.20703125,-17.08984375,-67.3828125,-77.1484375
41.015625,-4.39453125,-51.26953125,-35.15625
-41.9921875,-11.23046875,-45.8984375,0.48828125
-138.18359375,-98.6328125,-49.8046875,-14.16015625
-132.32421875,-108.3984375,-46.875,-68.84765625
-28.80859375,-10.25390625,-56.15234375,-81.0546875
47.8515625,-27.34375,-54.6875,-44.43359375
-23.92578125,-53.7109375,-45.8984375,-15.13671875
-126.46484375,-66.40625,-44.921875,-33.203125
-120.1171875,-68.359375,-47.36328125,-76.171875
-13.18359375,-41.015625,-58.10546875,-90.33203125
70.3125,-15.625,-61.03515625,-58.59375
0.9765625,-37.109375,-52.24609375,-17.08984375
-113.28125,-76.171875,-49.8046875,-19.04296875
-123.53515625,-60.546875,-51.7578125,-54.19921875
-36.62109375,-57.6171875,-48.828125,-91.30859375
60.546875,-37.109375,-42.96875,-65.91796875
24.90234375,-12.20703125,-36.1328125,-6.8359375
-102.05078125,-73.73046875,-35.15625,-19.53125
-145.5078125,-84.47265625,-37.59765625,-59.5703125
-55.6640625,-35.64453125,-46.38671875,-83.0078125
50.29296875,-27.83203125,-56.640625,-56.640625
22.94921875,-42.48046875,-54.19921875,-0.9765625
-97.65625,-83.49609375,-40.0390625,-11.23046875
-153.80859375,-83.0078125,-36.62109375,-52.734375
-68.359375,-24.4140625,-40.0390625,-78.61328125
45.8984375,7.8125,-40.0390625,-64.94140625
41.015625,-41.50390625,-49.31640625,-13.18359375
-63.4765625,-80.078125,-42.48046875,-7.32421875
-129.39453125,-89.84375,-27.34375,-46.38671875
-78.125,-80.56640625,-45.41015625,-85.44921875
31.73828125,-2.44140625,-56.15234375,-76.171875
53.22265625,12.20703125,-34.1796875,-40.0390625
-55.6640625,-65.91796875,-28.80859375,-32.2265625
-135.25390625,-78.125,-43.45703125,-52.24609375
-81.54296875,-32.71484375,-57.6171875,-88.8671875
26.3671875,-21.97265625,-58.59375,-84.47265625
52.24609375,-19.53125,-54.19921875,-32.71484375
-51.26953125,-35.15625,-35.64453125,5.859375
-145.99609375,-81.0546875,-26.85546875,-23.4375
-101.07421875,-74.70703125,-40.52734375,-71.2890625
0.0,-7.8125,-49.31640625,-75.68359375
42.48046875,0.0,-50.78125,-47.36328125
-36.62109375,-36.62109375,-37.109375,-1.46484375
-134.27734375,-69.3359375,-21.484375,-6.8359375
-118.1640625,-73.2421875,-36.62109375,-60.546875
-7.8125,-32.71484375,-68.84765625,-78.125
55.6640625,-7.32421875,-76.171875,-39.0625
-25.390625,-42.96875,-47.36328125,-5.37109375
-131.8359375,-64.453125,-26.3671875,-23.4375
-136.23046875,-41.50390625,-21.97265625,-77.63671875
-27.83203125,-24.4140625,-27.34375,-90.33203125
43.45703125,-24.90234375,-42.48046875,-52.734375
-24.4140625,-58.10546875,-41.9921875,-2.9296875
-124.51171875,-80.078125,-37.59765625,-5.37109375
-132.32421875,-59.08203125,-49.31640625,-53.22265625
-28.80859375,-54.6875,-60.05859375,-76.171875
54.6875,-22.4609375,-53.22265625,-59.5703125
5.37109375,-34.1796875,-52.24609375,-28.80859375
-111.328125,-84.47265625,-52.734375,-36.1328125
-156.25,-95.703125,-55.17578125,-84.47265625
-70.80078125,-48.828125,-74.21875,-127.44140625
26.85546875,10.25390625,-82.51953125,-115.72265625
-13.18359375,-56.15234375,-78.61328125,-64.94140625
-138.18359375,-127.44140625,-83.49609375,-59.5703125
-191.89453125,-132.32421875,-91.796875,-85.44921875
-105.46875,-118.1640625,-100.09765625,-113.76953125
-9.765625,-76.171875,-105.95703125,-116.69921875
-21.484375,-80.078125,-93.26171875,-61.03515625
-116.69921875,-110.83984375,-65.91796875,-36.1328125
-189.453125,-112.79296875,-62.5,-76.66015625
-121.09375,-75.68359375,-70.80078125,-115.72265625
-8.30078125,-41.015625,-77.63671875,-98.6328125
-2.44140625,-29.78515625,-81.0546875,-60.05859375
-94.7265625,-59.5703125,-74.21875,-29.78515625
-163.0859375,-110.3515625,-65.91796875,-35.64453125
-110.3515625,-114.74609375,-69.3359375,-90.8203125
1.46484375,-47.36328125,-70.80078125,-103.02734375
34.66796875,-30.2734375,-60.05859375,-57.12890625
-69.3359375,-80.078125,-65.4296875,-25.87890625
-161.1328125,-85.44921875,-64.453125,-42.48046875
-112.3046875,-73.73046875,-64.453125,-89.84375
3.41796875,-28.3203125,-74.70703125,-96.6796875
38.57421875,-11.23046875,-74.70703125,-56.640625
-54.19921875,-48.828125,-54.6875,-19.53125
-147.94921875,-69.82421875,-44.43359375,-43.9453125
-125.0,-46.38671875,-57.6171875,-98.14453125
-16.11328125,-35.15625,-70.80078125,-96.6796875
35.64453125,-55.17578125,-72.75390625,-55.6640625
-40.52734375,-50.29296875,-62.5,-10.7421875
-136.71875,-82.03125,-58.59375,-19.53125
-123.53515625,-83.984375,-50.78125,-75.1953125
-18.06640625,-17.578125,-44.921875,-87.890625
47.8515625,5.37109375,-50.29296875,-53.22265625
-32.2265625,-26.85546875,-46.875,-7.8125
-142.578125,-76.171875,-37.109375,-12.6953125
-146.484375,-104.4921875,-45.41015625,-65.4296875
-39.0625,-48.828125,-58.59375,-88.37890625
59.5703125,9.27734375,-55.17578125,-53.22265625
0.48828125,-41.9921875,-55.6640625,-8.30078125
-116.2109375,-119.140625,-51.26953125,-15.625
-145.99609375,-100.09765625,-45.8984375,-57.12890625
-57.12890625,-33.203125,-43.9453125,-87.40234375
46.38671875,12.20703125,-47.36328125,-62.5
1.46484375,-27.34375,-54.6875,-16.11328125
-107.421875,-92.7734375,-37.109375,-22.4609375
-145.99609375,-104.4921875,-33.69140625,-62.98828125
-57.6171875,-44.43359375,-41.50390625,-87.40234375
50.78125,-13.671875,-53.22265625,-69.3359375
25.87890625,-14.6484375,-53.7109375,-15.13671875
-79.58984375,-36.1328125,-34.1796875,8.30078125
-135.25390625,-100.09765625,-41.50390625,-29.78515625
-60.546875,-83.49609375,-46.38671875,-81.0546875
41.50390625,-22.94921875,-35.64453125,-74.70703125
23.92578125,-20.5078125,-40.52734375,-34.1796875
-87.890625,-64.453125,-36.62109375,-17.578125
-166.9921875,-83.49609375,-35.64453125,-46.875
-101.07421875,-44.43359375,-47.8515625,-89.84375
15.625,-9.765625,-58.10546875,-81.0546875
38.0859375,-4.8828125,-59.08203125,-33.69140625
-54.6875,-52.24609375,-45.41015625,-7.32421875
-138.18359375,-79.1015625,-27.83203125,-25.87890625
-92.28515625,-46.38671875,-28.80859375,-69.82421875
11.23046875,-38.0859375,-35.15625,-82.51953125
44.921875,-18.06640625,-39.55078125,-50.78125
-35.64453125,-17.08984375,-27.83203125,-16.11328125
-129.39453125,-88.37890625,-21.97265625,-36.62109375
-109.86328125,-70.3125,-43.9453125,-89.84375
-8.30078125,-12.6953125,-56.15234375,-87.40234375
45.41015625,-9.765625,-54.6875,-36.1328125
-33.203125,-30.2734375,-53.22265625,15.13671875
-141.6015625,-69.82421875,-42.96875,-0.48828125
-128.90625,-43.9453125,-25.87890625,-64.94140625
-13.671875,22.94921875,-23.92578125,-80.56640625
54.6875,10.7421875,-36.1328125,-42.96875
-20.99609375,-56.15234375,-39.0625,4.8828125
-128.41796875,-89.84375,-30.76171875,0.0
-130.859375,-85.9375,-30.2734375,-48.828125
-19.04296875,-27.34375,-50.29296875,-71.2890625
66.89453125,21.97265625,-61.03515625,-52.24609375
-2.9296875,-17.08984375,-40.0390625,-19.04296875
-115.234375,-96.19140625,-31.25,-30.76171875
-124.0234375,-69.3359375,-41.50390625,-76.171875
-25.390625,-16.11328125,-52.734375,-95.21484375
57.6171875,-4.39453125,-58.10546875,-64.94140625
6.8359375,-17.08984375,-52.734375,-8.7890625
-98.6328125,-52.734375,-50.29296875,-0.9765625
-138.18359375,-111.81640625,-52.24609375,-41.9921875
-61.03515625,-76.66015625,-61.5234375,-81.54296875
38.0859375,-8.7890625,-64.453125,-62.01171875
2.9296875,-37.59765625,-55.6640625,-6.8359375
-106.93359375,-83.0078125,-46.38671875,-2.44140625
-164.0625,-88.8671875,-43.45703125,-42.96875
-91.796875,-55.6640625,-57.12890625,-92.28515625
19.53125,-29.296875,-62.98828125,-93.26171875
11.71875,-29.296875,-61.5234375,-45.41015625
-104.98046875,-108.88671875,-68.359375,-41.9921875
-176.7578125,-115.234375,-69.82421875,-83.49609375
-98.6328125,-28.80859375,-77.1484375,-118.65234375
11.71875,-27.83203125,-84.9609375,-108.3984375
13.18359375,-83.0078125,-89.84375,-65.4296875
-97.16796875,-103.515625,-86.9140625,-46.38671875
-174.8046875,-105.95703125,-66.89453125,-70.3125
-115.72265625,-76.171875,-60.546875,-113.28125
-10.25390625,-37.109375,-75.68359375,-114.2578125
10.7421875,-51.26953125,-77.1484375,-65.4296875
-84.9609375,-84.47265625,-61.03515625,-28.3203125
-179.19921875,-110.83984375,-60.05859375,-49.8046875
-148.4375,-109.86328125,-66.40625,-106.4453125
-43.9453125,-61.03515625,-74.21875,-124.0234375
2.44140625,0.0,-75.68359375,-97.65625
-92.28515625,-65.91796875,-55.17578125,-75.68359375
-202.63671875,-175.29296875,-52.24609375,-93.26171875
-165.52734375,-128.90625,-67.87109375,-124.0234375
-62.5,-57.12890625,-65.91796875,-152.34375
-24.4140625,-59.5703125,-53.7109375,-141.6015625
-111.81640625,-69.82421875,-43.9453125,-100.09765625
-232.91015625,-106.93359375,-40.0390625,-125.0
-236.328125,-90.8203125,-51.26953125,-184.5703125
-130.37109375,-21.97265625,-61.5234375,-203.61328125
-58.59375,-16.6015625,-64.453125,-175.29296875
-135.25390625,-33.203125,-77.63671875,-137.6953125
-245.1171875,-26.3671875,-76.171875,-141.6015625
-259.27734375,-68.359375,-55.6640625,-193.84765625
-169.43359375,-54.19921875,-60.546875,-236.81640625
-68.359375,32.2265625,-62.98828125,-208.0078125
-113.76953125,2.9296875,-61.03515625,-160.64453125
-233.88671875,-50.78125,-71.2890625,-172.8515625
-259.27734375,-50.78125,-68.359375,-213.8671875
-160.64453125,19.53125,-68.359375,-246.58203125
-55.17578125,72.265625,-70.3125,-226.07421875
-82.03125,47.36328125,-64.453125,-160.15625
-176.7578125,6.34765625,-59.08203125,-139.6484375
-215.33203125,-14.16015625,-63.96484375,-170.8984375
-140.625,27.83203125,-77.63671875,-208.49609375
-32.2265625,62.5,-84.9609375,-179.19921875
-44.921875,32.2265625,-81.0546875,-120.1171875
-157.71484375,-3.90625,-70.80078125,-109.86328125
-202.1484375,-20.01953125,-76.171875,-124.51171875
-118.1640625,22.4609375,-108.88671875,-160.15625
2.9296875,75.1953125,-117.1875,-130.37109375
11.23046875,29.78515625,-99.609375,-48.828125
-91.796875,-47.36328125,-93.26171875,-14.6484375
-144.53125,-57.12890625,-87.890625,-22.94921875
-62.98828125,-4.39453125,-92.7734375,-70.80078125
54.19921875,29.296875,-103.515625,-86.42578125
80.078125,34.66796875,-103.515625,-33.69140625
-14.6484375,-57.6171875,-95.703125,17.08984375
-96.19140625,-121.09375,-90.8203125,-6.8359375
-36.62109375,-62.01171875,-94.7265625,-64.453125
82.51953125,-2.9296875,-89.84375,-54.19921875
126.46484375,-13.671875,-88.8671875,2.44140625
29.78515625,-71.2890625,-79.58984375,55.17578125
-78.61328125,-116.2109375,-75.68359375,36.62109375
-51.7578125,-79.1015625,-83.49609375,-23.92578125
73.73046875,-8.30078125,-77.63671875,-22.4609375
126.953125,-21.97265625,-75.1953125,11.71875
32.71484375,-81.54296875,-64.94140625,55.6640625
-62.98828125,-100.09765625,-56.640625,57.12890625
-44.921875,-103.515625,-74.70703125,8.7890625
62.01171875,-60.05859375,-75.1953125,0.48828125
130.37109375,-32.2265625,-64.94140625,37.109375
53.22265625,-68.84765625,-52.24609375,79.58984375
-61.03515625,-105.46875,-54.19921875,74.70703125
-62.98828125,-86.9140625,-68.359375,21.97265625
45.41015625,-28.3203125,-66.40625,-22.4609375
115.234375,-14.16015625,-61.03515625,-10.25390625
55.17578125,-53.7109375,-45.41015625,43.45703125
-48.828125,-133.7890625,-33.69140625,50.78125
-72.75390625,-112.79296875,-40.0390625,11.23046875
29.296875,0.0,-57.6171875,-21.97265625
118.1640625,0.48828125,-60.05859375,-13.671875
59.5703125,-81.54296875,-47.8515625,27.34375
-58.10546875,-125.9765625,-33.203125,33.203125
-99.609375,-111.328125,-33.69140625,-9.27734375
-11.71875,-51.7578125,-55.6640625,-47.8515625
87.890625,-8.7890625,-65.91796875,-27.83203125
65.4296875,-35.15625,-61.03515625,34.1796875
-40.52734375,-115.234375,-45.41015625,50.29296875
-110.3515625,-129.39453125,-45.41015625,2.44140625
-34.1796875,-26.3671875,-59.08203125,-49.31640625
80.078125,27.34375,-63.96484375,-38.57421875
69.82421875,-12.20703125,-64.453125,16.6015625
-52.734375,-128.41796875,-55.6640625,32.71484375
-132.8125,-135.25390625,-55.6640625,-2.9296875
-59.5703125,-49.31640625,-71.77734375,-51.26953125
53.7109375,-40.52734375,-67.3828125,-43.45703125
67.87109375,-33.203125,-52.734375,3.90625
-45.41015625,-91.30859375,-48.33984375,18.5546875
-134.765625,-114.2578125,-46.38671875,-10.7421875
-77.63671875,-56.15234375,-62.01171875,-63.96484375
36.62109375,2.9296875,-73.2421875,-69.82421875
69.3359375,-25.390625,-62.01171875,-25.87890625
-28.80859375,-88.37890625,-44.43359375,8.7890625
-124.51171875,-101.5625,-40.0390625,-14.6484375
-81.0546875,-82.03125,-49.8046875,-62.5
36.62109375,-30.2734375,-58.59375,-64.453125
84.47265625,-14.16015625,-64.94140625,-25.87890625
-12.6953125,-100.5859375,-57.6171875,20.01953125
-121.09375,-123.046875,-41.50390625,9.27734375
-98.14453125,-62.01171875,-48.828125,-50.29296875
17.578125,-19.04296875,-55.17578125,-65.91796875
83.49609375,-2.44140625,-47.8515625,-27.83203125
-4.8828125,-40.0390625,-30.2734375,18.06640625
-121.09375,-114.2578125,-26.85546875,9.27734375
-114.74609375,-81.0546875,-39.0625,-40.52734375
0.48828125,42.48046875,-39.55078125,-55.6640625
81.54296875,16.6015625,-35.64453125,-20.01953125
13.671875,-78.125,-27.83203125,20.01953125
-102.5390625,-109.375,-19.04296875,3.41796875
-116.2109375,-83.49609375,-28.80859375,-42.48046875
-3.41796875,1.953125,-44.43359375,-69.82421875
80.078125,22.94921875,-48.828125,-45.41015625
16.11328125,-39.55078125,-43.45703125,9.27734375
-84.9609375,-71.2890625,-23.92578125,11.23046875
-101.07421875,-49.31640625,-11.23046875,-22.94921875
3.90625,-5.37109375,-5.859375,-51.7578125
107.91015625,56.15234375,5.37109375,-27.34375
75.68359375,47.8515625,1.953125,35.15625
-37.109375,-45.8984375,4.8828125,46.875
-90.33203125,-72.75390625,9.765625,13.671875
-0.9765625,-6.8359375,-5.859375,-30.76171875
106.93359375,49.8046875,-12.6953125,-20.99609375
90.33203125,21.484375,2.44140625,44.921875
-25.87890625,-48.33984375,7.32421875,57.12890625
-94.23828125,-37.109375,4.39453125,22.4609375
-19.04296875,22.4609375,-9.765625,-24.4140625
88.8671875,53.22265625,-27.83203125,-26.85546875
79.1015625,7.8125,-14.16015625,22.94921875
-37.109375,-33.69140625,0.48828125,40.52734375
-112.3046875,-18.06640625,-0.9765625,-0.48828125
-64.453125,-4.39453125,-12.6953125,-51.7578125
47.36328125,8.7890625,-22.94921875,-46.38671875
79.1015625,-4.8828125,-18.5546875,5.37109375
-27.83203125,-59.08203125,-6.8359375,40.0390625
-122.0703125,-63.4765625,-5.37109375,6.8359375
-73.73046875,-15.13671875,-12.6953125,-53.7109375
42.48046875,43.45703125,-21.97265625,-60.05859375
84.47265625,33.69140625,-19.53125,-21.97265625
-18.5546875,-29.296875,-3.41796875,7.32421875
-118.1640625,-64.453125,-0.9765625,-7.32421875
-83.984375,-18.06640625,-11.23046875,-50.78125
35.15625,88.37890625,-18.5546875,-52.734375
90.33203125,25.390625,-17.08984375,-9.27734375
7.32421875,-68.359375,-6.34765625,42.48046875
-85.9375,-65.4296875,7.32421875,34.66796875
-79.58984375,-46.875,-6.8359375,-29.78515625
26.85546875,20.5078125,-18.06640625,-48.33984375
98.14453125,48.33984375,-4.39453125,-12.20703125
19.04296875,-28.80859375,5.859375,34.66796875
-92.28515625,-90.33203125,10.7421875,25.87890625
-93.75,-34.1796875,9.765625,-26.85546875
4.8828125,27.34375,-11.71875,-59.5703125
80.078125,42.96875,-24.4140625,-40.0390625
27.83203125,4.8828125,-14.16015625,16.6015625
-77.63671875,-62.98828125,-3.41796875,16.6015625
-114.2578125,-85.44921875,-14.16015625,-43.9453125
-27.83203125,-18.06640625,-39.55078125,-84.9609375
61.03515625,28.80859375,-43.45703125,-65.91796875
21.97265625,-20.5078125,-35.15625,-8.7890625
-75.1953125,-80.56640625,-17.578125,5.859375
-124.0234375,-89.84375,-17.578125,-37.59765625
-39.0625,-28.3203125,-39.55078125,-73.2421875
62.5,34.1796875,-39.0625,-57.6171875
26.85546875,-7.32421875,-19.04296875,-4.8828125
-78.61328125,-65.4296875,-11.71875,16.6015625
-121.09375,-28.80859375,-20.99609375,-5.859375
-51.7578125,-17.578125,-33.203125,-57.12890625
27.34375,-15.13671875,-30.2734375,-66.40625
16.11328125,-31.73828125,-24.4140625,-16.11328125
-69.82421875,-92.28515625,-20.5078125,15.625
-132.8125,-85.9375,-22.4609375,-10.7421875
-69.3359375,-25.390625,-30.76171875,-67.87109375
24.90234375,-15.13671875,-35.15625,-71.77734375
20.99609375,-20.01953125,-27.83203125,-29.78515625
-72.75390625,-56.15234375,-18.06640625,-12.20703125
-138.671875,-85.44921875,-22.4609375,-36.62109375
-85.44921875,-32.71484375,-36.62109375,-82.03125
11.23046875,31.25,-48.828125,-89.84375
32.2265625,-27.34375,-42.96875,-46.875
-57.6171875,-101.07421875,-29.296875,-0.48828125
-128.90625,-79.1015625,-18.5546875,-2.44140625
-86.9140625,-50.29296875,-20.01953125,-56.640625
8.30078125,-0.48828125,-29.296875,-76.66015625
40.0390625,-5.37109375,-35.15625,-40.52734375
-37.59765625,-55.17578125,-29.296875,14.16015625
-123.53515625,-70.3125,-20.99609375,20.99609375
-101.07421875,-46.38671875,-28.3203125,-20.99609375
-2.9296875,-2.44140625,-40.0390625,-37.59765625
46.875,-1.46484375,-39.55078125,-12.6953125
-22.94921875,-47.8515625,-35.15625,23.4375
-113.76953125,-83.0078125,-34.1796875,-7.32421875
-103.515625,-84.9609375,-25.87890625,-71.77734375
-2.9296875,-15.13671875,-30.2734375,-95.21484375
51.26953125,20.99609375,-37.109375,-67.87109375
-18.5546875,-45.8984375,-25.390625,-8.30078125
-106.93359375,-85.9375,-25.390625,-0.48828125
-114.2578125,-59.08203125,-36.1328125,-50.29296875
-22.4609375,-20.99609375,-41.015625,-79.58984375
49.8046875,-23.4375,-47.8515625,-58.10546875
-7.32421875,-77.1484375,-52.24609375,-7.32421875
-106.93359375,-101.07421875,-45.8984375,0.48828125
-120.60546875,-42.48046875,-45.8984375,-33.203125
-30.76171875,-19.53125,-57.12890625,-73.73046875
45.41015625,-14.6484375,-56.15234375,-69.82421875
3.41796875,-36.1328125,-44.43359375,-15.13671875
-91.30859375,-97.16796875,-33.69140625,5.859375
-132.8125,-86.42578125,-26.3671875,-27.34375
-56.640625,-39.0625,-41.015625,-80.56640625
36.1328125,-7.8125,-51.7578125,-81.0546875
22.94921875,-39.55078125,-45.8984375,-25.87890625
-80.078125,-90.8203125,-41.50390625,-3.41796875
-150.390625,-88.8671875,-42.96875,-33.203125
-77.63671875,-19.53125,-50.78125,-82.03125
24.90234375,38.0859375,-53.22265625,-80.56640625
24.4140625,-33.203125,-47.8515625,-30.76171875
-73.73046875,-104.4921875,-49.8046875,-1.953125
-134.27734375,-73.2421875,-41.9921875,-18.5546875
-79.58984375,-34.1796875,-46.38671875,-70.3125
20.01953125,29.296875,-57.12890625,-86.42578125
48.828125,26.3671875,-45.41015625,-45.8984375
-49.8046875,-77.1484375,-26.85546875,-7.32421875
-130.37109375,-111.81640625,-21.97265625,-23.92578125
-81.0546875,-42.96875,-35.64453125,-72.75390625
23.92578125,15.625,-38.57421875,-81.0546875
67.3828125,-2.9296875,-35.64453125,-40.52734375
-17.578125,-31.73828125,-27.83203125,7.32421875
-124.0234375,-105.95703125,-28.3203125,-2.9296875
-98.14453125,-75.68359375,-38.57421875,-47.36328125
35.64453125,20.01953125,-30.76171875,-41.9921875
80.078125,19.04296875,-40.0390625,-25.87890625
-28.80859375,-40.52734375,-43.9453125,-4.39453125
-124.0234375,-84.47265625,-38.0859375,-9.765625
-111.81640625,-51.26953125,-51.7578125,-63.4765625
-11.23046875,23.92578125,-66.89453125,-83.984375
51.7578125,39.55078125,-73.73046875,-57.12890625
-7.8125,-38.0859375,-71.2890625,-3.90625
-108.3984375,-67.3828125,-61.03515625,-1.46484375
-113.76953125,2.44140625,-65.91796875,-56.15234375
-8.7890625,54.19921875,-88.8671875,-92.7734375
70.80078125,39.55078125,-89.35546875,-73.73046875
21.484375,-15.13671875,-69.82421875,-24.4140625
-73.2421875,-39.55078125,-61.5234375,-18.5546875
-100.5859375,-30.76171875,-70.80078125,-57.6171875
-14.16015625,12.20703125,-76.66015625,-99.609375
75.68359375,38.57421875,-68.84765625,-86.42578125
30.2734375,-21.484375,-56.15234375,-28.3203125
-71.77734375,-69.82421875,-45.8984375,-13.18359375
-116.69921875,-67.3828125,-55.17578125,-46.875
-34.66796875,-0.48828125,-77.1484375,-85.9375
60.05859375,54.6875,-81.0546875,-72.265625
39.55078125,1.46484375,-66.89453125,-5.859375
-66.89453125,-107.421875,-60.546875,19.53125
-130.859375,-95.21484375,-62.01171875,-13.671875
-53.22265625,-21.484375,-62.98828125,-65.4296875
43.9453125,5.859375,-70.3125,-70.80078125
41.9921875,-17.578125,-69.3359375,-26.3671875
-55.6640625,-79.58984375,-46.875,0.0
-130.859375,-86.42578125,-38.57421875,-27.83203125
-67.3828125,-16.11328125,-52.734375,-75.1953125
37.59765625,11.71875,-69.3359375,-71.77734375
50.78125,-6.8359375,-62.98828125,-28.3203125
-44.43359375,-45.8984375,-38.0859375,6.34765625
-132.32421875,-108.3984375,-39.0625,-14.16015625
-86.9140625,-35.64453125,-62.98828125,-76.171875
22.94921875,26.3671875,-72.75390625,-83.49609375
61.03515625,-37.59765625,-62.98828125,-33.69140625
-34.1796875,-100.09765625,-41.50390625,12.6953125
-127.44140625,-106.93359375,-35.15625,-6.8359375
-98.14453125,-52.734375,-48.828125,-69.3359375
1.953125,5.37109375,-59.5703125,-83.984375
46.875,-22.94921875,-64.453125,-47.8515625
-42.48046875,-100.5859375,-59.5703125,5.859375
-142.578125,-112.3046875,-48.33984375,4.39453125
-121.58203125,-37.59765625,-53.22265625,-55.6640625
-22.94921875,7.8125,-70.3125,-87.890625
22.94921875,-41.50390625,-69.3359375,-71.77734375
-46.38671875,-97.65625,-56.640625,-26.3671875
-139.16015625,-124.51171875,-66.89453125,-30.2734375
-131.8359375,-61.03515625,-76.171875,-89.35546875
-26.3671875,3.41796875,-76.66015625,-109.86328125
39.55078125,-17.08984375,-72.75390625,-76.171875
-37.109375,-68.359375,-65.91796875,-26.85546875
-131.8359375,-106.93359375,-62.98828125,-20.5078125
-134.27734375,-70.80078125,-67.3828125,-62.98828125
-30.2734375,-0.48828125,-71.77734375,-106.4453125
41.015625,-1.46484375,-80.56640625,-92.7734375
-14.6484375,-68.84765625,-79.58984375,-33.203125
-101.07421875,-104.98046875,-62.5,-12.20703125
-121.09375,-55.6640625,-64.94140625,-36.62109375
-41.50390625,-8.7890625,-77.63671875,-89.84375
30.76171875,-9.27734375,-72.75390625,-84.9609375
0.0,-43.45703125,-63.96484375,-30.76171875
-87.890625,-86.9140625,-55.17578125,-20.01953125
-121.58203125,-45.41015625,-52.734375,-34.66796875
-40.52734375,10.25390625,-60.05859375,-82.03125
35.64453125,8.7890625,-62.01171875,-100.09765625
13.18359375,-24.90234375,-58.10546875,-43.9453125
-62.01171875,-52.24609375,-39.55078125,3.41796875
-104.98046875,-56.15234375,-33.69140625,-9.765625
-46.875,-17.578125,-47.36328125,-68.359375
26.3671875,2.9296875,-53.22265625,-92.28515625
18.5546875,-36.62109375,-52.24609375,-44.43359375
-64.453125,-67.87109375,-42.96875,16.6015625
-120.1171875,-49.31640625,-41.015625,11.23046875
-69.82421875,-10.7421875,-50.29296875,-57.6171875
7.32421875,7.8125,-55.6640625,-87.890625
20.5078125,-25.390625,-50.29296875,-48.828125
-51.7578125,-63.4765625,-41.015625,21.484375
-106.4453125,-42.96875,-37.59765625,30.76171875
-68.84765625,12.20703125,-42.96875,-44.921875
-3.41796875,0.0,-49.8046875,-83.984375
1.953125,-91.796875,-61.03515625,-62.01171875
-66.40625,-110.3515625,-47.36328125,8.30078125
-118.1640625,-64.94140625,-25.390625,27.83203125
-76.171875,-34.66796875,-33.203125,-35.15625
-1.46484375,-13.671875,-51.26953125,-86.9140625
20.99609375,2.44140625,-55.6640625,-76.171875
-41.015625,-53.22265625,-41.50390625,4.8828125
-103.515625,-78.125,-31.73828125,33.69140625
-85.9375,-38.0859375,-44.921875,-23.4375
-13.18359375,-7.8125,-61.03515625,-89.84375
25.390625,-4.39453125,-61.5234375,-93.75
-30.2734375,-65.91796875,-43.45703125,-9.765625
-93.75,-79.58984375,-31.73828125,27.34375
-90.33203125,-43.45703125,-41.015625,-24.90234375
-19.53125,-36.1328125,-50.29296875,-95.21484375
17.578125,-56.640625,-55.6640625,-111.328125
-28.3203125,-81.54296875,-47.8515625,-35.64453125
-88.8671875,-59.5703125,-36.1328125,10.25390625
-88.8671875,-15.13671875,-31.25,-25.390625
-19.53125,-10.7421875,-45.41015625,-96.19140625
28.3203125,-29.78515625,-61.5234375,-108.88671875
-16.11328125,-38.57421875,-53.7109375,-35.15625
-86.9140625,-30.76171875,-43.45703125,16.11328125
-88.8671875,-40.52734375,-30.2734375,-2.44140625
-15.625,-50.29296875,-25.390625,-76.171875
22.4609375,-43.9453125,-38.57421875,-108.88671875
-24.90234375,-69.82421875,-42.48046875,-45.41015625
-88.8671875,-81.54296875,-27.83203125,17.08984375
-102.5390625,-48.33984375,-22.4609375,5.859375
-36.62109375,-58.10546875,-40.52734375,-65.4296875
18.5546875,-58.59375,-52.734375,-97.65625
-1.953125,-43.9453125,-49.8046875,-44.921875
-66.89453125,-40.52734375,-39.55078125,20.01953125
-106.93359375,-19.53125,-31.25,4.39453125
-57.12890625,0.0,-35.64453125,-83.49609375
8.7890625,-41.50390625,-55.6640625,-121.58203125
-5.859375,-75.68359375,-66.40625,-82.03125
-63.4765625,-66.40625,-50.78125,-3.41796875
-89.35546875,-36.1328125,-32.71484375,15.625
-43.45703125,-7.8125,-28.80859375,-55.6640625
18.06640625,-41.9921875,-40.0390625,-100.09765625
19.53125,-57.6171875,-42.96875,-71.77734375
-48.33984375,-48.33984375,-27.34375,11.71875
-98.14453125,-37.109375,-26.3671875,28.80859375
-62.5,-43.45703125,-40.0390625,-46.875
4.8828125,-10.7421875,-46.38671875,-96.6796875
17.08984375,-28.80859375,-46.875,-84.9609375
-51.26953125,-81.54296875,-40.0390625,-9.27734375
-102.5390625,-55.6640625,-36.1328125,24.4140625
-78.61328125,-35.64453125,-41.50390625,-33.203125
-10.25390625,-22.4609375,-52.734375,-98.14453125
3.41796875,-41.9921875,-62.01171875,-108.88671875
-57.6171875,-79.1015625,-50.78125,-24.4140625
-107.421875,-74.70703125,-45.41015625,18.06640625
-91.796875,-36.1328125,-52.734375,-37.109375
-27.34375,-36.62109375,-62.01171875,-117.1875
-3.41796875,-62.01171875,-62.98828125,-135.7421875
-57.6171875,-70.3125,-54.6875,-49.31640625
-107.421875,-46.38671875,-47.36328125,0.48828125
-94.7265625,-35.15625,-42.96875,-38.0859375
-23.4375,-46.38671875,-51.7578125,-108.88671875
9.765625,-77.1484375,-60.546875,-126.953125
-46.875,-94.7265625,-60.546875,-53.7109375
-102.05078125,-69.3359375,-49.8046875,4.39453125
-97.65625,-43.9453125,-44.43359375,-19.53125
-31.25,-14.6484375,-60.05859375,-98.6328125
14.16015625,-47.8515625,-79.58984375,-128.41796875
-29.296875,-82.03125,-82.03125,-59.08203125
-92.7734375,-80.078125,-58.10546875,1.46484375
-106.4453125,-36.62109375,-40.0390625,-14.6484375
-44.921875,21.484375,-42.48046875,-89.35546875
5.37109375,-53.7109375,-49.8046875,-130.37109375
-26.3671875,-79.58984375,-44.921875,-69.3359375
-90.33203125,-64.453125,-36.1328125,9.27734375
-116.69921875,-66.40625,-43.9453125,0.9765625
-51.26953125,-20.5078125,-52.734375,-78.61328125
9.765625,-50.78125,-50.78125,-118.1640625
-10.25390625,-70.80078125,-41.9921875,-65.91796875
-77.1484375,-52.734375,-30.76171875,19.53125
-110.83984375,-47.8515625,-34.66796875,22.4609375
-58.59375,-20.5078125,-47.36328125,-62.01171875
12.20703125,-14.16015625,-58.10546875,-101.07421875
24.4140625,-23.4375,-53.7109375,-55.6640625
-61.03515625,-74.70703125,-32.2265625,11.71875
-137.6953125,-103.02734375,-26.3671875,13.18359375
-91.796875,-38.0859375,-34.1796875,-52.24609375
-18.5546875,-24.90234375,-42.96875,-104.98046875
-14.6484375,-57.12890625,-38.57421875,-91.796875
-78.125,-68.84765625,-25.390625,-9.765625
-119.62890625,-77.63671875,-22.4609375,22.94921875
-82.51953125,-48.33984375,-31.73828125,-38.57421875
-7.32421875,-36.1328125,-44.43359375,-104.98046875
16.6015625,-50.29296875,-44.43359375,-93.26171875
-49.8046875,-67.3828125,-29.296875,-10.7421875
-105.95703125,-54.6875,-25.87890625,17.08984375
-87.890625,-59.08203125,-37.109375,-39.55078125
-24.4140625,-52.734375,-43.45703125,-107.421875
3.90625,-58.59375,-43.45703125,-112.79296875
-50.78125,-77.1484375,-39.55078125,-26.3671875
-112.3046875,-60.546875,-24.90234375,22.4609375
-101.5625,-40.0390625,-23.92578125,-20.99609375
-25.390625,-24.90234375,-36.1328125,-87.890625
12.20703125,-30.76171875,-42.48046875,-97.65625
-38.57421875,-61.5234375,-43.45703125,-20.99609375
-108.88671875,-101.07421875,-41.50390625,21.97265625
-119.140625,-78.61328125,-44.921875,-20.01953125
-48.828125,-25.390625,-53.7109375,-101.5625
-4.39453125,-53.7109375,-63.4765625,-132.8125
-52.734375,-126.953125,-61.5234375,-64.94140625
-118.65234375,-119.62890625,-52.734375,-6.34765625
-130.859375,-83.49609375,-54.6875,-30.76171875
-66.40625,-54.19921875,-71.77734375,-112.3046875
-10.25390625,-48.828125,-85.9375,-139.6484375
-39.55078125,-85.44921875,-81.0546875,-72.75390625
-112.79296875,-109.86328125,-66.89453125,-10.25390625
-145.01953125,-82.51953125,-62.5,-29.296875
-90.8203125,-61.5234375,-69.3359375,-110.83984375
-31.73828125,-70.3125,-81.54296875,-151.85546875
-53.7109375,-54.19921875,-92.7734375,-106.93359375
-131.34765625,-116.2109375,-91.30859375,-37.59765625
-171.38671875,-160.64453125,-75.68359375,-42.48046875
-116.2109375,-94.23828125,-72.265625,-119.62890625
-39.55078125,-70.3125,-86.9140625,-155.2734375
-31.73828125,-90.33203125,-92.7734375,-113.28125
-103.02734375,-121.58203125,-82.51953125,-40.52734375
-153.80859375,-108.3984375,-75.68359375,-33.203125
-107.421875,-65.4296875,-85.9375,-111.81640625
-38.0859375,-44.43359375,-100.5859375,-156.73828125
-29.78515625,-69.3359375,-106.4453125,-136.71875
-96.6796875,-104.4921875,-95.21484375,-63.96484375
-154.78515625,-69.3359375,-79.58984375,-42.48046875
-120.60546875,-73.2421875,-77.1484375,-115.234375
-46.875,-76.171875,-86.9140625,-162.109375
-17.578125,-73.2421875,-90.33203125,-138.671875
-82.51953125,-139.6484375,-88.37890625,-54.6875
-149.4140625,-128.90625,-82.03125,-27.83203125
-125.48828125,-62.01171875,-77.63671875,-91.796875
-48.828125,-37.109375,-87.40234375,-147.4609375
-9.27734375,-66.40625,-92.7734375,-133.30078125
-69.3359375,-106.93359375,-82.03125,-50.29296875
-138.671875,-115.234375,-55.6640625,-16.6015625
-131.8359375,-54.19921875,-48.33984375,-63.4765625
-54.6875,9.765625,-60.05859375,-125.0
-5.37109375,-44.921875,-60.546875,-126.953125
-50.29296875,-110.83984375,-60.546875,-42.96875
-115.234375,-122.0703125,-69.3359375,-1.46484375
-118.1640625,-75.68359375,-70.80078125,-40.52734375
-41.50390625,-2.9296875,-61.5234375,-112.3046875
13.18359375,-23.4375,-66.40625,-132.32421875
-33.69140625,-88.8671875,-67.3828125,-59.5703125
-115.72265625,-110.3515625,-53.22265625,-13.18359375
-143.5546875,-73.73046875,-50.78125,-37.59765625
-67.3828125,-22.94921875,-59.08203125,-104.00390625
5.859375,-38.0859375,-68.359375,-127.9296875
-17.08984375,-45.41015625,-64.453125,-58.10546875
-95.21484375,-75.1953125,-52.734375,-7.32421875
-142.08984375,-112.79296875,-50.78125,-34.66796875
-79.58984375,-57.6171875,-62.5,-106.4453125
3.41796875,-25.390625,-66.40625,-123.046875
0.9765625,-57.6171875,-55.17578125,-55.6640625
-78.125,-96.6796875,-52.734375,8.7890625
-123.53515625,-85.44921875,-60.546875,-4.39453125
-61.5234375,-12.6953125,-55.6640625,-75.68359375
17.08984375,0.9765625,-55.17578125,-100.09765625
18.06640625,-62.98828125,-53.7109375,-56.15234375
-58.59375,-80.56640625,-33.203125,11.23046875
-117.67578125,-38.0859375,-25.390625,19.04296875
-73.73046875,-20.01953125,-36.62109375,-58.10546875
6.8359375,-17.08984375,-47.36328125,-97.16796875
23.92578125,-25.390625,-39.55078125,-53.7109375
-52.24609375,-56.640625,-17.578125,13.18359375
-108.3984375,-62.5,-13.18359375,16.6015625
-71.2890625,-35.15625,-26.85546875,-53.7109375
9.27734375,12.6953125,-38.57421875,-97.65625
46.38671875,0.48828125,-44.43359375,-72.265625
-22.4609375,-57.12890625,-38.0859375,12.20703125
-99.609375,-81.0546875,-28.3203125,38.0859375
-83.984375,-21.484375,-27.34375,-37.109375
0.0,46.875,-41.50390625,-93.26171875
39.0625,-21.484375,-47.8515625,-78.61328125
-29.296875,-109.375,-37.109375,-5.859375
-111.81640625,-90.33203125,-32.2265625,12.20703125
-106.93359375,-32.2265625,-35.64453125,-46.38671875
-22.4609375,4.8828125,-43.9453125,-98.6328125
32.2265625,-4.8828125,-47.36328125,-90.33203125
-15.13671875,-67.3828125,-28.80859375,-5.37109375
-92.28515625,-111.328125,-17.578125,31.73828125
-102.05078125,-62.98828125,-22.94921875,-15.625
-34.1796875,1.46484375,-34.1796875,-93.26171875
18.5546875,11.71875,-42.96875,-103.515625
-12.20703125,-10.25390625,-34.66796875,-13.18359375
-85.44921875,-95.21484375,-24.4140625,24.4140625
-110.3515625,-80.078125,-35.15625,-17.08984375
-33.203125,18.5546875,-59.5703125,-89.84375
25.390625,-8.30078125,-61.03515625,-115.234375
-8.30078125,-45.41015625,-40.0390625,-39.0625
-79.58984375,-61.5234375,-23.4375,13.671875
-120.60546875,-54.19921875,-26.3671875,-15.13671875
-64.94140625,-19.53125,-38.57421875,-90.8203125
4.39453125,-19.53125,-41.50390625,-110.83984375
-10.7421875,-54.6875,-42.48046875,-44.43359375
-79.58984375,-61.03515625,-35.15625,10.25390625
-122.55859375,-48.33984375,-36.62109375,-11.23046875
-69.3359375,-41.9921875,-46.875,-87.890625
16.11328125,-19.04296875,-51.7578125,-112.79296875
18.5546875,-30.76171875,-52.24609375,-54.6875
-54.19921875,-74.70703125,-34.66796875,14.16015625
-106.93359375,-44.921875,-35.15625,13.18359375
-62.98828125,-11.71875,-44.921875,-60.546875
11.71875,-15.625,-39.55078125,-94.7265625
24.4140625,-14.16015625,-34.1796875,-49.8046875
-53.7109375,-66.89453125,-25.87890625,18.06640625
-126.953125,-82.03125,-19.53125,15.625
-80.56640625,-12.20703125,-36.62109375,-61.5234375
16.11328125,53.7109375,-46.38671875,-91.30859375
42.48046875,-15.13671875,-35.15625,-52.24609375
-32.2265625,-83.49609375,-21.484375,23.4375
-105.95703125,-88.37890625,-12.6953125,38.57421875
-81.0546875,-35.15625,-16.6015625,-34.66796875
0.48828125,14.6484375,-28.80859375,-83.49609375
31.73828125,-3.90625,-36.62109375,-67.3828125
-30.2734375,-62.98828125,-30.76171875,2.9296875
-103.515625,-65.4296875,-32.71484375,26.3671875
-101.07421875,-21.484375,-39.55078125,-37.109375
-25.390625,-14.6484375,-45.41015625,-100.09765625
27.83203125,-9.27734375,-48.828125,-90.8203125
-31.73828125,-35.64453125,-30.76171875,-14.16015625
-115.72265625,-91.30859375,-19.53125,12.6953125
-116.2109375,-66.89453125,-28.3203125,-41.015625
-30.76171875,-10.25390625,-44.43359375,-109.375
27.83203125,-10.7421875,-44.43359375,-107.421875
-21.97265625,-46.38671875,-37.109375,-26.85546875
-97.16796875,-65.4296875,-28.3203125,13.671875
-110.83984375,-43.45703125,-20.5078125,-22.4609375
-41.9921875,-24.4140625,-45.41015625,-90.33203125
26.3671875,-0.48828125,-59.5703125,-92.7734375
-6.34765625,-46.38671875,-37.109375,-7.32421875
-95.21484375,-87.890625,-31.73828125,26.3671875
-128.90625,-53.7109375,-38.57421875,-11.71875
-60.05859375,-44.43359375,-40.0390625,-88.37890625
19.53125,-45.41015625,-42.48046875,-111.81640625
-1.46484375,-69.3359375,-38.0859375,-32.71484375
-87.40234375,-115.234375,-26.3671875,14.16015625
-126.46484375,-76.66015625,-25.390625,-15.13671875
-60.05859375,-23.4375,-41.9921875,-82.03125
21.484375,-20.5078125,-51.26953125,-98.6328125
18.5546875,-46.875,-49.31640625,-37.59765625
-57.6171875,-89.84375,-41.50390625,23.92578125
-90.33203125,-83.984375,-37.59765625,31.73828125
-52.24609375,-31.73828125,-45.41015625,-43.9453125
3.90625,18.06640625,-43.45703125,-96.6796875
7.32421875,-63.4765625,-37.109375,-63.96484375
-68.84765625,-106.4453125,-29.78515625,2.9296875
-132.32421875,-96.6796875,-29.296875,0.48828125
-103.515625,-88.8671875,-40.0390625,-77.63671875
-13.18359375,-18.06640625,-56.15234375,-111.81640625
3.41796875,-52.24609375,-68.359375,-85.44921875
-79.58984375,-102.05078125,-60.05859375,-14.16015625
-147.94921875,-99.609375,-43.9453125,-5.37109375
-122.0703125,-48.33984375,-46.38671875,-75.68359375
-33.69140625,-22.4609375,-65.4296875,-120.1171875
1.46484375,-38.0859375,-72.75390625,-102.5390625
-68.84765625,-71.2890625,-66.40625,-30.2734375
-137.20703125,-108.88671875,-62.5,-21.97265625
-121.58203125,-92.28515625,-65.91796875,-87.890625
-32.2265625,-33.69140625,-65.4296875,-129.8828125
20.99609375,-33.203125,-62.01171875,-113.76953125
-38.57421875,-83.984375,-61.03515625,-31.25
-115.72265625,-108.88671875,-50.78125,-1.46484375
-116.69921875,-87.40234375,-43.45703125,-63.4765625
-32.2265625,-21.484375,-54.6875,-121.58203125
25.390625,-24.90234375,-67.87109375,-113.76953125
-23.4375,-77.1484375,-60.546875,-31.25
-114.2578125,-97.65625,-50.29296875,-6.8359375
-135.25390625,-43.45703125,-49.8046875,-54.6875
-47.36328125,-15.625,-55.6640625,-109.86328125
25.87890625,-33.203125,-54.19921875,-107.421875
-6.8359375,-63.96484375,-35.64453125,-21.484375
-78.61328125,-73.2421875,-22.94921875,24.90234375
-107.421875,-48.828125,-24.90234375,-10.25390625
-37.109375,5.859375,-35.64453125,-79.58984375
35.64453125,13.18359375,-43.9453125,-97.65625
12.6953125,-16.11328125,-36.1328125,-18.5546875
-66.40625,-59.08203125,-30.76171875,33.203125
-107.91015625,-79.58984375,-30.2734375,0.9765625
-43.9453125,-7.32421875,-32.2265625,-67.3828125
40.0390625,40.52734375,-33.203125,-86.9140625
32.2265625,-35.64453125,-30.2734375,-32.2265625
-58.59375,-94.23828125,-28.3203125,15.13671875
-101.5625,-39.0625,-27.34375,-1.46484375
-43.9453125,2.9296875,-35.15625,-75.1953125
31.73828125,22.4609375,-38.57421875,-101.07421875
35.64453125,-0.9765625,-36.62109375,-49.31640625
-40.52734375,-62.98828125,-22.94921875,17.08984375
-108.3984375,-79.1015625,-13.671875,13.671875
-67.3828125,-5.859375,-24.4140625,-52.734375
16.11328125,23.4375,-36.62109375,-88.8671875
30.76171875,-15.625,-39.55078125,-51.7578125
-45.41015625,-37.59765625,-31.25,20.01953125
-116.69921875,-81.54296875,-20.5078125,22.4609375
-82.51953125,-76.171875,-24.4140625,-44.43359375
2.44140625,14.16015625,-48.828125,-93.26171875
31.25,20.99609375,-56.640625,-80.078125
-36.1328125,-34.66796875,-39.0625,-0.48828125
-112.3046875,-48.828125,-33.203125,17.578125
-95.21484375,-23.92578125,-49.31640625,-57.6171875
-12.6953125,18.06640625,-55.6640625,-101.07421875
22.4609375,5.37109375,-48.828125,-84.47265625
-33.69140625,-36.1328125,-41.015625,-6.8359375
-100.09765625,-36.1328125,-37.109375,13.671875
-91.796875,-0.48828125,-41.015625,-50.29296875
-11.71875,-5.37109375,-52.24609375,-102.5390625
41.50390625,-9.27734375,-58.10546875,-85.9375
-15.13671875,-41.9921875,-42.96875,-6.8359375
-103.515625,-104.4921875,-37.109375,17.08984375
-118.65234375,-58.59375,-34.66796875,-40.0390625
-40.0390625,12.20703125,-42.48046875,-103.515625
29.78515625,22.4609375,-51.26953125,-96.6796875
-12.20703125,-42.48046875,-34.66796875,-16.6015625
-96.6796875,-89.35546875,-20.5078125,16.6015625
-122.55859375,-57.12890625,-22.4609375,-25.390625
-46.875,9.765625,-34.66796875,-94.7265625
28.80859375,46.875,-38.57421875,-98.6328125
5.37109375,-32.2265625,-24.90234375,-13.18359375
-70.80078125,-107.91015625,-13.18359375,31.73828125
-102.05078125,-53.7109375,-19.04296875,-0.9765625
-40.0390625,4.39453125,-35.64453125,-74.21875
37.109375,16.6015625,-45.8984375,-93.75
24.4140625,-20.01953125,-39.55078125,-28.80859375
-66.89453125,-79.58984375,-36.1328125,26.85546875
-120.1171875,-64.453125,-41.9921875,7.32421875
-53.22265625,-5.37109375,-31.73828125,-65.4296875
29.296875,11.23046875,-23.4375,-89.84375
24.90234375,-16.11328125,-20.5078125,-33.203125
-53.7109375,-42.48046875,-11.71875,24.4140625
-111.328125,-87.40234375,-16.6015625,11.71875
-60.05859375,-51.26953125,-29.78515625,-60.546875
18.06640625,2.9296875,-44.43359375,-95.703125
22.94921875,-20.01953125,-44.43359375,-54.6875
-58.10546875,-54.6875,-28.3203125,16.11328125
-118.1640625,-68.359375,-21.97265625,23.92578125
-68.359375,-27.83203125,-34.66796875,-48.828125
17.08984375,36.62109375,-35.64453125,-85.44921875
44.43359375,13.18359375,-18.06640625,-48.33984375
-24.4140625,-73.73046875,-5.859375,26.3671875
-99.12109375,-74.70703125,-9.27734375,43.9453125
-72.75390625,4.8828125,-23.92578125,-25.87890625
11.71875,2.9296875,-35.64453125,-74.70703125
45.41015625,-28.3203125,-40.0390625,-52.24609375
-27.34375,-63.96484375,-33.203125,18.06640625
-106.4453125,-90.33203125,-28.80859375,31.73828125
-92.28515625,-22.94921875,-35.64453125,-33.69140625
-13.18359375,21.97265625,-41.50390625,-86.9140625
40.52734375,7.8125,-42.48046875,-70.3125
-16.11328125,-48.33984375,-30.76171875,9.765625
-100.5859375,-75.1953125,-23.4375,15.625
-98.6328125,-46.38671875,-26.85546875,-46.38671875
-13.671875,15.13671875,-35.15625,-100.09765625
43.9453125,27.83203125,-36.1328125,-105.46875
1.953125,-55.17578125,-29.296875,-27.83203125
-83.984375,-108.3984375,-30.2734375,2.9296875
-116.69921875,-78.125,-44.921875,-45.41015625
-35.15625,6.34765625,-52.734375,-110.3515625
39.0625,31.25,-41.015625,-105.46875
3.90625,-57.12890625,-32.2265625,-25.390625
-77.1484375,-89.35546875,-25.390625,11.23046875
-106.4453125,-59.08203125,-24.4140625,-18.06640625
-42.96875,-22.94921875,-35.64453125,-90.33203125
24.90234375,-8.7890625,-47.36328125,-104.98046875
12.6953125,-23.4375,-40.0390625,-20.99609375
-62.98828125,-34.66796875,-25.87890625,32.71484375
-112.3046875,-94.7265625,-30.76171875,-1.953125
-52.24609375,-47.8515625,-50.29296875,-74.70703125
25.390625,9.765625,-54.19921875,-95.703125
20.99609375,-43.45703125,-44.921875,-36.62109375
-62.5,-77.1484375,-39.0625,14.6484375
-118.1640625,-71.77734375,-39.0625,0.48828125
-66.40625,-25.87890625,-41.015625,-66.40625
19.04296875,14.16015625,-40.0390625,-92.28515625
34.1796875,-25.390625,-44.921875,-46.875
-46.38671875,-76.66015625,-40.52734375,18.5546875
-110.83984375,-87.40234375,-38.0859375,17.578125
-71.77734375,-18.06640625,-46.875,-57.6171875
8.7890625,-2.44140625,-58.59375,-102.5390625
31.25,-55.6640625,-60.05859375,-75.68359375
-41.015625,-77.1484375,-35.15625,5.37109375
-114.74609375,-76.66015625,-27.83203125,10.25390625
-87.40234375,-18.06640625,-47.8515625,-72.75390625
-5.37109375,27.83203125,-62.98828125,-110.3515625
30.76171875,-12.6953125,-55.6640625,-73.73046875
-34.66796875,-76.66015625,-37.109375,2.9296875
-113.76953125,-99.609375,-37.109375,17.578125
-98.6328125,-62.5,-59.5703125,-47.36328125
-10.7421875,5.859375,-70.3125,-98.14453125
33.203125,28.3203125,-57.6171875,-84.9609375
-31.73828125,-60.546875,-40.52734375,-5.859375
-110.3515625,-94.7265625,-29.78515625,21.97265625
-114.2578125,-38.57421875,-33.69140625,-38.0859375
-31.25,-15.625,-48.828125,-94.7265625
21.97265625,-48.828125,-60.546875,-88.37890625
-32.2265625,-66.89453125,-46.38671875,-4.8828125
-112.3046875,-87.40234375,-27.34375,25.87890625
-124.0234375,-41.015625,-29.78515625,-22.94921875
-40.0390625,26.3671875,-47.8515625,-88.37890625
22.94921875,-23.4375,-58.59375,-98.6328125
-24.4140625,-59.08203125,-46.38671875,-25.390625
-99.609375,-63.96484375,-31.73828125,7.32421875
-130.37109375,-85.9375,-38.57421875,-46.875
-64.453125,-46.38671875,-49.31640625,-123.046875
19.53125,-0.48828125,-57.12890625,-123.53515625
-8.30078125,-48.828125,-60.05859375,-52.24609375
-94.23828125,-102.5390625,-47.8515625,-8.30078125
-134.27734375,-82.51953125,-47.8515625,-32.2265625
-68.359375,-40.0390625,-61.5234375,-98.14453125
5.37109375,-3.41796875,-67.87109375,-107.421875
-9.27734375,-47.36328125,-58.10546875,-46.38671875
-84.47265625,-100.09765625,-37.109375,9.27734375
-123.53515625,-68.84765625,-31.73828125,-4.8828125
-71.2890625,-5.859375,-52.24609375,-84.9609375
10.7421875,0.48828125,-58.10546875,-111.328125
19.53125,-65.91796875,-52.734375,-56.15234375
-62.01171875,-97.16796875,-48.828125,13.18359375
-125.9765625,-88.8671875,-47.36328125,5.859375
-85.9375,-21.97265625,-60.05859375,-74.70703125
0.0,0.48828125,-62.98828125,-105.95703125
19.53125,-33.203125,-60.546875,-62.01171875
-60.546875,-85.9375,-38.57421875,5.859375
-126.46484375,-89.84375,-30.2734375,3.41796875
-87.40234375,-35.64453125,-50.29296875,-71.77734375
-4.39453125,20.01953125,-50.78125,-105.95703125
29.296875,23.4375,-43.9453125,-77.1484375
-44.43359375,-95.703125,-39.0625,-13.671875
-122.0703125,-111.81640625,-39.55078125,0.9765625
-104.4921875,-35.64453125,-56.15234375,-66.40625
-23.92578125,-24.4140625,-71.2890625,-113.28125
18.06640625,-29.296875,-65.91796875,-90.33203125
-41.015625,-62.01171875,-38.57421875,-12.20703125
-130.37109375,-106.93359375,-28.80859375,2.44140625
-131.34765625,-65.91796875,-39.55078125,-64.453125
-44.43359375,5.859375,-50.78125,-119.140625
11.71875,-13.18359375,-52.734375,-101.5625
-46.38671875,-75.1953125,-44.921875,-22.94921875
-130.859375,-82.03125,-39.55078125,0.0
-138.671875,-84.47265625,-45.8984375,-51.26953125
-58.10546875,-41.50390625,-62.98828125,-120.60546875
13.671875,-19.53125,-65.4296875,-114.2578125
-26.85546875,-70.3125,-57.6171875,-26.85546875
-106.4453125,-73.2421875,-48.33984375,6.8359375
-123.046875,-54.6875,-42.48046875,-36.1328125
-45.41015625,-39.55078125,-53.7109375,-104.00390625
23.92578125,-25.390625,-62.01171875,-115.72265625
-13.18359375,-61.03515625,-53.22265625,-35.64453125
-99.609375,-107.421875,-41.50390625,9.765625
-141.6015625,-77.63671875,-46.38671875,-25.87890625
-71.77734375,10.25390625,-61.5234375,-94.7265625
8.30078125,-21.484375,-71.2890625,-111.328125
-16.11328125,-97.65625,-66.89453125,-45.8984375
-100.09765625,-108.88671875,-50.29296875,5.37109375
-136.23046875,-75.1953125,-38.57421875,-16.6015625
-71.77734375,-27.34375,-43.45703125,-97.65625
11.71875,-11.71875,-49.31640625,-130.37109375
9.765625,-33.69140625,-51.26953125,-69.82421875
-74.21875,-63.96484375,-35.64453125,0.48828125
-128.90625,-55.17578125,-34.1796875,-8.30078125
-81.54296875,-33.203125,-54.6875,-84.9609375
-1.46484375,17.08984375,-53.7109375,-114.74609375
14.16015625,25.87890625,-48.33984375,-66.40625
-60.546875,-65.91796875,-38.57421875,8.30078125
-125.9765625,-110.3515625,-29.78515625,8.30078125
-76.171875,-35.64453125,-37.59765625,-61.5234375
24.4140625,29.78515625,-31.25,-81.54296875
31.73828125,-29.78515625,-27.83203125,-57.6171875
-54.6875,-94.7265625,-19.53125,8.30078125
-118.1640625,-84.9609375,-11.71875,30.2734375
-88.8671875,-52.24609375,-31.73828125,-44.43359375
0.48828125,8.30078125,-43.45703125,-90.33203125
38.0859375,-1.46484375,-32.2265625,-58.10546875
-34.1796875,-68.84765625,-28.3203125,11.71875
-108.3984375,-58.59375,-33.69140625,26.3671875
-104.00390625,-37.59765625,-41.50390625,-39.55078125
-31.25,-32.71484375,-59.08203125,-97.65625
24.4140625,-28.80859375,-60.05859375,-82.03125
-30.76171875,-75.68359375,-39.55078125,-4.39453125
-116.69921875,-113.28125,-26.3671875,16.11328125
-131.8359375,-70.3125,-40.52734375,-55.17578125
-47.36328125,-32.71484375,-55.17578125,-117.67578125
17.578125,-20.5078125,-53.22265625,-109.375
-32.71484375,-52.734375,-47.8515625,-27.34375
-103.02734375,-90.33203125,-38.57421875,11.71875
-109.86328125,-62.98828125,-46.875,-40.52734375
-37.59765625,-15.13671875,-62.5,-112.79296875
28.3203125,-21.484375,-60.546875,-113.76953125
-2.9296875,-50.29296875,-48.33984375,-26.85546875
-82.51953125,-50.29296875,-32.2265625,10.7421875
-118.1640625,-84.9609375,-28.80859375,-29.78515625
-54.19921875,-41.50390625,-43.45703125,-104.00390625
25.87890625,6.34765625,-50.78125,-113.28125
12.6953125,-39.0625,-50.78125,-29.296875
-62.5,-83.0078125,-43.45703125,23.92578125
-106.93359375,-68.84765625,-30.76171875,-0.9765625
-48.33984375,-14.16015625,-29.296875,-71.77734375
27.34375,11.71875,-33.203125,-92.7734375
19.53125,-0.48828125,-30.2734375,-25.390625
-63.4765625,-84.47265625,-23.92578125,31.25
-116.2109375,-81.54296875,-26.3671875,11.71875
-62.98828125,-9.27734375,-39.55078125,-63.96484375
22.4609375,22.94921875,-40.52734375,-91.796875
35.64453125,11.23046875,-36.1328125,-42.96875
-44.43359375,-60.05859375,-30.76171875,16.6015625
-113.28125,-94.23828125,-27.83203125,5.37109375
-75.68359375,-37.109375,-39.0625,-72.265625
9.27734375,10.7421875,-37.59765625,-102.5390625
33.203125,-9.27734375,-30.76171875,-57.12890625
-42.48046875,-70.3125,-28.80859375,16.11328125
-120.60546875,-57.12890625,-25.390625,18.5546875
-91.30859375,-41.50390625,-35.64453125,-57.6171875
-6.34765625,-36.1328125,-45.41015625,-94.7265625
26.85546875,-16.6015625,-37.59765625,-59.5703125
-47.36328125,-55.17578125,-39.0625,9.27734375
-120.1171875,-62.5,-33.203125,21.97265625
-98.14453125,-26.85546875,-29.296875,-47.8515625
-11.71875,-14.6484375,-46.38671875,-92.28515625
36.62109375,-3.41796875,-41.015625,-67.3828125
-25.390625,-51.26953125,-25.87890625,5.859375
-105.46875,-114.2578125,-25.390625,19.04296875
-94.23828125,-25.87890625,-31.73828125,-48.828125
-11.23046875,35.64453125,-59.08203125,-110.3515625
41.50390625,-25.390625,-70.80078125,-102.05078125
-7.32421875,-79.58984375,-55.17578125,-19.04296875
-87.890625,-107.421875,-46.38671875,12.20703125
-96.6796875,-62.01171875,-56.640625,-28.80859375
-23.92578125,8.7890625,-64.453125,-84.9609375
34.66796875,14.16015625,-56.640625,-88.37890625
-9.765625,-34.1796875,-47.36328125,-12.20703125
-88.37890625,-83.984375,-28.80859375,24.4140625
-113.28125,-74.70703125,-28.80859375,-15.625
-41.9921875,0.9765625,-43.45703125,-84.9609375
35.15625,32.2265625,-41.9921875,-94.7265625
5.859375,-11.23046875,-35.15625,-23.4375
-74.21875,-79.58984375,-27.34375,16.6015625
-102.05078125,-87.40234375,-31.25,-7.32421875
-33.203125,-33.203125,-47.8515625,-73.2421875
35.64453125,-4.8828125,-55.17578125,-99.12109375
22.4609375,-23.4375,-52.734375,-36.62109375
-51.26953125,-89.35546875,-37.59765625,17.08984375
-101.5625,-57.6171875,-28.80859375,-4.39453125
-53.7109375,14.6484375,-35.64453125,-81.54296875
22.4609375,21.484375,-41.50390625,-105.95703125
16.11328125,-39.0625,-49.31640625,-57.12890625
-63.4765625,-80.56640625,-37.109375,8.30078125
-114.2578125,-37.109375,-30.2734375,4.39453125
-70.3125,-30.76171875,-47.36328125,-73.73046875
1.46484375,-9.27734375,-51.26953125,-105.95703125
15.625,-12.6953125,-46.38671875,-64.94140625
-52.734375,-102.05078125,-41.9921875,3.90625
-112.79296875,-76.66015625,-39.0625,2.44140625
-77.63671875,-24.4140625,-47.36328125,-76.171875
2.44140625,11.23046875,-53.22265625,-105.46875
27.83203125,-6.8359375,-47.36328125,-66.40625
-40.0390625,-72.265625,-32.71484375,9.765625
-113.28125,-84.9609375,-23.92578125,18.06640625
-93.26171875,-31.25,-35.64453125,-65.91796875
-6.34765625,44.921875,-47.36328125,-106.4453125
25.87890625,-12.20703125,-47.36328125,-78.125
-43.45703125,-106.93359375,-44.921875,-5.37109375
-123.53515625,-94.7265625,-41.015625,13.671875
-114.2578125,-49.31640625,-41.9921875,-48.33984375
-30.2734375,-3.90625,-47.36328125,-104.00390625
25.390625,0.48828125,-51.7578125,-90.33203125
-34.1796875,-72.265625,-48.828125,-22.94921875
-110.83984375,-86.9140625,-38.57421875,4.39453125
-109.86328125,-50.29296875,-34.66796875,-35.64453125
-31.25,-14.16015625,-41.015625,-91.796875
28.80859375,2.9296875,-45.41015625,-89.35546875
-18.5546875,-20.99609375,-31.25,-10.25390625
-89.35546875,-95.21484375,-25.390625,20.99609375
-114.74609375,-86.9140625,-32.71484375,-32.71484375
-40.0390625,-15.13671875,-41.50390625,-92.28515625
26.85546875,9.765625,-52.734375,-91.796875
-12.20703125,-40.0390625,-52.24609375,-18.5546875
-91.30859375,-112.79296875,-41.015625,15.625
-120.1171875,-80.56640625,-37.59765625,-32.2265625
-52.734375,-5.859375,-44.43359375,-108.88671875
16.6015625,19.04296875,-53.22265625,-118.65234375
-1.46484375,-46.875,-53.22265625,-51.7578125
-71.2890625,-90.8203125,-41.9921875,2.9296875
-104.98046875,-52.24609375,-33.203125,-16.11328125
-51.26953125,-19.04296875,-41.50390625,-83.0078125
15.13671875,-23.92578125,-51.7578125,-104.4921875
7.8125,-46.875,-46.38671875,-49.8046875
-70.3125,-101.5625,-38.57421875,10.7421875
-125.0,-77.63671875,-42.48046875,-7.8125
-76.171875,-32.71484375,-47.8515625,-83.0078125
3.41796875,-11.23046875,-53.22265625,-113.28125
13.18359375,-34.66796875,-60.05859375,-63.4765625
-69.3359375,-92.28515625,-55.6640625,4.8828125
-131.34765625,-98.14453125,-52.24609375,-3.90625
-93.26171875,-27.83203125,-59.08203125,-77.1484375
-13.671875,38.57421875,-66.40625,-104.00390625
6.8359375,-60.05859375,-60.05859375,-67.3828125
-67.87109375,-144.04296875,-49.8046875,-8.30078125
-124.0234375,-109.86328125,-49.31640625,-1.46484375
-79.58984375,-46.875,-49.31640625,-55.6640625
-4.8828125,-16.11328125,-53.7109375,-103.515625
15.625,-41.50390625,-50.29296875,-95.21484375
-56.15234375,-82.03125,-34.1796875,-29.78515625
-134.27734375,-94.7265625,-35.15625,-14.6484375
-104.4921875,-42.48046875,-45.8984375,-70.3125
-21.97265625,-16.11328125,-47.8515625,-114.74609375
13.18359375,-29.78515625,-53.7109375,-101.5625
-46.875,-51.26953125,-47.8515625,-29.78515625
-125.48828125,-124.51171875,-34.66796875,-5.859375
-127.44140625,-88.8671875,-40.52734375,-58.59375
-47.36328125,-10.7421875,-47.8515625,-109.375
9.765625,-55.6640625,-51.7578125,-104.00390625
-37.109375,-90.8203125,-40.52734375,-27.34375
-117.67578125,-114.74609375,-28.80859375,1.953125
-128.41796875,-84.47265625,-27.34375,-42.96875
-47.8515625,-20.5078125,-39.0625,-99.12109375
21.484375,-17.578125,-52.24609375,-101.5625
-10.25390625,-76.66015625,-48.33984375,-24.4140625
-97.16796875,-108.3984375,-42.48046875,9.765625
-123.53515625,-56.640625,-47.8515625,-34.66796875
-45.8984375,-28.80859375,-59.08203125,-95.703125
18.5546875,-43.45703125,-55.17578125,-104.4921875
-16.11328125,-67.3828125,-42.48046875,-41.50390625
-86.9140625,-101.5625,-28.80859375,8.30078125
-128.41796875,-84.47265625,-33.203125,-20.5078125
-68.84765625,-14.6484375,-57.12890625,-96.19140625
14.6484375,-18.06640625,-56.640625,-108.88671875
1.46484375,-63.4765625,-45.41015625,-39.55078125
-76.171875,-87.890625,-34.1796875,14.16015625
-116.69921875,-65.4296875,-29.78515625,3.41796875
-63.4765625,-0.9765625,-44.43359375,-59.5703125
11.71875,13.18359375,-53.7109375,-83.0078125
12.20703125,-63.96484375,-60.546875,-32.2265625
-62.01171875,-118.65234375,-54.19921875,21.484375
-110.3515625,-92.28515625,-31.73828125,0.0
-62.5,-32.2265625,-24.90234375,-70.3125
19.53125,4.39453125,-24.4140625,-91.796875
30.76171875,-19.53125,-34.1796875,-55.17578125
-49.31640625,-74.21875,-34.66796875,12.6953125
-119.140625,-72.265625,-28.80859375,4.39453125
-83.0078125,-15.625,-33.203125,-74.70703125
-10.25390625,-22.94921875,-44.43359375,-109.375
14.6484375,-14.16015625,-53.22265625,-77.63671875
-49.31640625,-42.96875,-47.8515625,-2.9296875
-123.046875,-121.09375,-50.29296875,2.9296875
-102.05078125,-82.03125,-62.01171875,-68.84765625
-25.87890625,8.30078125,-63.96484375,-111.328125
9.27734375,-14.6484375,-53.22265625,-84.9609375
-46.875,-72.265625,-40.0390625,-7.8125
-113.76953125,-92.28515625,-34.66796875,10.7421875
-104.98046875,-54.6875,-46.875,-51.26953125
-20.5078125,-16.6015625,-57.6171875,-102.05078125
25.390625,-33.69140625,-57.6171875,-84.9609375
-27.83203125,-73.2421875,-51.7578125,-3.90625
-105.95703125,-83.984375,-48.33984375,26.3671875
-110.83984375,-27.83203125,-53.7109375,-20.01953125
-29.296875,10.7421875,-66.89453125,-94.23828125
28.3203125,-48.828125,-69.82421875,-104.98046875
-20.99609375,-104.98046875,-52.734375,-29.78515625
-89.84375,-90.8203125,-40.52734375,2.44140625
-107.421875,-72.265625,-47.36328125,-36.1328125
-41.9921875,-22.94921875,-58.59375,-95.21484375
21.97265625,-18.5546875,-53.7109375,-101.5625
-14.6484375,-68.359375,-56.640625,-41.015625
-86.9140625,-89.35546875,-55.6640625,-7.8125
-116.69921875,-80.078125,-42.48046875,-38.57421875
-62.01171875,-37.109375,-49.8046875,-104.4921875
4.8828125,6.8359375,-61.03515625,-123.046875
-17.08984375,-62.01171875,-63.96484375,-61.03515625
-93.75,-109.375,-62.5,-5.859375
-123.046875,-65.4296875,-51.26953125,-18.5546875
-67.3828125,-33.203125,-56.15234375,-86.9140625
-4.8828125,-24.4140625,-74.70703125,-110.83984375
-8.30078125,-61.5234375,-68.359375,-51.7578125
-69.82421875,-66.40625,-51.7578125,12.20703125
-109.375,-68.359375,-50.29296875,1.46484375
-64.453125,-34.66796875,-58.10546875,-77.1484375
5.37109375,-3.41796875,-62.5,-113.28125
13.18359375,-39.0625,-62.01171875,-78.61328125
-54.6875,-60.05859375,-52.734375,-9.27734375
-107.421875,-98.14453125,-42.48046875,-1.46484375
-68.359375,-61.03515625,-46.875,-71.2890625
-2.44140625,-9.765625,-52.24609375,-110.83984375
7.32421875,-30.2734375,-61.5234375,-85.44921875
-51.26953125,-34.1796875,-57.6171875,-9.765625
-107.421875,-65.91796875,-51.7578125,-0.9765625
-82.51953125,-62.01171875,-62.5,-71.2890625
-13.18359375,-10.7421875,-70.3125,-109.375
8.7890625,-27.83203125,-70.3125,-87.40234375
-50.29296875,-67.87109375,-56.640625,-18.06640625
-108.3984375,-77.1484375,-33.69140625,0.48828125
-91.796875,-5.37109375,-27.83203125,-52.24609375
-28.80859375,-7.8125,-45.8984375,-107.421875
1.953125,-53.7109375,-55.17578125,-89.84375
-48.828125,-78.125,-43.9453125,-4.39453125
-108.3984375,-79.58984375,-41.015625,19.53125
-99.12109375,-44.43359375,-46.875,-29.78515625
-26.3671875,-0.48828125,-53.22265625,-86.9140625
29.296875,-8.30078125,-51.26953125,-81.0546875
-18.06640625,-62.5,-42.48046875,-1.46484375
-88.8671875,-58.10546875,-35.15625,28.3203125
-101.07421875,-66.89453125,-32.71484375,-22.4609375
-32.71484375,-23.92578125,-36.62109375,-89.84375
29.78515625,36.62109375,-36.62109375,-102.5390625
-3.90625,-50.78125,-32.2265625,-34.66796875
-71.77734375,-111.328125,-25.390625,14.16015625
-92.28515625,-52.24609375,-35.64453125,-14.6484375
-28.3203125,3.90625,-47.36328125,-89.35546875
33.69140625,1.46484375,-49.8046875,-96.6796875
1.953125,-50.78125,-46.38671875,-22.94921875
-64.453125,-76.66015625,-30.2734375,24.90234375
-99.609375,-57.12890625,-23.4375,4.8828125
-49.8046875,5.37109375,-29.296875,-61.03515625
22.94921875,-0.9765625,-37.109375,-72.265625
5.859375,-29.296875,-39.55078125,-16.11328125
-69.3359375,-29.78515625,-34.66796875,26.85546875
-112.3046875,-58.10546875,-30.76171875,3.41796875
-63.4765625,-40.52734375,-30.76171875,-64.94140625
1.46484375,2.44140625,-36.62109375,-87.40234375
-8.30078125,-34.1796875,-43.9453125,-53.22265625
-73.73046875,-59.5703125,-31.73828125,11.71875
-113.28125,-37.59765625,-25.87890625,12.6953125
-72.265625,-30.2734375,-40.52734375,-65.91796875
0.48828125,0.0,-53.22265625,-98.14453125
20.01953125,-3.90625,-53.22265625,-65.4296875
-46.875,-72.75390625,-41.015625,-4.39453125
-105.95703125,-81.0546875,-41.015625,-1.953125
-77.63671875,12.20703125,-48.33984375,-64.94140625
-1.46484375,6.34765625,-48.828125,-91.30859375
21.484375,-37.109375,-48.828125,-62.01171875
-39.55078125,-49.31640625,-40.0390625,11.71875
-97.65625,-82.03125,-37.59765625,16.11328125
-74.70703125,-40.52734375,-34.1796875,-58.59375
-1.46484375,-5.859375,-42.48046875,-97.65625
30.2734375,-24.4140625,-58.10546875,-79.58984375
-20.99609375,-66.89453125,-38.57421875,-3.90625
-85.44921875,-79.58984375,-29.78515625,20.01953125
-86.42578125,-37.109375,-38.0859375,-41.50390625
-17.578125,10.25390625,-45.41015625,-88.37890625
30.2734375,26.3671875,-42.96875,-73.2421875
-18.06640625,-37.59765625,-34.1796875,0.9765625
-91.30859375,-93.26171875,-31.25,28.80859375
-100.5859375,-51.7578125,-28.80859375,-22.4609375
-33.203125,-25.390625,-32.71484375,-86.42578125
20.5078125,4.39453125,-37.59765625,-90.33203125
-16.6015625,-35.64453125,-38.57421875,-19.04296875
-81.54296875,-104.4921875,-32.2265625,13.18359375
-93.75,-69.3359375,-29.296875,-20.99609375
-28.3203125,-1.953125,-42.96875,-83.49609375
25.87890625,4.39453125,-51.7578125,-92.28515625
-7.8125,-27.34375,-50.29296875,-16.6015625
-73.2421875,-33.69140625,-37.109375,28.80859375
-105.46875,-48.828125,-27.34375,-7.32421875
-53.22265625,-26.3671875,-39.0625,-74.70703125
9.765625,0.0,-45.8984375,-90.33203125
-2.44140625,-33.203125,-41.50390625,-35.64453125
-75.1953125,-90.8203125,-40.0390625,11.23046875
-114.74609375,-67.3828125,-44.43359375,-3.41796875
-59.5703125,-33.69140625,-52.24609375,-74.21875
14.6484375,-10.25390625,-49.8046875,-95.21484375
16.6015625,-36.62109375,-45.41015625,-42.96875
-58.59375,-114.74609375,-45.41015625,6.34765625
-102.05078125,-65.91796875,-37.59765625,-6.8359375
-62.5,30.2734375,-40.0390625,-71.2890625
3.41796875,0.0,-51.7578125,-103.515625
2.9296875,-53.7109375,-55.6640625,-75.1953125
-67.87109375,-63.96484375,-41.015625,-7.8125
-124.0234375,-94.7265625,-44.921875,-11.71875
-93.75,-54.6875,-57.12890625,-83.984375
-13.18359375,-9.27734375,-60.05859375,-109.86328125
11.23046875,-29.296875,-64.453125,-73.73046875
-60.546875,-83.49609375,-55.17578125,-5.859375
-127.44140625,-82.03125,-46.38671875,6.8359375
-103.515625,-47.36328125,-47.36328125,-53.7109375
-25.390625,9.765625,-59.08203125,-107.91015625
3.41796875,20.5078125,-63.96484375,-104.98046875
-70.80078125,-53.22265625,-60.05859375,-39.55078125
-133.7890625,-123.53515625,-60.546875,-18.06640625
-110.3515625,-82.51953125,-62.98828125,-69.3359375
-34.1796875,4.8828125,-71.2890625,-117.67578125
1.46484375,-15.13671875,-79.1015625,-104.00390625
-49.8046875,-86.42578125,-71.77734375,-35.64453125
-123.53515625,-116.2109375,-56.15234375,-18.06640625
-126.46484375,-76.171875,-57.6171875,-63.4765625
-45.41015625,-14.6484375,-68.84765625,-112.79296875
10.25390625,-10.25390625,-68.359375,-108.88671875
-40.52734375,-76.66015625,-57.12890625,-41.50390625
-107.421875,-61.03515625,-45.8984375,-8.30078125
-117.1875,-70.80078125,-48.828125,-48.828125
-46.38671875,-40.0390625,-59.08203125,-113.28125
22.4609375,-0.9765625,-60.05859375,-110.83984375
-8.7890625,-56.640625,-50.29296875,-33.69140625
-83.49609375,-84.9609375,-37.109375,1.953125
-114.2578125,-83.0078125,-45.41015625,-29.296875
-44.921875,-23.92578125,-62.98828125,-93.26171875
25.390625,-4.8828125,-55.6640625,-104.98046875
7.8125,-50.78125,-51.7578125,-40.0390625
-68.84765625,-91.30859375,-43.9453125,-4.39453125
-107.91015625,-74.21875,-28.3203125,-26.3671875
-58.10546875,4.39453125,-40.0390625,-86.42578125
13.18359375,27.83203125,-49.8046875,-100.5859375
7.32421875,-54.6875,-46.875,-45.41015625
-72.265625,-103.02734375,-41.50390625,3.41796875
-121.09375,-101.5625,-42.96875,-10.25390625
-62.01171875,-9.27734375,-43.45703125,-66.89453125
13.18359375,23.4375,-49.31640625,-86.42578125
13.671875,-43.45703125,-48.33984375,-46.38671875
-60.05859375,-91.30859375,-33.69140625,9.27734375
-127.44140625,-102.5390625,-37.59765625,-2.44140625
-87.890625,-50.29296875,-53.7109375,-77.1484375
-9.765625,6.34765625,-61.03515625,-111.328125
14.16015625,-17.08984375,-57.12890625,-78.125
-57.12890625,-116.2109375,-48.33984375,-6.8359375
-130.37109375,-120.60546875,-54.6875,-4.8828125
-104.4921875,-46.38671875,-60.546875,-76.66015625
-22.4609375,-13.18359375,-55.17578125,-104.00390625
11.23046875,-43.45703125,-56.640625,-73.73046875
-51.26953125,-72.265625,-47.36328125,-7.8125
-120.1171875,-104.98046875,-47.8515625,-6.34765625
-104.4921875,-47.36328125,-61.5234375,-72.75390625
-22.4609375,24.90234375,-62.01171875,-114.74609375
19.04296875,-33.203125,-62.5,-96.19140625
-44.43359375,-99.609375,-63.4765625,-22.94921875
-111.81640625,-60.546875,-61.5234375,-4.39453125
-102.05078125,-62.5,-57.6171875,-53.7109375
-22.94921875,-43.45703125,-58.10546875,-102.5390625
27.83203125,-15.625,-63.4765625,-98.6328125
-22.94921875,-63.4765625,-57.6171875,-26.3671875
-88.37890625,-92.28515625,-44.43359375,7.32421875
-109.86328125,-74.70703125,-51.26953125,-42.96875
-41.015625,0.48828125,-70.3125,-103.02734375
24.4140625,6.34765625,-71.77734375,-104.4921875
-16.6015625,-48.33984375,-64.94140625,-41.9921875
-100.09765625,-101.07421875,-57.12890625,-11.23046875
-133.30078125,-78.61328125,-57.6171875,-39.0625
-63.96484375,4.8828125,-59.08203125,-102.05078125
14.16015625,-4.39453125,-58.59375,-116.69921875
-18.5546875,-95.703125,-57.12890625,-57.6171875
-108.3984375,-135.25390625,-60.546875,-28.3203125
-145.01953125,-87.40234375,-60.546875,-49.8046875
-77.63671875,-27.83203125,-58.59375,-95.703125
7.8125,-13.18359375,-61.03515625,-106.4453125
-7.8125,-46.875,-57.6171875,-55.6640625
-87.40234375,-94.7265625,-52.734375,-9.27734375
-127.44140625,-86.9140625,-50.29296875,-30.76171875
