TP9,AF7,AF8,TP10
-74.21875,-46.38671875,-57.6171875,-63.96484375
-0.9765625,-7.8125,-42.96875,-17.578125
9.765625,-16.11328125,-45.8984375,-20.99609375
-54.6875,-53.22265625,-61.03515625,-70.80078125
-111.81640625,-77.1484375,-74.70703125,-101.5625
-55.17578125,-37.109375,-62.98828125,-50.29296875
8.7890625,-4.8828125,-34.1796875,0.48828125
-12.6953125,-17.08984375,-26.85546875,-19.53125
-71.77734375,-60.05859375,-46.875,-70.3125
-132.32421875,-96.6796875,-60.05859375,-102.05078125
-116.2109375,-69.82421875,-40.52734375,-76.66015625
-47.36328125,-25.87890625,-17.08984375,-31.73828125
-16.11328125,-22.94921875,-22.94921875,-18.5546875
-63.96484375,-57.6171875,-47.36328125,-60.05859375
-127.44140625,-88.37890625,-64.94140625,-101.07421875
-108.88671875,-74.21875,-56.640625,-89.35546875
-23.92578125,-23.92578125,-35.15625,-25.390625
7.8125,-1.953125,-30.76171875,0.0
-42.96875,-40.0390625,-50.78125,-49.31640625
-111.81640625,-85.9375,-69.82421875,-89.84375
-114.2578125,-68.84765625,-61.5234375,-78.61328125
-34.66796875,-15.13671875,-31.73828125,-25.390625
15.625,0.9765625,-20.01953125,4.39453125
-22.4609375,-35.15625,-43.9453125,-34.1796875
-94.7265625,-81.0546875,-70.3125,-83.49609375
-117.1875,-83.0078125,-65.4296875,-93.26171875
-42.48046875,-31.25,-41.50390625,-43.45703125
19.53125,3.90625,-27.83203125,-7.32421875
-12.6953125,-28.3203125,-35.15625,-26.85546875
-83.984375,-64.94140625,-53.22265625,-68.84765625
-125.9765625,-74.70703125,-59.5703125,-85.44921875
-56.640625,-37.109375,-33.203125,-29.78515625
17.08984375,-1.46484375,-18.06640625,16.6015625
-7.8125,-26.3671875,-35.64453125,-13.671875
-77.63671875,-64.94140625,-54.6875,-67.3828125
-113.76953125,-74.21875,-54.6875,-86.42578125
-49.31640625,-29.78515625,-36.62109375,-46.38671875
20.5078125,6.34765625,-27.83203125,-1.953125
11.23046875,-9.765625,-36.1328125,-12.6953125
-54.6875,-59.08203125,-57.12890625,-66.40625
-110.3515625,-78.61328125,-66.89453125,-98.14453125
-63.96484375,-29.78515625,-45.8984375,-56.640625
17.578125,0.0,-24.4140625,-0.9765625
18.5546875,-16.6015625,-30.76171875,-6.8359375
-56.15234375,-50.78125,-55.17578125,-60.05859375
-115.234375,-78.125,-67.3828125,-92.28515625
-75.1953125,-50.29296875,-50.29296875,-57.12890625
8.30078125,-5.37109375,-34.66796875,-1.46484375
20.01953125,-3.90625,-40.52734375,-3.41796875
-50.29296875,-48.33984375,-68.359375,-58.10546875
-109.86328125,-77.63671875,-78.125,-86.9140625
-81.0546875,-48.828125,-57.12890625,-63.4765625
1.953125,-7.8125,-39.0625,-10.7421875
28.80859375,4.39453125,-33.69140625,9.27734375
-40.0390625,-36.1328125,-56.640625,-44.43359375
-110.83984375,-79.1015625,-77.1484375,-83.984375
-95.21484375,-61.03515625,-61.03515625,-65.4296875
-31.25,-17.08984375,-39.55078125,-34.1796875
-8.7890625,-10.25390625,-45.41015625,-28.3203125
-62.5,-47.8515625,-58.10546875,-70.3125
-137.20703125,-86.42578125,-66.40625,-123.53515625
-142.578125,-78.61328125,-65.4296875,-126.953125
-62.5,-29.296875,-41.015625,-75.1953125
-6.8359375,-2.44140625,-31.73828125,-43.45703125
-47.36328125,-31.73828125,-50.29296875,-77.63671875
-114.2578125,-63.96484375,-59.5703125,-115.234375
-121.09375,-64.94140625,-55.17578125,-107.91015625
-45.41015625,-27.83203125,-42.96875,-58.10546875
8.30078125,-1.953125,-36.62109375,-27.83203125
-14.16015625,-26.85546875,-42.96875,-36.62109375
-79.58984375,-65.91796875,-59.5703125,-70.80078125
-119.62890625,-76.171875,-74.70703125,-93.75
-49.8046875,-28.3203125,-51.7578125,-41.50390625
19.04296875,3.90625,-25.87890625,3.90625
-11.23046875,-25.390625,-38.0859375,-18.06640625
-85.9375,-66.89453125,-59.08203125,-62.01171875
-129.39453125,-75.1953125,-61.5234375,-81.0546875
-50.78125,-23.4375,-34.1796875,-27.83203125
27.34375,7.8125,-22.4609375,12.20703125
-3.41796875,-22.94921875,-41.50390625,-20.01953125
-76.66015625,-69.3359375,-58.59375,-67.3828125
-117.1875,-78.125,-56.640625,-82.51953125
-65.91796875,-31.73828125,-40.52734375,-52.734375
3.41796875,3.41796875,-36.62109375,-29.78515625
9.765625,-9.27734375,-34.66796875,-27.34375
-54.6875,-50.29296875,-43.45703125,-65.4296875
-121.58203125,-77.1484375,-63.4765625,-108.88671875
-83.49609375,-44.921875,-52.734375,-74.70703125
0.0,-3.41796875,-33.69140625,-22.4609375
13.671875,-3.41796875,-35.64453125,-11.71875
-59.08203125,-56.640625,-59.5703125,-55.17578125
-120.1171875,-86.42578125,-68.84765625,-87.40234375
-68.359375,-42.48046875,-35.64453125,-43.9453125
10.7421875,2.9296875,-14.6484375,8.30078125
10.25390625,-9.27734375,-30.2734375,-4.39453125
-55.6640625,-54.19921875,-53.22265625,-56.640625
-122.55859375,-83.49609375,-67.3828125,-90.33203125
-102.5390625,-64.453125,-56.640625,-71.77734375
-16.6015625,-17.578125,-40.52734375,-23.92578125
16.11328125,-15.625,-40.52734375,-11.71875
-33.69140625,-53.7109375,-55.6640625,-48.828125
-96.19140625,-76.66015625,-68.84765625,-85.44921875
-91.30859375,-66.40625,-63.96484375,-77.1484375
-13.671875,-26.3671875,-45.8984375,-27.34375
36.1328125,1.953125,-29.78515625,1.953125
-17.578125,-33.203125,-48.828125,-33.69140625
-94.7265625,-77.1484375,-76.171875,-76.66015625
-102.5390625,-63.4765625,-63.4765625,-73.73046875
-21.97265625,-16.11328125,-34.66796875,-18.5546875
28.80859375,-1.46484375,-29.78515625,6.34765625
-23.92578125,-38.0859375,-48.33984375,-36.1328125
-96.6796875,-67.87109375,-64.453125,-76.66015625
-116.69921875,-67.3828125,-62.5,-85.9375
-36.62109375,-18.06640625,-38.57421875,-41.015625
26.3671875,13.18359375,-21.97265625,-9.27734375
-7.8125,-23.4375,-34.1796875,-35.64453125
-73.2421875,-66.89453125,-46.875,-74.70703125
-122.55859375,-78.61328125,-63.96484375,-108.3984375
-57.12890625,-37.59765625,-52.734375,-67.87109375
18.5546875,0.48828125,-34.66796875,-15.625
-12.20703125,-23.92578125,-48.828125,-36.1328125
-86.9140625,-69.3359375,-67.3828125,-74.21875
-117.1875,-80.56640625,-67.87109375,-83.984375
-48.33984375,-42.48046875,-44.43359375,-42.48046875
20.5078125,-1.46484375,-28.3203125,2.44140625
3.41796875,-11.71875,-38.57421875,-8.30078125
-68.359375,-58.59375,-61.5234375,-57.12890625
-122.55859375,-88.8671875,-65.4296875,-83.984375
-72.75390625,-45.8984375,-43.45703125,-45.8984375
8.7890625,-7.32421875,-27.83203125,-1.46484375
13.18359375,-20.5078125,-34.66796875,-6.34765625
-40.0390625,-50.29296875,-38.0859375,-37.59765625
-106.4453125,-80.56640625,-56.640625,-73.73046875
-85.9375,-56.640625,-62.5,-66.40625
0.48828125,-9.765625,-42.48046875,-24.4140625
16.6015625,-13.671875,-43.9453125,-20.5078125
-49.8046875,-61.5234375,-61.5234375,-66.89453125
-110.83984375,-81.54296875,-76.66015625,-99.609375
-78.61328125,-50.78125,-61.5234375,-70.80078125
-0.48828125,-18.5546875,-40.52734375,-24.4140625
25.390625,-6.8359375,-32.71484375,-13.18359375
-38.57421875,-51.26953125,-56.15234375,-60.05859375
-94.23828125,-70.80078125,-59.5703125,-80.078125
-69.82421875,-34.66796875,-33.69140625,-47.8515625
-7.8125,-6.8359375,-35.15625,-23.4375
25.87890625,1.953125,-37.109375,-13.671875
-27.34375,-36.1328125,-52.24609375,-49.31640625
-100.09765625,-75.1953125,-71.2890625,-95.21484375
-110.3515625,-67.87109375,-74.21875,-95.703125
-33.203125,-7.8125,-51.7578125,-41.015625
30.2734375,26.3671875,-22.4609375,2.44140625
-20.99609375,-23.4375,-40.52734375,-41.50390625
-108.88671875,-70.80078125,-71.2890625,-98.6328125
-125.0,-66.89453125,-64.94140625,-101.5625
-42.48046875,-23.4375,-41.015625,-46.38671875
20.01953125,6.8359375,-35.64453125,-8.30078125
-21.97265625,-28.80859375,-53.22265625,-48.828125
-97.65625,-84.47265625,-66.40625,-87.890625
-129.8828125,-87.40234375,-65.4296875,-93.75
-57.6171875,-38.0859375,-45.41015625,-51.26953125
6.8359375,-11.23046875,-32.2265625,-13.671875
-9.765625,-15.13671875,-28.3203125,-21.484375
-64.453125,-42.48046875,-27.34375,-42.48046875
-125.0,-75.68359375,-47.8515625,-76.171875
-75.1953125,-44.921875,-45.41015625,-60.546875
1.46484375,-9.765625,-38.57421875,-27.34375
-14.6484375,-31.25,-51.26953125,-42.48046875
-89.84375,-72.265625,-66.40625,-88.37890625
-140.13671875,-87.890625,-70.3125,-112.3046875
-82.03125,-44.921875,-52.734375,-78.125
-7.8125,-6.8359375,-38.57421875,-38.57421875
-23.4375,-29.78515625,-43.45703125,-54.19921875
-98.6328125,-65.91796875,-61.03515625,-100.09765625
-158.69140625,-66.89453125,-68.359375,-126.46484375
-123.046875,-27.83203125,-52.24609375,-99.12109375
-51.7578125,-2.44140625,-38.0859375,-62.5
-59.5703125,-14.6484375,-43.45703125,-74.21875
-114.74609375,-33.203125,-46.38671875,-103.515625
-190.4296875,-58.10546875,-59.5703125,-150.87890625
-187.98828125,-42.96875,-60.05859375,-162.109375
-102.05078125,3.41796875,-38.0859375,-116.69921875
-84.9609375,9.765625,-41.50390625,-117.67578125
-146.97265625,-25.390625,-60.546875,-168.45703125
-221.6796875,-60.546875,-66.89453125,-201.66015625
-207.03125,-32.71484375,-48.828125,-185.05859375
-115.72265625,20.01953125,-33.203125,-134.765625
-88.37890625,11.23046875,-41.015625,-124.0234375
-142.578125,-32.71484375,-54.19921875,-162.59765625
-203.125,-62.5,-59.08203125,-191.40625
-206.54296875,-61.5234375,-51.26953125,-185.05859375
-118.1640625,-10.25390625,-30.76171875,-134.765625
-64.94140625,19.04296875,-25.87890625,-107.421875
-111.81640625,-21.484375,-39.0625,-132.8125
-182.12890625,-61.03515625,-54.19921875,-160.15625
-193.359375,-46.875,-52.24609375,-161.1328125
-105.95703125,0.0,-35.64453125,-109.375
-43.9453125,19.04296875,-31.25,-72.75390625
-83.0078125,-13.671875,-46.875,-100.5859375
-155.2734375,-65.91796875,-70.3125,-139.16015625
-162.109375,-68.84765625,-72.265625,-130.859375
-60.05859375,-7.32421875,-36.1328125,-62.01171875
0.9765625,11.23046875,-25.87890625,-32.2265625
-37.109375,-33.69140625,-51.26953125,-60.546875
-106.4453125,-76.171875,-66.89453125,-95.21484375
-140.13671875,-90.8203125,-68.84765625,-110.3515625
-57.12890625,-43.9453125,-48.828125,-63.4765625
23.4375,-2.44140625,-35.15625,-15.13671875
4.39453125,-33.203125,-46.38671875,-26.85546875
-65.91796875,-83.984375,-60.05859375,-64.94140625
-107.421875,-93.26171875,-64.453125,-83.984375
-42.48046875,-58.10546875,-43.45703125,-45.41015625
35.15625,-24.90234375,-23.4375,5.859375
26.85546875,-27.34375,-30.76171875,9.765625
-56.15234375,-74.70703125,-58.10546875,-39.0625
-112.79296875,-101.07421875,-65.91796875,-64.453125
-47.36328125,-56.15234375,-46.875,-20.5078125
56.15234375,-12.6953125,-28.80859375,35.15625
61.03515625,-21.484375,-32.2265625,39.0625
-19.53125,-64.94140625,-58.10546875,-1.953125
-78.61328125,-104.00390625,-70.80078125,-34.1796875
-30.76171875,-72.265625,-49.8046875,-10.25390625
54.6875,-20.01953125,-28.80859375,35.15625
61.5234375,-26.3671875,-35.64453125,30.2734375
-13.671875,-77.63671875,-61.5234375,-22.4609375
-77.1484375,-103.02734375,-73.2421875,-50.29296875
-41.50390625,-62.5,-60.546875,-18.5546875
52.24609375,-6.34765625,-41.9921875,33.69140625
74.70703125,-3.90625,-41.50390625,41.015625
-1.953125,-59.5703125,-60.05859375,-2.44140625
-78.125,-93.75,-67.3828125,-32.71484375
-66.40625,-67.3828125,-56.15234375,-21.484375
17.578125,-16.6015625,-38.57421875,14.6484375
57.12890625,-2.9296875,-35.15625,24.90234375
-0.9765625,-38.57421875,-54.6875,-13.18359375
-79.58984375,-74.70703125,-72.265625,-46.875
-83.0078125,-75.68359375,-61.5234375,-44.43359375
6.34765625,-35.15625,-43.9453125,-7.32421875
55.6640625,-12.6953125,-42.96875,16.11328125
4.8828125,-45.41015625,-56.15234375,-10.7421875
-76.171875,-87.40234375,-74.70703125,-50.29296875
-90.33203125,-82.51953125,-71.2890625,-53.22265625
1.46484375,-31.73828125,-48.33984375,-6.34765625
57.6171875,-8.30078125,-37.59765625,15.13671875
11.23046875,-37.109375,-47.36328125,-16.11328125
-63.96484375,-70.80078125,-64.94140625,-46.38671875
-95.703125,-71.77734375,-69.3359375,-52.24609375
-8.7890625,-28.3203125,-40.0390625,-2.44140625
65.4296875,2.44140625,-21.484375,33.203125
21.97265625,-25.87890625,-45.41015625,1.46484375
-58.59375,-75.68359375,-67.3828125,-44.921875
-94.23828125,-84.47265625,-68.84765625,-57.12890625
-10.7421875,-30.76171875,-59.5703125,-12.20703125
71.77734375,3.90625,-42.96875,28.80859375
35.15625,-20.5078125,-38.57421875,9.765625
-62.01171875,-62.5,-48.828125,-40.52734375
-123.53515625,-81.54296875,-52.734375,-69.82421875
-70.80078125,-53.22265625,-42.96875,-48.828125
21.97265625,-10.25390625,-20.5078125,1.46484375
17.578125,-24.4140625,-16.6015625,1.46484375
-76.66015625,-90.33203125,-40.52734375,-53.22265625
-125.0,-106.4453125,-46.38671875,-71.77734375
-69.3359375,-58.10546875,-28.3203125,-44.921875
8.30078125,-14.16015625,-12.20703125,-16.11328125
20.99609375,-16.11328125,-14.6484375,-14.16015625
-45.8984375,-67.87109375,-41.9921875,-49.8046875
-103.515625,-99.12109375,-50.29296875,-66.89453125
-67.87109375,-69.3359375,-38.57421875,-48.33984375
12.6953125,-22.94921875,-26.3671875,-15.13671875
33.203125,-12.20703125,-18.5546875,-1.46484375
-38.57421875,-46.38671875,-34.1796875,-34.66796875
-113.76953125,-84.9609375,-51.7578125,-64.453125
-93.26171875,-68.84765625,-44.43359375,-51.7578125
0.48828125,-19.53125,-28.3203125,-12.6953125
47.36328125,-3.41796875,-17.08984375,9.765625
-18.06640625,-44.43359375,-33.69140625,-28.80859375
-102.05078125,-83.49609375,-56.15234375,-69.3359375
-98.6328125,-69.82421875,-51.26953125,-63.96484375
-8.30078125,-21.484375,-35.64453125,-29.78515625
37.109375,-2.44140625,-31.73828125,-10.7421875
-26.3671875,-46.38671875,-50.78125,-41.9921875
-101.07421875,-86.9140625,-66.89453125,-76.171875
-102.5390625,-73.2421875,-61.03515625,-75.68359375
-14.16015625,-22.94921875,-44.43359375,-31.73828125
37.109375,-2.9296875,-41.9921875,-7.8125
-6.34765625,-26.85546875,-46.38671875,-32.71484375
-78.61328125,-62.01171875,-49.8046875,-60.546875
-114.74609375,-69.3359375,-55.6640625,-73.2421875
-39.0625,-21.484375,-39.55078125,-37.59765625
23.92578125,2.9296875,-29.78515625,-13.671875
-19.53125,-36.62109375,-46.38671875,-34.66796875
-102.05078125,-79.58984375,-67.87109375,-71.77734375
-135.7421875,-81.0546875,-67.87109375,-87.40234375
-53.7109375,-28.80859375,-44.921875,-46.38671875
24.4140625,7.32421875,-32.71484375,-17.08984375
-0.9765625,-16.11328125,-41.50390625,-29.78515625
-79.58984375,-69.3359375,-61.03515625,-62.01171875
-98.6328125,-74.70703125,-48.33984375,-57.12890625
-22.94921875,-24.4140625,-29.78515625,-24.90234375
41.9921875,4.8828125,-35.64453125,-16.11328125
29.296875,-8.30078125,-44.43359375,-25.87890625
-54.6875,-57.12890625,-64.453125,-65.91796875
-111.81640625,-80.078125,-74.21875,-90.8203125
-55.17578125,-37.109375,-58.59375,-57.6171875
27.34375,5.37109375,-44.921875,-21.97265625
27.83203125,-2.9296875,-45.8984375,-24.90234375
-48.828125,-51.7578125,-61.03515625,-54.6875
-118.1640625,-96.19140625,-76.66015625,-79.58984375
-74.70703125,-60.546875,-55.17578125,-54.6875
27.34375,4.39453125,-22.94921875,-2.44140625
23.4375,-13.18359375,-35.15625,-11.71875
-62.01171875,-70.80078125,-61.03515625,-59.5703125
-120.1171875,-93.26171875,-61.5234375,-77.63671875
-95.21484375,-59.08203125,-51.26953125,-64.453125
-4.8828125,-16.11328125,-45.41015625,-29.78515625
30.2734375,-9.765625,-44.43359375,-16.11328125
-43.9453125,-48.33984375,-57.6171875,-50.29296875
-124.0234375,-79.1015625,-68.359375,-85.9375
-112.79296875,-56.640625,-58.10546875,-83.0078125
-28.3203125,-15.13671875,-40.0390625,-41.50390625
20.5078125,3.90625,-25.390625,-15.13671875
-35.64453125,-34.1796875,-42.96875,-45.8984375
-125.9765625,-82.51953125,-71.77734375,-86.9140625
-132.32421875,-69.82421875,-62.01171875,-83.984375
-24.4140625,-12.20703125,-30.2734375,-31.25
41.015625,1.46484375,-22.4609375,-1.953125
-18.5546875,-38.57421875,-50.29296875,-31.73828125
-96.19140625,-69.82421875,-63.96484375,-61.5234375
-107.421875,-71.77734375,-60.05859375,-66.40625
-27.34375,-22.94921875,-43.9453125,-27.34375
31.73828125,17.578125,-30.76171875,-3.41796875
-10.25390625,-24.4140625,-42.96875,-27.34375
-83.984375,-73.2421875,-53.22265625,-50.29296875
-120.60546875,-74.21875,-58.59375,-67.3828125
-47.8515625,-28.80859375,-39.0625,-35.15625
29.78515625,7.32421875,-20.01953125,-1.46484375
-5.859375,-17.08984375,-32.2265625,-23.92578125
-96.6796875,-62.98828125,-49.8046875,-64.94140625
-145.99609375,-83.0078125,-58.10546875,-89.35546875
-69.82421875,-40.52734375,-41.015625,-59.08203125
5.859375,-5.859375,-28.80859375,-35.15625
-23.4375,-31.25,-40.52734375,-56.640625
-109.375,-68.84765625,-57.12890625,-94.23828125
-165.0390625,-87.890625,-61.03515625,-110.83984375
-112.3046875,-50.29296875,-41.9921875,-89.35546875
-36.62109375,-2.9296875,-29.296875,-66.89453125
-39.55078125,-16.6015625,-29.78515625,-64.453125
-143.06640625,-72.75390625,-40.0390625,-116.2109375
-227.05078125,-99.609375,-43.9453125,-162.109375
-171.875,-48.33984375,-26.3671875,-135.7421875
-93.26171875,-5.37109375,-14.16015625,-112.79296875
-100.5859375,-22.94921875,-17.08984375,-127.44140625
-179.6875,-64.94140625,-33.69140625,-168.9453125
-237.3046875,-83.984375,-42.48046875,-189.453125
-205.56640625,-48.33984375,-37.109375,-181.640625
-134.27734375,-10.7421875,-31.25,-169.921875
-93.75,-3.41796875,-16.6015625,-150.390625
-157.2265625,-39.55078125,-26.85546875,-177.734375
-234.375,-74.70703125,-52.734375,-204.58984375
-218.26171875,-56.15234375,-53.22265625,-199.70703125
-127.9296875,-6.8359375,-21.484375,-154.296875
-90.33203125,8.30078125,-11.23046875,-131.8359375
-152.83203125,-31.25,-31.25,-166.9921875
-231.4453125,-68.359375,-46.875,-197.265625
-220.21484375,-50.29296875,-44.921875,-191.89453125
-115.72265625,-0.48828125,-27.83203125,-144.53125
-67.3828125,18.06640625,-25.87890625,-127.44140625
-125.48828125,-24.4140625,-49.8046875,-157.2265625
-193.84765625,-66.40625,-65.91796875,-173.33984375
-191.40625,-49.8046875,-61.5234375,-164.55078125
-108.3984375,-0.48828125,-58.59375,-136.23046875
-42.48046875,25.87890625,-51.7578125,-109.375
-71.77734375,1.953125,-54.19921875,-115.72265625
-149.90234375,-41.015625,-72.75390625,-144.53125
-166.015625,-41.015625,-77.1484375,-143.06640625
-78.125,12.6953125,-63.96484375,-107.91015625
-11.71875,42.48046875,-58.10546875,-89.84375
-42.48046875,9.27734375,-73.2421875,-99.12109375
-109.86328125,-30.76171875,-83.49609375,-117.67578125
-141.11328125,-35.64453125,-87.40234375,-123.046875
-64.94140625,9.765625,-71.77734375,-93.26171875
4.8828125,32.2265625,-65.91796875,-73.2421875
-24.90234375,-1.953125,-90.33203125,-85.44921875
-83.984375,-27.34375,-98.14453125,-98.14453125
-128.41796875,-36.62109375,-88.8671875,-101.07421875
-80.078125,-12.20703125,-69.3359375,-77.1484375
-4.39453125,22.4609375,-57.6171875,-50.78125
-6.8359375,17.578125,-61.5234375,-48.33984375
-77.1484375,-35.64453125,-77.1484375,-66.89453125
-128.41796875,-62.98828125,-87.40234375,-85.9375
-57.6171875,-17.578125,-77.1484375,-54.19921875
46.875,19.53125,-60.05859375,-3.41796875
60.546875,-3.90625,-62.5,-1.953125
-8.7890625,-61.03515625,-75.68359375,-23.92578125
-77.1484375,-91.796875,-76.171875,-36.62109375
-37.109375,-62.01171875,-63.96484375,-16.11328125
62.01171875,-23.4375,-48.33984375,21.97265625
85.44921875,-16.6015625,-44.43359375,34.1796875
-0.48828125,-65.91796875,-56.640625,0.9765625
-72.75390625,-104.4921875,-67.3828125,-17.08984375
-32.2265625,-80.56640625,-56.15234375,5.37109375
57.12890625,-32.2265625,-36.62109375,35.64453125
92.7734375,-12.6953125,-35.15625,44.43359375
28.80859375,-61.5234375,-54.19921875,12.6953125
-38.57421875,-100.09765625,-66.89453125,-8.7890625
-15.13671875,-78.125,-55.17578125,4.8828125
65.4296875,-27.34375,-36.62109375,37.109375
99.12109375,-7.32421875,-33.203125,46.38671875
36.62109375,-49.8046875,-53.7109375,16.11328125
-44.921875,-90.33203125,-71.77734375,-8.30078125
-48.828125,-83.49609375,-66.40625,-8.7890625
43.9453125,-32.71484375,-42.96875,24.90234375
104.00390625,-3.41796875,-32.2265625,49.8046875
51.7578125,-44.43359375,-49.8046875,23.4375
-27.34375,-84.9609375,-62.98828125,0.0
-49.8046875,-86.42578125,-63.4765625,-8.30078125
57.6171875,-38.0859375,-28.3203125,43.9453125
129.8828125,-0.9765625,-11.71875,78.125
57.12890625,-40.52734375,-50.29296875,32.71484375
-21.484375,-89.84375,-66.40625,1.953125
-51.7578125,-96.19140625,-63.96484375,-4.8828125
24.4140625,-41.015625,-48.828125,25.87890625
97.16796875,-5.37109375,-41.015625,52.24609375
65.91796875,-29.296875,-45.41015625,40.0390625
-15.625,-69.82421875,-58.59375,3.90625
-69.3359375,-93.26171875,-73.2421875,-17.08984375
-9.765625,-49.8046875,-57.12890625,5.859375
73.73046875,-6.8359375,-37.109375,37.59765625
67.3828125,-25.87890625,-35.15625,39.55078125
-17.08984375,-65.91796875,-53.7109375,7.32421875
-83.984375,-91.796875,-67.3828125,-13.18359375
-17.08984375,-48.33984375,-45.8984375,15.625
72.265625,2.9296875,-28.3203125,48.33984375
57.12890625,-9.765625,-42.96875,33.203125
-26.85546875,-58.59375,-65.91796875,-10.7421875
-90.33203125,-87.890625,-70.80078125,-31.73828125
-47.36328125,-53.22265625,-56.640625,-17.578125
36.62109375,-7.8125,-41.015625,6.34765625
43.9453125,-5.859375,-42.48046875,9.765625
-22.94921875,-49.8046875,-52.24609375,-9.27734375
-94.7265625,-80.56640625,-60.05859375,-34.66796875
-76.66015625,-53.7109375,-58.10546875,-41.50390625
13.18359375,-14.6484375,-43.45703125,-17.578125
44.43359375,-1.46484375,-41.015625,-6.34765625
-18.5546875,-38.57421875,-61.03515625,-30.2734375
-92.7734375,-80.56640625,-74.70703125,-59.5703125
-73.2421875,-57.12890625,-56.15234375,-51.7578125
18.5546875,-2.44140625,-33.69140625,-12.6953125
47.36328125,4.8828125,-39.55078125,-9.765625
-23.92578125,-48.828125,-64.453125,-49.31640625
-87.40234375,-69.82421875,-65.91796875,-56.640625
-75.1953125,-42.96875,-43.45703125,-39.0625
-10.7421875,-17.08984375,-40.52734375,-23.4375
36.1328125,0.48828125,-38.0859375,-5.859375
-17.08984375,-34.66796875,-45.41015625,-23.4375
-98.6328125,-76.171875,-63.4765625,-49.31640625
-113.76953125,-68.84765625,-67.3828125,-57.12890625
-26.3671875,-24.90234375,-53.22265625,-33.203125
39.0625,0.48828125,-40.52734375,-11.23046875
-7.8125,-27.34375,-47.36328125,-28.3203125
-86.42578125,-77.63671875,-60.546875,-54.6875
-116.69921875,-90.8203125,-61.03515625,-67.87109375
-28.3203125,-25.390625,-27.34375,-30.76171875
45.41015625,-1.953125,-12.20703125,4.8828125
7.32421875,-46.38671875,-38.0859375,-13.671875
-83.49609375,-75.1953125,-57.12890625,-62.5
-131.34765625,-79.1015625,-65.91796875,-94.7265625
-49.31640625,-27.34375,-52.734375,-59.5703125
31.25,7.8125,-39.0625,-31.73828125
9.765625,-20.99609375,-51.26953125,-46.875
-74.21875,-71.2890625,-71.2890625,-72.75390625
-121.09375,-77.63671875,-70.80078125,-76.171875
-57.12890625,-34.1796875,-47.8515625,-51.26953125
16.6015625,-8.30078125,-36.62109375,-31.73828125
11.23046875,-10.7421875,-43.45703125,-36.62109375
-62.98828125,-56.640625,-55.17578125,-66.40625
-113.76953125,-89.35546875,-60.05859375,-83.49609375
-64.453125,-58.59375,-48.828125,-64.453125
12.6953125,-25.390625,-43.45703125,-35.64453125
20.99609375,-21.484375,-42.48046875,-26.85546875
-44.921875,-57.12890625,-52.734375,-52.24609375
-104.4921875,-86.42578125,-65.4296875,-73.73046875
-66.40625,-52.734375,-51.26953125,-53.7109375
12.6953125,-11.71875,-38.0859375,-19.53125
25.87890625,-6.8359375,-38.0859375,-6.8359375
-41.50390625,-43.9453125,-54.6875,-31.73828125
-111.81640625,-65.4296875,-64.94140625,-59.5703125
-93.26171875,-49.8046875,-54.19921875,-56.15234375
-9.27734375,-12.20703125,-35.64453125,-29.78515625
16.6015625,-10.25390625,-30.76171875,-25.390625
-45.8984375,-63.4765625,-45.8984375,-48.828125
-114.2578125,-86.42578125,-52.24609375,-65.4296875
-103.515625,-64.94140625,-48.828125,-60.05859375
-13.18359375,-16.6015625,-36.1328125,-27.83203125
38.57421875,7.32421875,-26.85546875,-12.6953125
-10.25390625,-29.78515625,-43.9453125,-41.50390625
-83.0078125,-75.1953125,-62.01171875,-68.359375
-95.21484375,-62.5,-63.4765625,-68.84765625
-22.4609375,-3.90625,-52.734375,-43.45703125
32.2265625,21.484375,-42.96875,-22.94921875
-14.16015625,-17.08984375,-55.17578125,-42.96875
-90.33203125,-52.734375,-68.84765625,-69.82421875
-113.76953125,-40.0390625,-58.59375,-71.2890625
-42.48046875,20.99609375,-34.1796875,-31.25
17.08984375,70.3125,-24.90234375,-3.90625
-22.4609375,59.5703125,-41.50390625,-21.484375
-89.35546875,40.0390625,-48.828125,-51.7578125
-120.60546875,52.734375,-47.8515625,-64.94140625
-52.24609375,112.79296875,-39.0625,-35.15625
25.87890625,164.55078125,-33.69140625,-17.08984375
6.34765625,159.1796875,-46.875,-31.73828125
-67.87109375,119.140625,-63.96484375,-62.5
-119.140625,88.8671875,-75.1953125,-87.40234375
-64.453125,129.8828125,-60.05859375,-71.77734375
13.18359375,184.08203125,-38.0859375,-42.96875
2.44140625,175.29296875,-45.41015625,-46.38671875
-70.3125,131.8359375,-58.59375,-74.21875
-118.1640625,112.79296875,-66.40625,-91.30859375
-68.359375,155.2734375,-51.26953125,-68.84765625
6.34765625,195.80078125,-37.109375,-33.69140625
6.8359375,175.78125,-45.41015625,-36.62109375
-59.08203125,128.41796875,-55.6640625,-61.03515625
-108.88671875,114.2578125,-64.453125,-77.1484375
-63.4765625,144.53125,-53.7109375,-58.10546875
6.8359375,169.43359375,-42.96875,-32.71484375
19.53125,175.29296875,-41.50390625,-26.3671875
-45.41015625,135.25390625,-56.15234375,-48.33984375
-116.2109375,101.5625,-66.40625,-73.2421875
-84.9609375,124.51171875,-51.7578125,-62.01171875
0.0,163.57421875,-36.1328125,-34.1796875
26.85546875,173.828125,-33.69140625,-22.94921875
-35.15625,133.7890625,-47.36328125,-43.9453125
-93.26171875,107.91015625,-56.15234375,-62.01171875
-73.73046875,135.25390625,-46.38671875,-54.6875
1.46484375,183.59375,-35.64453125,-27.83203125
31.25,186.03515625,-36.62109375,-20.01953125
-34.66796875,124.51171875,-57.12890625,-51.7578125
-111.328125,87.40234375,-70.80078125,-82.51953125
-119.62890625,108.3984375,-57.12890625,-80.56640625
-44.43359375,143.5546875,-40.52734375,-48.828125
2.44140625,155.2734375,-37.59765625,-34.66796875
-41.015625,128.41796875,-51.26953125,-57.12890625
-106.93359375,90.8203125,-61.03515625,-79.58984375
-119.140625,91.30859375,-56.640625,-83.984375
-37.109375,134.27734375,-42.48046875,-51.7578125
22.94921875,161.62109375,-33.203125,-27.83203125
-17.578125,136.71875,-43.45703125,-43.45703125
-93.26171875,88.8671875,-58.10546875,-67.87109375
-126.953125,71.77734375,-62.98828125,-82.51953125
-51.26953125,120.60546875,-48.828125,-56.640625
25.87890625,147.4609375,-45.41015625,-22.4609375
0.0,113.76953125,-60.546875,-27.83203125
-87.890625,72.265625,-65.4296875,-64.94140625
-136.23046875,53.7109375,-62.01171875,-92.7734375
-61.5234375,98.6328125,-43.45703125,-59.08203125
19.53125,134.27734375,-29.78515625,-20.5078125
0.0,108.88671875,-42.96875,-36.62109375
-77.63671875,64.94140625,-57.6171875,-73.2421875
-125.9765625,46.875,-64.453125,-86.42578125
-63.96484375,83.49609375,-47.8515625,-60.05859375
17.08984375,115.72265625,-33.203125,-28.80859375
7.8125,101.07421875,-44.43359375,-35.15625
-62.98828125,54.19921875,-56.15234375,-72.75390625
-113.76953125,34.66796875,-61.03515625,-88.37890625
-68.359375,76.171875,-46.875,-68.84765625
9.27734375,110.83984375,-31.73828125,-42.48046875
15.13671875,99.609375,-40.0390625,-41.50390625
-53.7109375,54.19921875,-56.15234375,-71.2890625
-117.1875,27.34375,-64.453125,-88.37890625
-85.9375,53.22265625,-51.7578125,-71.2890625
0.9765625,101.5625,-32.71484375,-38.0859375
25.87890625,109.375,-39.0625,-25.390625
-43.45703125,53.7109375,-62.5,-56.15234375
-109.86328125,25.87890625,-60.05859375,-69.3359375
-85.9375,56.640625,-42.48046875,-45.41015625
-12.20703125,89.84375,-37.109375,-24.90234375
14.16015625,91.796875,-32.71484375,-18.5546875
-41.9921875,46.38671875,-42.96875,-44.921875
-103.515625,17.08984375,-55.17578125,-70.3125
-93.75,43.45703125,-49.8046875,-60.546875
-10.7421875,75.68359375,-36.1328125,-28.3203125
35.15625,85.9375,-32.71484375,-12.6953125
-18.06640625,58.10546875,-53.7109375,-35.15625
-99.609375,12.20703125,-74.70703125,-69.82421875
-108.3984375,13.671875,-69.3359375,-74.70703125
-10.7421875,74.70703125,-30.76171875,-20.5078125
41.50390625,103.515625,-14.16015625,-0.9765625
-23.92578125,56.15234375,-49.8046875,-43.45703125
-97.65625,6.8359375,-72.75390625,-71.2890625
-119.62890625,2.44140625,-71.77734375,-80.56640625
-37.59765625,55.17578125,-50.29296875,-44.43359375
31.73828125,89.35546875,-41.015625,-13.671875
2.44140625,59.5703125,-52.734375,-34.1796875
-65.91796875,14.6484375,-64.94140625,-69.82421875
-103.02734375,10.7421875,-73.73046875,-89.35546875
-37.59765625,62.01171875,-56.640625,-60.546875
27.34375,83.49609375,-42.96875,-32.71484375
0.48828125,47.36328125,-55.6640625,-45.8984375
-74.70703125,4.8828125,-68.84765625,-71.77734375
-120.1171875,-2.9296875,-70.3125,-79.1015625
-56.640625,42.96875,-47.36328125,-45.8984375
17.578125,75.1953125,-27.83203125,-17.578125
1.953125,48.828125,-40.52734375,-31.73828125
-63.96484375,3.41796875,-58.10546875,-61.03515625
-104.98046875,-12.20703125,-62.98828125,-75.1953125
-62.98828125,26.85546875,-50.78125,-54.6875
15.13671875,73.73046875,-38.57421875,-19.04296875
21.97265625,63.96484375,-41.015625,-16.11328125
-54.6875,-0.48828125,-57.12890625,-60.546875
-117.67578125,-25.390625,-65.91796875,-88.8671875
-86.9140625,8.30078125,-48.33984375,-73.73046875
-10.25390625,42.48046875,-36.62109375,-45.8984375
21.97265625,48.33984375,-41.50390625,-25.390625
-41.015625,1.46484375,-48.33984375,-48.828125
-134.765625,-21.484375,-48.33984375,-91.30859375
-117.1875,72.75390625,-39.0625,-83.984375
-29.78515625,191.89453125,-28.3203125,-45.41015625
0.9765625,250.0,-25.87890625,-33.69140625
-57.12890625,246.58203125,-42.96875,-55.17578125
-125.48828125,232.91015625,-53.22265625,-75.68359375
-113.76953125,258.7890625,-40.52734375,-66.89453125
-35.64453125,308.59375,-29.296875,-34.66796875
-0.48828125,325.1953125,-29.78515625,-24.4140625
-51.7578125,287.59765625,-45.8984375,-49.8046875
-118.1640625,250.9765625,-59.08203125,-72.75390625
-116.69921875,247.55859375,-50.78125,-71.2890625
-31.73828125,283.69140625,-32.2265625,-32.2265625
21.484375,305.17578125,-32.2265625,-9.765625
-14.16015625,263.671875,-45.8984375,-33.203125
-91.30859375,213.8671875,-59.08203125,-64.94140625
-112.79296875,215.8203125,-60.05859375,-69.82421875
-28.80859375,250.48828125,-35.64453125,-23.4375
27.34375,253.90625,-21.97265625,0.0
-25.390625,217.28515625,-41.015625,-31.25
-103.515625,170.8984375,-58.10546875,-71.77734375
-129.39453125,153.80859375,-58.10546875,-85.44921875
-57.12890625,191.40625,-41.50390625,-54.19921875
7.8125,214.35546875,-27.34375,-27.34375
-19.04296875,181.640625,-36.62109375,-33.69140625
-85.44921875,133.30078125,-50.78125,-62.98828125
-130.859375,103.02734375,-57.12890625,-80.078125
-69.82421875,145.5078125,-44.43359375,-42.48046875
8.7890625,188.96484375,-30.2734375,-14.16015625
-8.30078125,149.90234375,-41.50390625,-32.71484375
-83.984375,93.75,-63.4765625,-65.4296875
-136.71875,67.3828125,-69.82421875,-85.44921875
-78.61328125,94.7265625,-48.828125,-58.10546875
3.90625,132.32421875,-31.25,-29.296875
-0.48828125,111.328125,-35.15625,-37.59765625
-69.82421875,60.546875,-51.26953125,-73.73046875
-128.41796875,43.45703125,-68.84765625,-94.7265625
-83.984375,76.171875,-55.6640625,-66.40625
-2.44140625,104.98046875,-31.73828125,-28.3203125
9.27734375,94.7265625,-30.76171875,-21.97265625
-53.7109375,48.33984375,-54.19921875,-48.828125
-115.72265625,23.92578125,-68.84765625,-70.3125
-86.9140625,47.36328125,-51.7578125,-51.26953125
-5.859375,83.0078125,-31.25,-15.625
19.53125,86.9140625,-33.69140625,-19.53125
-42.96875,39.0625,-53.22265625,-61.5234375
-106.93359375,3.41796875,-63.4765625,-84.47265625
-86.42578125,24.4140625,-53.7109375,-67.87109375
-10.25390625,61.5234375,-40.52734375,-33.69140625
23.4375,71.2890625,-36.1328125,-24.90234375
-28.80859375,27.34375,-52.24609375,-50.29296875
-103.02734375,-11.23046875,-62.98828125,-75.68359375
-101.07421875,8.30078125,-54.6875,-69.82421875
-18.06640625,43.45703125,-38.57421875,-30.76171875
26.85546875,51.7578125,-26.3671875,-9.27734375
-22.4609375,13.671875,-37.59765625,-30.76171875
-97.65625,-31.73828125,-55.17578125,-58.10546875
-104.98046875,-24.90234375,-57.12890625,-61.03515625
-18.5546875,23.4375,-38.57421875,-24.4140625
42.96875,48.828125,-26.85546875,0.9765625
1.46484375,19.53125,-40.0390625,-21.484375
-80.078125,-21.97265625,-54.19921875,-54.19921875
-109.375,-23.4375,-55.17578125,-61.5234375
-33.203125,21.97265625,-36.1328125,-24.90234375
25.87890625,50.29296875,-28.80859375,-4.39453125
-9.27734375,16.11328125,-46.875,-29.296875
-72.265625,-27.34375,-63.4765625,-61.03515625
-104.00390625,-32.71484375,-62.01171875,-68.84765625
-36.1328125,8.30078125,-44.43359375,-37.59765625
34.1796875,42.48046875,-32.71484375,-15.13671875
8.30078125,20.99609375,-35.15625,-22.94921875
-58.10546875,-31.73828125,-51.26953125,-41.9921875
-105.95703125,-50.29296875,-62.98828125,-67.87109375
-61.5234375,-3.41796875,-45.8984375,-52.734375
19.04296875,32.2265625,-36.1328125,-9.27734375
6.8359375,12.20703125,-44.43359375,-18.06640625
-74.70703125,-23.92578125,-57.12890625,-59.5703125
-125.48828125,-43.45703125,-64.94140625,-71.77734375
-81.54296875,-24.90234375,-54.6875,-48.33984375
-2.9296875,12.20703125,-41.015625,-19.53125
8.7890625,20.5078125,-39.0625,-18.5546875
-58.10546875,-24.4140625,-55.6640625,-50.78125
-114.74609375,-56.15234375,-67.3828125,-72.265625
-82.03125,-28.3203125,-58.59375,-59.5703125
0.9765625,12.6953125,-46.875,-30.2734375
23.92578125,18.06640625,-44.43359375,-20.99609375
-46.38671875,-33.203125,-63.96484375,-53.7109375
-116.2109375,-62.98828125,-77.63671875,-77.1484375
-90.33203125,-30.2734375,-59.5703125,-62.01171875
-10.7421875,3.90625,-44.43359375,-30.76171875
9.765625,-1.953125,-41.9921875,-24.90234375
-49.31640625,-44.921875,-56.640625,-56.640625
-108.88671875,-68.359375,-66.40625,-82.03125
-100.09765625,-49.8046875,-61.03515625,-76.66015625
-16.11328125,-10.7421875,-42.96875,-41.50390625
28.80859375,3.90625,-38.0859375,-30.2734375
-24.4140625,-30.2734375,-55.6640625,-53.22265625
-97.16796875,-63.4765625,-70.80078125,-73.2421875
-102.5390625,-51.26953125,-67.87109375,-70.3125
-19.04296875,-6.8359375,-46.875,-31.25
31.73828125,21.97265625,-37.109375,-14.16015625
-19.04296875,-13.18359375,-52.24609375,-42.96875
-99.12109375,-76.171875,-72.265625,-79.58984375
-116.69921875,-81.54296875,-73.2421875,-91.30859375
-33.69140625,-25.390625,-50.29296875,-48.828125
32.2265625,8.30078125,-42.96875,-20.5078125
-11.23046875,-20.99609375,-62.5,-47.8515625
-92.7734375,-66.89453125,-75.1953125,-78.61328125
-120.60546875,-77.1484375,-75.1953125,-84.47265625
-54.6875,-31.73828125,-53.7109375,-51.7578125
4.39453125,-3.41796875,-40.52734375,-28.80859375
-28.80859375,-42.96875,-59.08203125,-45.8984375
-102.05078125,-76.66015625,-74.70703125,-75.68359375
-129.39453125,-85.9375,-62.01171875,-78.61328125
-61.03515625,-51.26953125,-39.55078125,-41.50390625
9.27734375,-6.8359375,-30.76171875,-18.06640625
-4.8828125,-29.78515625,-40.0390625,-28.3203125
-71.2890625,-76.171875,-53.22265625,-53.22265625
-113.28125,-84.47265625,-57.12890625,-67.3828125
-63.4765625,-54.6875,-43.9453125,-44.921875
15.13671875,-41.9921875,-30.2734375,-10.25390625
9.27734375,-78.61328125,-37.109375,-13.671875
-64.453125,-137.6953125,-53.22265625,-55.17578125
-123.046875,-164.55078125,-63.4765625,-85.44921875
-78.125,-118.1640625,-42.96875,-53.22265625
19.04296875,-72.265625,-19.53125,-4.39453125
12.6953125,-102.05078125,-41.015625,-27.83203125
-64.453125,-148.4375,-62.98828125,-70.80078125
-112.79296875,-166.9921875,-67.87109375,-81.54296875
-83.984375,-139.6484375,-54.19921875,-64.94140625
-5.859375,-101.07421875,-36.1328125,-31.25
14.16015625,-107.421875,-43.9453125,-29.296875
-47.8515625,-144.04296875,-58.10546875,-61.03515625
-118.1640625,-169.43359375,-66.89453125,-83.984375
-112.79296875,-154.296875,-57.6171875,-77.63671875
-26.85546875,-106.93359375,-31.25,-40.52734375
16.6015625,-87.890625,-21.484375,-23.92578125
-36.62109375,-135.7421875,-39.0625,-48.33984375
-111.81640625,-179.6875,-60.546875,-78.61328125
-115.72265625,-157.2265625,-56.640625,-82.03125
-26.3671875,-104.4921875,-35.15625,-40.0390625
16.6015625,-96.6796875,-36.1328125,-26.3671875
-46.875,-143.06640625,-60.546875,-59.08203125
-114.74609375,-189.453125,-69.3359375,-83.49609375
-121.58203125,-190.91796875,-59.08203125,-80.078125
-40.52734375,-146.484375,-38.57421875,-45.41015625
17.08984375,-143.06640625,-38.57421875,-29.296875
-20.01953125,-191.89453125,-51.7578125,-45.41015625
-91.30859375,-223.14453125,-54.6875,-69.82421875
-124.51171875,-237.3046875,-62.98828125,-89.35546875
-48.33984375,-201.66015625,-51.26953125,-54.19921875
24.4140625,-162.59765625,-30.76171875,-15.625
-2.44140625,-183.59375,-37.109375,-28.3203125
-72.265625,-214.84375,-53.7109375,-59.08203125
-108.3984375,-226.5625,-60.05859375,-73.2421875
-43.45703125,-186.5234375,-47.36328125,-45.41015625
22.4609375,-143.5546875,-42.48046875,-19.04296875
2.9296875,-160.64453125,-52.734375,-33.203125
-72.75390625,-201.171875,-62.5,-70.3125
-124.0234375,-212.40234375,-68.359375,-84.47265625
-64.453125,-162.109375,-47.8515625,-53.7109375
10.25390625,-120.1171875,-32.2265625,-24.4140625
-5.859375,-133.30078125,-42.96875,-32.71484375
-67.87109375,-168.45703125,-52.734375,-62.98828125
-114.2578125,-181.640625,-61.5234375,-81.54296875
-79.58984375,-144.53125,-58.10546875,-61.03515625
2.44140625,-96.6796875,-38.57421875,-26.85546875
14.16015625,-85.9375,-37.109375,-28.80859375
-56.640625,-125.9765625,-62.01171875,-63.96484375
-124.51171875,-157.71484375,-76.66015625,-87.890625
-94.7265625,-129.8828125,-57.12890625,-76.171875
-16.11328125,-84.9609375,-42.48046875,-47.8515625
10.25390625,-68.359375,-47.36328125,-40.52734375
-51.7578125,-114.2578125,-67.87109375,-70.80078125
-108.3984375,-143.5546875,-73.73046875,-88.37890625
-75.68359375,-100.5859375,-52.734375,-62.5
-10.7421875,-62.98828125,-37.59765625,-34.1796875
5.37109375,-60.546875,-38.0859375,-34.66796875
-40.0390625,-97.65625,-48.33984375,-55.6640625
-96.6796875,-125.48828125,-55.6640625,-69.82421875
-101.07421875,-104.00390625,-51.7578125,-72.75390625
-21.97265625,-57.6171875,-38.57421875,-32.2265625
19.53125,-48.828125,-34.1796875,-12.20703125
-37.59765625,-85.9375,-45.41015625,-46.38671875
-108.88671875,-113.76953125,-61.03515625,-72.75390625
-120.1171875,-108.88671875,-63.96484375,-70.80078125
-36.62109375,-64.94140625,-37.109375,-26.85546875
15.625,-38.57421875,-26.85546875,-0.9765625
-34.1796875,-77.1484375,-48.33984375,-33.203125
-101.5625,-110.83984375,-59.5703125,-64.453125
-119.140625,-102.5390625,-56.640625,-65.91796875
-45.41015625,-63.4765625,-42.96875,-32.71484375
10.7421875,-37.59765625,-37.109375,-12.6953125
-26.85546875,-55.6640625,-50.29296875,-31.73828125
-97.16796875,-93.26171875,-63.4765625,-59.08203125
-128.90625,-109.375,-66.40625,-71.2890625
-53.7109375,-51.26953125,-48.828125,-40.52734375
20.5078125,-18.06640625,-34.1796875,-11.71875
-0.9765625,-49.8046875,-39.55078125,-25.87890625
-73.2421875,-83.0078125,-55.6640625,-64.453125
-123.53515625,-100.5859375,-65.91796875,-84.47265625
-66.40625,-69.3359375,-56.15234375,-55.6640625
15.625,-24.90234375,-41.50390625,-18.06640625
2.44140625,-35.15625,-49.8046875,-25.87890625
-73.2421875,-87.40234375,-75.1953125,-66.40625
-118.65234375,-104.00390625,-79.1015625,-81.54296875
-67.3828125,-64.94140625,-57.6171875,-48.33984375
4.8828125,-31.25,-47.8515625,-17.08984375
6.8359375,-25.87890625,-45.41015625,-22.94921875
-68.359375,-72.265625,-55.6640625,-59.08203125
-129.39453125,-108.88671875,-70.80078125,-82.51953125
-83.49609375,-67.3828125,-51.26953125,-61.5234375
-4.39453125,-24.4140625,-34.66796875,-29.296875
12.20703125,-19.53125,-40.52734375,-25.390625
-52.24609375,-58.10546875,-53.7109375,-57.6171875
-120.1171875,-87.40234375,-62.5,-81.54296875
-89.84375,-57.6171875,-50.29296875,-62.01171875
-5.37109375,-21.484375,-34.66796875,-28.3203125
9.765625,-20.5078125,-33.203125,-24.90234375
-55.17578125,-51.26953125,-52.734375,-54.19921875
-110.83984375,-74.70703125,-67.3828125,-76.171875
-77.1484375,-58.10546875,-47.36328125,-47.36328125
-5.37109375,-24.4140625,-22.94921875,-19.04296875
8.30078125,-11.71875,-22.4609375,-33.203125
-39.55078125,-47.8515625,-38.0859375,-49.31640625
-104.00390625,-85.9375,-52.24609375,-62.5
-106.4453125,-68.84765625,-47.36328125,-65.4296875
-18.06640625,-21.484375,-27.34375,-31.25
27.83203125,-3.90625,-18.5546875,-19.53125
-30.2734375,-35.64453125,-36.62109375,-54.6875
-111.328125,-80.078125,-58.59375,-83.984375
-133.30078125,-76.171875,-58.59375,-84.47265625
-46.875,-16.6015625,-34.66796875,-37.109375
12.6953125,-4.39453125,-26.3671875,-11.23046875
-26.85546875,-49.31640625,-47.8515625,-35.64453125
-91.796875,-77.1484375,-59.5703125,-58.10546875
-117.1875,-81.0546875,-56.640625,-56.15234375
-38.0859375,-31.25,-38.0859375,-16.6015625
29.78515625,4.8828125,-25.87890625,3.41796875
-1.46484375,-30.2734375,-40.52734375,-29.296875
-69.82421875,-62.98828125,-61.03515625,-61.5234375
-110.3515625,-68.84765625,-63.4765625,-75.1953125
-48.828125,-27.83203125,-44.921875,-49.8046875
26.3671875,6.34765625,-32.2265625,-22.4609375
6.34765625,-15.625,-41.9921875,-37.109375
-73.73046875,-62.98828125,-60.05859375,-73.2421875
-124.0234375,-84.9609375,-65.4296875,-97.16796875
-67.3828125,-42.48046875,-50.78125,-73.2421875
6.8359375,-0.9765625,-39.55078125,-37.59765625
-5.37109375,-15.13671875,-48.33984375,-39.55078125
-77.1484375,-62.01171875,-65.91796875,-70.3125
-128.90625,-89.35546875,-71.2890625,-86.42578125
-85.44921875,-55.17578125,-55.6640625,-60.05859375
-7.8125,-12.6953125,-43.9453125,-28.3203125
2.9296875,-19.53125,-50.29296875,-24.4140625
-63.4765625,-62.5,-64.453125,-55.17578125
-122.55859375,-79.1015625,-65.91796875,-77.1484375
-92.28515625,-55.17578125,-53.22265625,-65.91796875
-13.671875,-23.92578125,-41.9921875,-36.1328125
10.7421875,-22.94921875,-41.015625,-20.99609375
-53.7109375,-63.96484375,-53.22265625,-44.921875
-118.1640625,-83.984375,-63.4765625,-66.89453125
-95.703125,-55.17578125,-56.15234375,-53.22265625
-8.7890625,-9.765625,-36.1328125,-14.6484375
27.34375,3.41796875,-33.69140625,-7.8125
-31.73828125,-36.62109375,-54.19921875,-45.8984375
-102.05078125,-83.984375,-62.01171875,-70.3125
-90.8203125,-64.453125,-48.33984375,-63.96484375
-11.71875,-12.20703125,-32.2265625,-33.69140625
19.53125,-10.25390625,-33.203125,-23.92578125
-25.390625,-46.38671875,-42.48046875,-48.828125
-84.47265625,-65.4296875,-45.8984375,-65.4296875
-110.83984375,-51.7578125,-52.24609375,-77.1484375
-45.8984375,-3.41796875,-40.0390625,-49.8046875
13.18359375,25.87890625,-28.3203125,-22.94921875
-34.1796875,-1.46484375,-42.96875,-47.36328125
-113.76953125,-30.2734375,-64.94140625,-77.63671875
-134.27734375,-29.78515625,-67.3828125,-88.37890625
-55.6640625,15.625,-42.48046875,-52.24609375
9.27734375,48.33984375,-30.2734375,-21.97265625
-20.99609375,27.83203125,-44.43359375,-40.52734375
-86.42578125,-6.8359375,-59.5703125,-69.82421875
-124.0234375,-32.71484375,-66.40625,-84.47265625
-56.15234375,7.8125,-47.8515625,-39.0625
29.78515625,59.08203125,-33.69140625,3.90625
8.30078125,40.52734375,-53.22265625,-20.5078125
-83.984375,-0.48828125,-71.77734375,-73.2421875
-134.765625,-7.8125,-78.61328125,-94.7265625
-64.453125,35.64453125,-64.94140625,-57.6171875
11.23046875,70.80078125,-47.36328125,-27.34375
1.46484375,63.4765625,-51.7578125,-33.69140625
-78.125,23.92578125,-72.265625,-68.84765625
-134.765625,9.27734375,-78.61328125,-93.26171875
-81.54296875,36.62109375,-60.546875,-67.87109375
-14.16015625,54.6875,-49.8046875,-42.48046875
-3.90625,56.15234375,-50.78125,-41.9921875
-63.4765625,13.18359375,-67.3828125,-73.2421875
-122.0703125,-12.6953125,-79.1015625,-92.28515625
-78.61328125,21.97265625,-61.03515625,-62.01171875
4.8828125,60.546875,-45.41015625,-31.25
16.6015625,57.12890625,-48.33984375,-34.66796875
-50.29296875,16.6015625,-60.546875,-66.40625
-117.1875,-15.625,-68.84765625,-90.8203125
-97.16796875,6.8359375,-56.640625,-71.77734375
-11.23046875,55.6640625,-42.96875,-31.73828125
27.34375,67.3828125,-32.71484375,-15.13671875
-31.73828125,17.578125,-42.48046875,-45.8984375
-106.93359375,-21.97265625,-65.4296875,-82.51953125
-87.890625,1.953125,-55.6640625,-67.87109375
-8.30078125,45.8984375,-41.015625,-26.3671875
30.2734375,62.98828125,-38.57421875,-18.06640625
-24.90234375,17.08984375,-51.26953125,-56.640625
-98.6328125,-24.4140625,-63.96484375,-83.0078125
-96.6796875,-9.27734375,-56.640625,-67.3828125
-17.08984375,35.15625,-40.0390625,-26.3671875
28.80859375,47.36328125,-31.25,-9.765625
-15.625,15.625,-40.52734375,-31.73828125
-86.9140625,-18.5546875,-50.29296875,-54.19921875
-111.328125,-24.90234375,-53.22265625,-63.96484375
-35.15625,24.90234375,-37.109375,-29.296875
17.08984375,53.7109375,-26.85546875,-7.32421875
-23.92578125,16.6015625,-42.48046875,-37.59765625
-91.796875,-26.3671875,-53.7109375,-64.94140625
-126.46484375,-37.109375,-56.15234375,-70.3125
-51.26953125,3.41796875,-45.41015625,-36.62109375
18.06640625,38.57421875,-31.73828125,-7.32421875
-15.625,5.37109375,-43.9453125,-26.3671875
-85.9375,-33.203125,-60.546875,-59.08203125
-124.0234375,-37.109375,-60.05859375,-68.359375
-67.3828125,-1.953125,-44.43359375,-40.52734375
0.0,29.78515625,-36.1328125,-12.20703125
-17.578125,5.37109375,-46.875,-20.5078125
-92.7734375,-36.62109375,-65.91796875,-62.5
-136.71875,-48.33984375,-72.75390625,-81.54296875
-77.1484375,-12.20703125,-52.734375,-54.19921875
4.8828125,24.4140625,-34.66796875,-20.99609375
5.37109375,13.18359375,-43.45703125,-21.97265625
-63.96484375,-28.3203125,-61.03515625,-54.19921875
-119.140625,-50.29296875,-67.3828125,-73.73046875
-77.63671875,-15.625,-46.875,-50.78125
-0.9765625,27.34375,-29.78515625,-16.11328125
6.8359375,21.484375,-44.43359375,-16.6015625
-65.91796875,-36.1328125,-67.87109375,-59.5703125
-122.0703125,-64.94140625,-66.89453125,-76.171875
-79.58984375,-26.3671875,-43.9453125,-41.50390625
-4.8828125,13.671875,-36.1328125,-11.71875
13.671875,21.97265625,-41.50390625,-11.71875
-52.734375,-24.4140625,-57.6171875,-48.828125
-120.1171875,-60.05859375,-65.91796875,-73.73046875
-92.28515625,-27.34375,-50.78125,-54.19921875
-8.7890625,13.671875,-36.1328125,-21.484375
23.92578125,22.4609375,-33.69140625,-10.7421875
-30.76171875,-14.16015625,-51.26953125,-33.69140625
-95.21484375,-56.640625,-62.01171875,-60.05859375
-83.984375,-38.0859375,-51.26953125,-61.5234375
2.44140625,12.20703125,-24.90234375,-17.578125
39.0625,18.06640625,-18.5546875,-4.8828125
-22.94921875,-21.97265625,-50.29296875,-50.29296875
-95.703125,-53.7109375,-63.96484375,-81.0546875
-103.515625,-45.41015625,-53.22265625,-82.03125
-24.90234375,-0.48828125,-36.1328125,-43.45703125
21.484375,19.04296875,-31.73828125,-21.484375
-20.99609375,-15.625,-42.96875,-41.50390625
-88.8671875,-54.6875,-53.22265625,-73.73046875
-107.421875,-50.29296875,-52.734375,-78.125
-35.15625,-17.578125,-36.1328125,-41.9921875
27.34375,0.0,-28.3203125,-15.625
-2.44140625,-21.97265625,-39.0625,-30.76171875
-85.44921875,-59.5703125,-62.01171875,-72.265625
-122.0703125,-64.94140625,-69.3359375,-91.30859375
-47.8515625,-15.625,-42.48046875,-43.45703125
17.578125,11.71875,-28.80859375,-8.30078125
-13.671875,-20.99609375,-46.38671875,-38.57421875
-92.28515625,-60.05859375,-62.98828125,-76.66015625
-138.671875,-70.3125,-71.2890625,-91.796875
-72.75390625,-30.76171875,-50.78125,-58.59375
4.39453125,6.8359375,-28.80859375,-33.69140625
-5.37109375,-18.5546875,-43.9453125,-50.78125
-68.84765625,-66.40625,-65.91796875,-79.58984375
-114.2578125,-77.1484375,-68.84765625,-100.09765625
-67.87109375,-43.45703125,-55.6640625,-77.63671875
5.859375,-7.32421875,-44.921875,-44.43359375
20.99609375,-6.34765625,-51.7578125,-35.64453125
-40.0390625,-48.33984375,-62.98828125,-59.5703125
-122.55859375,-77.63671875,-65.4296875,-93.75
-98.14453125,-38.0859375,-47.8515625,-73.73046875
-19.04296875,-6.34765625,-30.76171875,-28.3203125
-5.859375,-17.578125,-30.2734375,-27.83203125
-69.3359375,-47.8515625,-46.875,-67.87109375
-134.765625,-80.078125,-59.08203125,-88.8671875
-115.72265625,-73.73046875,-45.41015625,-73.73046875
-34.66796875,-31.25,-24.4140625,-36.62109375
-3.90625,-16.11328125,-18.06640625,-27.83203125
-61.03515625,-52.734375,-36.62109375,-60.546875
-132.32421875,-92.7734375,-58.59375,-89.35546875
-125.0,-74.21875,-50.78125,-83.0078125
-35.64453125,-20.99609375,-29.296875,-37.109375
8.7890625,0.9765625,-25.87890625,-17.08984375
-41.015625,-43.45703125,-40.52734375,-52.24609375
-109.86328125,-82.51953125,-51.26953125,-86.9140625
-110.83984375,-57.6171875,-43.9453125,-87.40234375
-36.62109375,-23.92578125,-39.0625,-55.17578125
7.8125,-28.3203125,-42.96875,-37.109375
-27.83203125,-59.08203125,-50.78125,-55.17578125
-101.07421875,-87.40234375,-57.6171875,-80.56640625
-118.65234375,-81.0546875,-47.8515625,-81.0546875
-34.66796875,-28.80859375,-26.3671875,-33.69140625
23.4375,-1.953125,-14.16015625,-5.859375
-16.6015625,-40.0390625,-28.3203125,-29.78515625
-83.49609375,-76.171875,-49.31640625,-62.98828125
-119.62890625,-76.171875,-53.7109375,-80.078125
-51.26953125,-22.94921875,-34.66796875,-42.48046875
22.94921875,20.99609375,-27.34375,-3.41796875
-1.953125,-19.53125,-43.45703125,-23.4375
-80.078125,-70.3125,-55.6640625,-65.91796875
-123.53515625,-67.87109375,-57.6171875,-78.61328125
-53.22265625,-29.296875,-38.0859375,-30.2734375
24.90234375,-5.859375,-26.3671875,13.18359375
6.34765625,-24.90234375,-41.015625,-7.8125
-70.3125,-64.94140625,-55.17578125,-52.24609375
-116.69921875,-74.70703125,-61.5234375,-75.1953125
-63.96484375,-34.66796875,-47.8515625,-52.24609375
13.18359375,2.44140625,-37.109375,-23.4375
17.578125,-5.37109375,-41.9921875,-21.97265625
-52.734375,-40.52734375,-55.6640625,-54.19921875
-117.67578125,-62.5,-68.84765625,-80.56640625
-82.51953125,-31.73828125,-55.17578125,-58.10546875
0.0,15.625,-36.1328125,-16.11328125
18.5546875,14.16015625,-38.0859375,-11.23046875
-49.8046875,-27.83203125,-50.29296875,-51.7578125
-119.140625,-47.36328125,-58.59375,-84.9609375
-88.8671875,-22.94921875,-45.8984375,-67.87109375
-1.953125,15.625,-28.3203125,-23.4375
20.5078125,19.53125,-27.83203125,-12.6953125
-42.48046875,-27.34375,-45.8984375,-53.7109375
-112.3046875,-59.08203125,-62.98828125,-90.33203125
-99.609375,-27.34375,-54.6875,-77.1484375
-16.6015625,13.671875,-37.59765625,-30.76171875
15.13671875,12.20703125,-42.48046875,-23.4375
-38.0859375,-28.3203125,-63.96484375,-61.03515625
-105.46875,-59.5703125,-76.171875,-86.42578125
-104.98046875,-45.8984375,-66.89453125,-85.44921875
-23.92578125,4.39453125,-40.0390625,-42.48046875
14.6484375,21.484375,-30.2734375,-24.4140625
-35.64453125,-17.578125,-44.921875,-61.03515625
-106.93359375,-52.24609375,-59.08203125,-91.796875
-122.55859375,-52.24609375,-62.01171875,-94.7265625
-36.62109375,-5.37109375,-38.0859375,-43.9453125
24.90234375,23.92578125,-26.3671875,-13.671875
-23.4375,-15.13671875,-47.36328125,-43.9453125
-96.6796875,-67.87109375,-64.453125,-81.54296875
-113.76953125,-65.91796875,-60.05859375,-85.44921875
-33.69140625,-13.18359375,-41.015625,-36.62109375
27.83203125,15.13671875,-34.66796875,-10.25390625
-11.71875,-15.625,-44.43359375,-33.203125
-82.51953125,-63.4765625,-55.6640625,-68.359375
-117.1875,-73.2421875,-59.5703125,-84.47265625
-57.6171875,-19.04296875,-37.59765625,-49.8046875
14.6484375,20.5078125,-23.92578125,-16.6015625
-5.37109375,-8.30078125,-37.59765625,-32.2265625
-83.0078125,-48.828125,-55.17578125,-71.77734375
-123.53515625,-57.12890625,-61.03515625,-84.9609375
-59.08203125,-19.53125,-42.48046875,-41.015625
14.6484375,15.13671875,-26.3671875,-4.8828125
-1.46484375,5.37109375,-37.109375,-22.4609375
-80.56640625,-27.34375,-58.10546875,-62.98828125
-128.41796875,-42.48046875,-59.08203125,-81.54296875
-71.2890625,-4.39453125,-36.62109375,-51.26953125
13.18359375,42.96875,-24.4140625,-10.7421875
23.92578125,45.8984375,-32.71484375,-7.8125
-48.828125,1.953125,-57.6171875,-52.24609375
-112.3046875,-21.97265625,-70.80078125,-86.9140625
-70.80078125,43.9453125,-54.19921875,-61.5234375
11.23046875,118.1640625,-35.15625,-21.97265625
30.76171875,129.8828125,-34.1796875,-13.18359375
-40.52734375,99.609375,-58.59375,-57.12890625
-107.91015625,78.125,-76.171875,-89.84375
-83.49609375,112.3046875,-56.15234375,-62.5
-12.20703125,160.15625,-35.15625,-31.25
20.5078125,177.24609375,-34.1796875,-20.99609375
-35.15625,143.06640625,-48.828125,-51.7578125
-107.421875,105.95703125,-59.08203125,-89.84375
-102.05078125,120.1171875,-53.22265625,-82.51953125
-19.53125,163.0859375,-37.59765625,-33.69140625
28.3203125,185.546875,-27.83203125,-12.20703125
-25.390625,136.71875,-46.875,-57.6171875
-103.02734375,79.58984375,-69.82421875,-88.8671875
-105.46875,89.35546875,-62.98828125,-80.56640625
-23.92578125,135.25390625,-39.0625,-40.0390625
27.34375,161.62109375,-27.83203125,-19.53125
-14.6484375,131.8359375,-41.015625,-49.31640625
-93.26171875,80.56640625,-61.5234375,-86.42578125
-116.2109375,75.1953125,-64.94140625,-89.84375
-38.57421875,121.09375,-36.1328125,-37.59765625
15.13671875,134.765625,-23.4375,-10.7421875
-22.94921875,100.5859375,-42.96875,-38.57421875
-92.7734375,74.21875,-53.7109375,-67.3828125
-121.09375,54.6875,-58.59375,-73.2421875
-52.24609375,83.49609375,-43.45703125,-36.1328125
11.71875,119.62890625,-32.2265625,-5.859375
-18.5546875,83.49609375,-52.24609375,-29.78515625
-88.8671875,40.52734375,-64.453125,-74.70703125
-121.58203125,31.73828125,-62.98828125,-89.35546875
-53.7109375,68.359375,-48.33984375,-52.24609375
31.73828125,114.2578125,-29.296875,-13.671875
16.11328125,94.7265625,-35.15625,-21.97265625
-62.98828125,30.2734375,-56.640625,-66.89453125
-115.72265625,5.37109375,-66.89453125,-91.30859375
-60.546875,57.6171875,-46.875,-53.22265625
32.2265625,99.609375,-17.578125,1.46484375
20.5078125,73.2421875,-28.3203125,-10.7421875
-63.4765625,18.06640625,-53.22265625,-62.98828125
-113.76953125,-12.20703125,-62.98828125,-83.984375
-67.87109375,26.3671875,-53.7109375,-59.08203125
14.16015625,66.40625,-33.69140625,-11.23046875
14.16015625,54.19921875,-29.296875,-10.25390625
-76.171875,5.37109375,-45.8984375,-62.98828125
-145.01953125,-24.90234375,-56.15234375,-93.26171875
-109.375,2.9296875,-45.41015625,-74.70703125
-21.484375,44.921875,-34.1796875,-33.69140625
9.27734375,55.6640625,-33.69140625,-17.08984375
-56.640625,9.27734375,-54.19921875,-58.59375
-134.765625,-41.015625,-70.3125,-102.05078125
-117.67578125,-21.484375,-58.59375,-96.6796875
-17.08984375,26.85546875,-36.62109375,-46.38671875
24.90234375,37.109375,-35.15625,-22.94921875
-37.59765625,-1.953125,-56.640625,-58.59375
-102.05078125,-35.15625,-67.3828125,-85.9375
-93.26171875,-20.5078125,-60.05859375,-74.70703125
-9.765625,21.484375,-41.015625,-24.4140625
35.15625,34.1796875,-31.25,-7.32421875
-19.04296875,-0.9765625,-44.43359375,-43.9453125
-94.23828125,-34.66796875,-58.10546875,-76.171875
-111.81640625,-40.0390625,-61.03515625,-81.54296875
-36.62109375,-2.9296875,-47.36328125,-41.9921875
25.390625,26.3671875,-33.69140625,-7.8125
-6.8359375,-7.32421875,-44.43359375,-23.4375
-87.40234375,-53.7109375,-68.84765625,-72.75390625
-122.55859375,-56.640625,-73.73046875,-94.23828125
-46.38671875,0.0,-49.8046875,-48.828125
15.13671875,30.76171875,-36.1328125,-20.01953125
-17.578125,0.48828125,-46.875,-41.50390625
-92.7734375,-42.48046875,-63.4765625,-77.1484375
-129.39453125,-49.31640625,-66.89453125,-83.984375
-54.19921875,1.953125,-46.875,-39.0625
17.578125,31.25,-36.62109375,-4.8828125
-7.8125,-2.44140625,-52.24609375,-23.92578125
-71.77734375,-37.59765625,-59.5703125,-56.15234375
-111.328125,-52.24609375,-56.15234375,-74.21875
-61.5234375,-23.92578125,-47.36328125,-57.12890625
14.6484375,16.11328125,-37.59765625,-20.99609375
12.6953125,2.44140625,-33.203125,-20.01953125
-64.453125,-45.41015625,-51.26953125,-64.453125
-127.44140625,-71.77734375,-71.77734375,-93.26171875
-79.1015625,-37.109375,-55.17578125,-61.03515625
5.37109375,5.37109375,-35.15625,-17.578125
15.625,9.765625,-35.15625,-9.765625
-61.03515625,-38.0859375,-55.17578125,-54.19921875
-124.0234375,-72.265625,-67.3828125,-83.984375
-83.984375,-32.2265625,-51.7578125,-55.6640625
-11.71875,5.37109375,-39.55078125,-27.83203125
0.0,-6.34765625,-38.57421875,-24.90234375
-49.31640625,-45.8984375,-53.22265625,-48.33984375
-116.69921875,-65.4296875,-66.89453125,-88.37890625
-102.5390625,-36.1328125,-55.17578125,-91.30859375
-14.16015625,13.671875,-42.96875,-49.31640625
22.4609375,16.6015625,-47.8515625,-36.62109375
-35.64453125,-33.69140625,-70.3125,-77.63671875
-98.6328125,-54.6875,-85.9375,-106.93359375
-82.51953125,-35.64453125,-76.66015625,-92.28515625
-9.765625,-1.953125,-66.89453125,-49.8046875
28.80859375,18.06640625,-59.5703125,-26.3671875
-18.5546875,-13.671875,-61.03515625,-53.22265625
-91.30859375,-53.22265625,-74.70703125,-81.54296875
-103.02734375,-50.29296875,-77.1484375,-78.61328125
-20.01953125,-2.44140625,-55.17578125,-28.80859375
40.0390625,21.484375,-44.921875,5.859375
-6.8359375,-21.97265625,-60.05859375,-23.92578125
-83.984375,-62.5,-77.63671875,-62.98828125
-107.421875,-63.4765625,-78.125,-71.77734375
-28.80859375,-13.671875,-51.7578125,-32.2265625
28.80859375,17.08984375,-44.43359375,-6.8359375
-15.13671875,-30.76171875,-55.6640625,-31.73828125
-84.47265625,-60.546875,-62.98828125,-66.40625
-117.67578125,-62.01171875,-66.40625,-83.0078125
-51.7578125,-30.2734375,-50.29296875,-53.7109375
24.4140625,8.7890625,-41.9921875,-22.94921875
1.46484375,-8.30078125,-51.7578125,-31.73828125
-75.1953125,-50.29296875,-65.91796875,-69.82421875
-123.046875,-70.80078125,-73.73046875,-98.6328125
-62.01171875,-29.296875,-57.6171875,-65.4296875
16.6015625,9.765625,-39.0625,-25.390625
2.9296875,1.953125,-47.8515625,-29.78515625
-77.63671875,-50.78125,-67.87109375,-65.4296875
-132.32421875,-83.49609375,-75.1953125,-89.84375
-70.80078125,-36.62109375,-58.59375,-49.8046875
4.8828125,-1.953125,-41.50390625,-4.39453125
0.48828125,-17.578125,-43.9453125,-8.7890625
-64.94140625,-58.10546875,-62.5,-44.43359375
-123.046875,-74.70703125,-69.82421875,-67.3828125
-80.078125,-41.015625,-48.33984375,-35.64453125
4.39453125,-1.953125,-26.85546875,5.859375
15.13671875,-5.859375,-31.73828125,-0.48828125
-52.734375,-53.22265625,-55.17578125,-40.0390625
-124.51171875,-76.66015625,-68.84765625,-70.80078125
-92.28515625,-43.9453125,-53.22265625,-52.734375
0.0,-9.765625,-39.0625,-13.18359375
23.4375,-4.8828125,-40.0390625,-6.8359375
-39.55078125,-40.0390625,-52.24609375,-47.36328125
-104.4921875,-68.359375,-63.96484375,-82.51953125
-92.28515625,-51.7578125,-67.3828125,-74.70703125
-11.71875,-16.11328125,-55.6640625,-33.69140625
24.4140625,0.0,-41.50390625,-15.13671875
-28.80859375,-33.69140625,-55.17578125,-48.33984375
-104.00390625,-75.68359375,-72.265625,-86.9140625
-110.3515625,-62.5,-62.01171875,-83.0078125
-17.08984375,-4.8828125,-38.0859375,-36.1328125
37.59765625,7.32421875,-33.69140625,-17.578125
-16.6015625,-38.57421875,-55.6640625,-50.29296875
-87.40234375,-79.1015625,-72.265625,-82.03125
-97.16796875,-77.1484375,-62.5,-74.21875
-17.08984375,-24.90234375,-34.1796875,-24.90234375
38.57421875,0.9765625,-33.203125,0.48828125
-4.8828125,-30.2734375,-50.29296875,-25.390625
-83.0078125,-70.80078125,-62.01171875,-62.5
-107.91015625,-77.1484375,-64.453125,-75.1953125
-36.62109375,-31.73828125,-44.921875,-40.0390625
27.83203125,-4.39453125,-31.25,-12.6953125
3.41796875,-29.296875,-48.828125,-28.3203125
-72.265625,-71.2890625,-67.3828125,-67.87109375
-109.375,-86.9140625,-66.89453125,-82.51953125
-41.015625,-49.8046875,-52.734375,-43.9453125
27.34375,-19.53125,-47.8515625,-19.04296875
14.6484375,-25.390625,-53.22265625,-26.85546875
-61.03515625,-60.05859375,-66.89453125,-64.453125
-116.69921875,-81.54296875,-73.73046875,-87.890625
-57.6171875,-48.33984375,-54.6875,-56.15234375
23.92578125,-4.39453125,-33.203125,-17.08984375
16.6015625,-15.13671875,-40.0390625,-22.4609375
-57.12890625,-58.10546875,-59.5703125,-67.3828125
-112.3046875,-71.77734375,-66.40625,-92.7734375
-75.68359375,-36.62109375,-51.7578125,-66.40625
4.39453125,-5.859375,-31.25,-26.85546875
17.08984375,-11.71875,-31.73828125,-24.90234375
-55.6640625,-56.640625,-55.17578125,-63.4765625
-119.140625,-90.8203125,-67.3828125,-88.8671875
-80.56640625,-51.7578125,-47.36328125,-60.05859375
3.41796875,-10.7421875,-26.85546875,-13.18359375
20.5078125,-20.5078125,-30.76171875,-9.765625
-44.921875,-60.05859375,-53.22265625,-56.640625
-106.93359375,-88.37890625,-63.96484375,-79.1015625
-85.9375,-57.12890625,-54.6875,-56.15234375
-8.30078125,-5.37109375,-37.59765625,-16.11328125
21.97265625,-4.39453125,-29.78515625,-4.8828125
-41.50390625,-53.22265625,-51.26953125,-50.78125
-110.83984375,-87.40234375,-67.3828125,-80.56640625
-101.07421875,-67.87109375,-56.15234375,-67.87109375
-22.94921875,-22.4609375,-40.0390625,-25.87890625
17.08984375,-7.32421875,-30.76171875,-4.8828125
-31.73828125,-40.52734375,-46.875,-41.015625
-107.421875,-78.61328125,-70.3125,-82.03125
-123.046875,-70.80078125,-62.5,-87.40234375
-40.0390625,-19.53125,-35.15625,-48.33984375
14.6484375,6.34765625,-24.4140625,-23.4375
-38.57421875,-29.78515625,-43.9453125,-58.10546875
-113.28125,-74.21875,-63.4765625,-95.703125
-133.30078125,-80.56640625,-64.453125,-102.05078125
-53.7109375,-32.2265625,-44.43359375,-56.640625
11.71875,-6.34765625,-31.73828125,-23.4375
-17.08984375,-33.203125,-46.875,-42.96875
-85.9375,-70.80078125,-60.05859375,-73.2421875
-121.09375,-85.44921875,-58.10546875,-74.70703125
-48.828125,-37.109375,-40.52734375,-24.4140625
20.99609375,-1.46484375,-24.90234375,10.7421875
2.44140625,-26.85546875,-29.78515625,-1.46484375
-69.82421875,-74.21875,-43.9453125,-44.921875
-108.3984375,-74.70703125,-49.8046875,-63.4765625
-50.29296875,-38.57421875,-46.38671875,-33.69140625
23.92578125,-22.94921875,-46.875,-0.9765625
14.16015625,-29.78515625,-43.9453125,-6.8359375
-81.54296875,-70.80078125,-53.22265625,-69.3359375
-143.06640625,-96.19140625,-66.40625,-108.3984375
-84.9609375,-57.12890625,-47.8515625,-72.75390625
1.46484375,-15.625,-27.83203125,-29.78515625
7.32421875,-20.99609375,-31.73828125,-28.3203125
-73.2421875,-70.3125,-58.10546875,-80.56640625
-138.18359375,-109.86328125,-77.63671875,-118.65234375
-90.8203125,-73.73046875,-57.12890625,-88.37890625
-5.37109375,-19.04296875,-36.62109375,-40.0390625
8.30078125,-33.203125,-45.8984375,-42.48046875
-53.7109375,-84.47265625,-66.40625,-88.8671875
-113.76953125,-91.796875,-73.2421875,-106.93359375
-95.21484375,-61.03515625,-58.10546875,-81.0546875
-14.16015625,-20.01953125,-36.1328125,-31.73828125
8.30078125,-15.625,-32.2265625,-16.6015625
-52.24609375,-61.5234375,-47.36328125,-53.22265625
-113.28125,-95.21484375,-58.10546875,-80.56640625
-97.65625,-71.77734375,-50.29296875,-62.01171875
-11.71875,-26.3671875,-32.71484375,-17.578125
36.62109375,-6.8359375,-27.83203125,0.9765625
-18.06640625,-42.96875,-51.7578125,-37.59765625
-104.98046875,-95.703125,-76.171875,-81.54296875
-101.5625,-80.078125,-61.5234375,-70.3125
-13.671875,-21.484375,-33.69140625,-19.04296875
21.97265625,-9.765625,-30.76171875,-1.953125
-28.3203125,-47.8515625,-53.22265625,-32.2265625
-92.7734375,-75.1953125,-64.453125,-62.98828125
-109.375,-73.73046875,-56.15234375,-69.82421875
-37.109375,-33.203125,-40.52734375,-33.69140625
16.6015625,-10.7421875,-32.71484375,-7.8125
-21.484375,-37.59765625,-43.9453125,-33.203125
-92.28515625,-72.265625,-56.640625,-68.359375
-126.953125,-79.58984375,-58.10546875,-86.42578125
-51.7578125,-36.62109375,-36.62109375,-41.9921875
25.390625,-7.32421875,-22.94921875,-3.41796875
-1.46484375,-25.87890625,-34.1796875,-26.3671875
-89.35546875,-81.54296875,-60.05859375,-82.03125
-133.30078125,-96.19140625,-72.265625,-103.02734375
-56.15234375,-34.66796875,-42.96875,-49.8046875
20.99609375,-3.41796875,-24.90234375,-10.7421875
0.48828125,-23.4375,-35.64453125,-17.578125
-78.125,-62.98828125,-57.12890625,-59.08203125
-120.60546875,-79.1015625,-65.91796875,-84.9609375
-68.359375,-43.9453125,-52.734375,-52.734375
3.41796875,0.0,-36.1328125,-12.6953125
-0.9765625,-12.6953125,-42.96875,-20.99609375
-66.40625,-57.6171875,-60.05859375,-65.91796875
-128.41796875,-89.35546875,-72.265625,-101.5625
-99.12109375,-69.82421875,-62.5,-82.03125
-4.8828125,-11.71875,-35.64453125,-30.2734375
18.5546875,-2.44140625,-31.25,-18.06640625
-58.10546875,-66.89453125,-60.05859375,-62.01171875
-123.046875,-100.5859375,-73.2421875,-87.40234375
-82.03125,-57.12890625,-48.33984375,-61.03515625
-1.46484375,-11.23046875,-27.34375,-24.90234375
16.6015625,-5.859375,-24.90234375,-18.06640625
-42.96875,-43.9453125,-42.48046875,-53.22265625
-113.28125,-82.51953125,-57.6171875,-85.44921875
-104.00390625,-67.87109375,-44.43359375,-75.1953125
-23.92578125,-22.94921875,-29.296875,-34.66796875
7.32421875,-13.18359375,-33.203125,-21.97265625
-47.8515625,-54.19921875,-50.29296875,-55.6640625
-119.140625,-90.8203125,-62.98828125,-92.7734375
-117.1875,-74.21875,-61.5234375,-90.33203125
-29.78515625,-28.80859375,-47.36328125,-47.36328125
17.578125,-8.7890625,-37.109375,-18.06640625
-37.109375,-54.19921875,-50.29296875,-48.33984375
-104.4921875,-93.75,-60.05859375,-83.984375
-107.421875,-65.91796875,-54.6875,-73.73046875
-20.5078125,-16.6015625,-33.203125,-23.4375
36.1328125,-1.953125,-21.484375,1.46484375
-2.9296875,-31.25,-33.69140625,-25.87890625
-82.03125,-71.77734375,-52.24609375,-62.01171875
-123.046875,-83.49609375,-59.5703125,-79.1015625
-50.29296875,-37.59765625,-38.57421875,-41.015625
18.06640625,-1.953125,-28.3203125,-9.27734375
-14.16015625,-33.203125,-38.57421875,-32.71484375
-87.890625,-70.3125,-49.8046875,-67.3828125
-120.60546875,-71.2890625,-52.734375,-76.66015625
-51.7578125,-26.3671875,-36.1328125,-37.59765625
19.04296875,9.765625,-23.92578125,-5.859375
-2.9296875,-19.53125,-38.57421875,-28.80859375
-72.265625,-68.359375,-53.7109375,-63.96484375
-114.74609375,-82.51953125,-56.15234375,-72.75390625
-57.6171875,-43.45703125,-46.38671875,-45.41015625
23.4375,1.953125,-34.1796875,-9.765625
9.765625,-15.13671875,-35.64453125,-20.01953125
-63.4765625,-61.5234375,-50.78125,-60.05859375
-111.81640625,-74.21875,-59.5703125,-77.63671875
-68.359375,-39.0625,-39.0625,-50.29296875
11.23046875,-6.34765625,-20.5078125,-13.671875
16.6015625,-20.99609375,-31.25,-15.13671875
-52.734375,-59.08203125,-52.24609375,-61.5234375
-112.79296875,-86.42578125,-55.6640625,-93.75
-82.51953125,-61.5234375,-33.69140625,-64.453125
-6.34765625,-9.27734375,-21.484375,-20.99609375
12.20703125,-13.671875,-30.76171875,-20.01953125
-57.12890625,-64.453125,-49.8046875,-60.546875
-127.9296875,-87.40234375,-65.91796875,-91.796875
-96.6796875,-61.03515625,-57.12890625,-73.2421875
-11.23046875,-22.4609375,-34.1796875,-25.390625
0.0,-19.04296875,-30.76171875,-25.87890625
-67.87109375,-61.5234375,-43.45703125,-66.40625
-150.390625,-101.07421875,-55.6640625,-106.93359375
-133.7890625,-74.70703125,-53.22265625,-100.09765625
-32.71484375,-31.25,-32.2265625,-38.57421875
4.39453125,-23.92578125,-23.4375,-13.18359375
-43.9453125,-53.7109375,-38.57421875,-41.9921875
-109.375,-90.8203125,-54.19921875,-79.58984375
-116.69921875,-74.21875,-49.8046875,-83.49609375
-36.62109375,-21.97265625,-31.25,-40.52734375
10.25390625,-7.32421875,-28.80859375,-11.71875
-37.59765625,-49.8046875,-46.875,-40.0390625
-104.98046875,-90.8203125,-56.640625,-81.54296875
-124.0234375,-87.40234375,-59.08203125,-89.35546875
-42.48046875,-35.64453125,-43.9453125,-43.45703125
28.80859375,5.859375,-26.85546875,-9.27734375
-1.46484375,-25.390625,-41.015625,-32.2265625
-80.56640625,-81.0546875,-66.89453125,-81.0546875
-119.140625,-87.40234375,-73.73046875,-96.6796875
-42.96875,-30.2734375,-49.8046875,-50.78125
25.87890625,-1.953125,-33.69140625,-18.06640625
-3.90625,-40.0390625,-48.828125,-36.62109375
-81.0546875,-86.9140625,-62.98828125,-78.125
-125.0,-99.12109375,-63.96484375,-89.35546875
-60.05859375,-44.921875,-40.52734375,-41.50390625
14.6484375,-11.23046875,-21.484375,-9.27734375
-2.9296875,-38.0859375,-38.57421875,-28.3203125
-71.2890625,-63.96484375,-55.17578125,-60.546875
-117.67578125,-81.54296875,-48.828125,-73.73046875
-75.68359375,-67.3828125,-36.1328125,-57.12890625
-4.8828125,-25.87890625,-30.76171875,-28.80859375
0.48828125,-28.80859375,-41.015625,-31.25
-65.91796875,-71.77734375,-61.5234375,-68.84765625
-129.39453125,-94.23828125,-65.4296875,-86.42578125
-86.9140625,-59.5703125,-46.875,-57.6171875
-4.39453125,-16.11328125,-34.1796875,-20.01953125
5.37109375,-19.04296875,-34.1796875,-17.08984375
-64.94140625,-69.3359375,-47.36328125,-62.01171875
-126.46484375,-95.703125,-60.05859375,-93.26171875
-89.84375,-60.05859375,-52.734375,-66.89453125
-1.46484375,-17.08984375,-37.109375,-23.92578125
22.4609375,-20.5078125,-39.55078125,-21.97265625
-32.2265625,-60.05859375,-54.19921875,-50.29296875
-103.02734375,-86.9140625,-66.40625,-75.68359375
-94.23828125,-73.2421875,-60.05859375,-69.3359375
2.9296875,-22.94921875,-35.64453125,-20.99609375
35.15625,-6.34765625,-31.25,-10.25390625
-27.34375,-47.8515625,-55.6640625,-51.26953125
-95.703125,-78.61328125,-71.2890625,-78.125
-94.23828125,-70.3125,-59.5703125,-73.2421875
-7.32421875,-23.4375,-38.0859375,-33.69140625
45.41015625,12.20703125,-31.73828125,-9.765625
-13.671875,-37.109375,-49.8046875,-41.50390625
-94.23828125,-87.890625,-66.40625,-79.1015625
-105.46875,-65.4296875,-52.24609375,-73.2421875
-26.3671875,-16.6015625,-32.71484375,-32.2265625
23.4375,-4.8828125,-35.15625,-19.53125
-20.99609375,-46.875,-50.29296875,-49.31640625
-96.19140625,-92.28515625,-68.359375,-86.42578125
-120.1171875,-88.8671875,-70.80078125,-96.19140625
-41.015625,-41.015625,-49.8046875,-51.26953125
20.99609375,-11.23046875,-32.71484375,-21.97265625
-16.11328125,-37.59765625,-44.43359375,-44.921875
-93.26171875,-78.61328125,-63.96484375,-82.03125
-126.46484375,-92.28515625,-68.359375,-99.12109375
-61.03515625,-54.19921875,-49.31640625,-59.5703125
11.23046875,-9.765625,-32.2265625,-17.08984375
-7.32421875,-32.2265625,-44.921875,-30.2734375
-85.44921875,-79.1015625,-61.03515625,-72.75390625
-140.625,-94.23828125,-67.87109375,-94.23828125
-85.44921875,-60.05859375,-51.26953125,-67.87109375
-1.953125,-26.85546875,-30.76171875,-32.2265625
-9.765625,-42.48046875,-38.57421875,-32.2265625
-89.35546875,-89.35546875,-59.08203125,-69.82421875
-141.6015625,-104.98046875,-66.40625,-90.8203125
-85.9375,-60.05859375,-46.875,-56.15234375
-0.48828125,-23.92578125,-31.73828125,-12.6953125
8.7890625,-28.3203125,-37.109375,-16.11328125
-70.80078125,-71.77734375,-56.15234375,-67.3828125
-132.32421875,-96.6796875,-73.2421875,-93.26171875
-82.03125,-59.08203125,-56.15234375,-64.94140625
1.46484375,-20.99609375,-38.0859375,-27.34375
18.06640625,-21.484375,-38.57421875,-17.578125
-43.45703125,-63.4765625,-49.31640625,-44.921875
-110.3515625,-88.37890625,-60.546875,-68.359375
-97.16796875,-102.05078125,-54.6875,-59.5703125
-12.6953125,-152.34375,-40.52734375,-24.4140625
23.92578125,-203.61328125,-36.1328125,-8.7890625
-38.57421875,-272.94921875,-54.19921875,-44.43359375
-119.140625,-341.30859375,-75.68359375,-89.84375
-110.83984375,-337.40234375,-61.5234375,-86.42578125
-17.08984375,-286.62109375,-30.76171875,-39.55078125
24.90234375,-268.06640625,-25.390625,-21.97265625
-33.69140625,-302.24609375,-41.9921875,-51.7578125
-114.74609375,-336.9140625,-57.6171875,-85.44921875
-120.1171875,-324.21875,-54.6875,-85.44921875
-32.2265625,-271.97265625,-34.1796875,-41.015625
19.04296875,-249.0234375,-24.4140625,-20.01953125
-24.4140625,-275.390625,-41.015625,-42.96875
-87.40234375,-294.921875,-52.734375,-64.94140625
-111.81640625,-291.015625,-56.15234375,-82.03125
-39.0625,-245.1171875,-42.96875,-44.921875
40.0390625,-204.58984375,-25.390625,-5.37109375
5.37109375,-231.93359375,-38.0859375,-34.66796875
-71.77734375,-262.20703125,-52.24609375,-72.75390625
-107.421875,-258.30078125,-56.15234375,-82.51953125
-37.59765625,-207.51953125,-41.50390625,-47.36328125
32.2265625,-169.921875,-25.87890625,-20.5078125
-6.8359375,-198.73046875,-41.9921875,-41.50390625
-86.9140625,-236.81640625,-58.59375,-73.2421875
-127.44140625,-241.69921875,-57.12890625,-84.47265625
-56.640625,-182.6171875,-39.55078125,-48.33984375
21.484375,-141.6015625,-27.34375,-12.6953125
2.44140625,-169.921875,-40.52734375,-26.3671875
-67.87109375,-201.171875,-58.10546875,-62.5
-119.62890625,-205.56640625,-62.98828125,-83.984375
-71.2890625,-166.9921875,-49.8046875,-58.10546875
10.7421875,-120.1171875,-34.66796875,-19.53125
15.13671875,-123.046875,-39.0625,-19.04296875
-56.15234375,-169.921875,-59.08203125,-62.01171875
-123.046875,-194.3359375,-68.84765625,-92.28515625
-81.0546875,-155.76171875,-48.828125,-64.453125
5.37109375,-106.93359375,-33.203125,-19.53125
19.53125,-98.6328125,-41.015625,-13.671875
-44.921875,-139.16015625,-56.15234375,-52.734375
-109.375,-167.48046875,-65.4296875,-81.54296875
-86.9140625,-141.11328125,-64.94140625,-65.91796875
-5.859375,-92.28515625,-44.921875,-22.4609375
17.578125,-81.54296875,-38.0859375,-8.30078125
-59.08203125,-128.41796875,-63.4765625,-51.7578125
-123.53515625,-160.64453125,-66.89453125,-81.0546875
-97.16796875,-125.0,-49.31640625,-56.640625
-12.20703125,-75.68359375,-39.0625,-16.11328125
29.78515625,-72.265625,-35.64453125,-7.32421875
-19.04296875,-106.4453125,-47.36328125,-32.2265625
-94.7265625,-135.25390625,-63.4765625,-70.3125
-104.98046875,-130.859375,-60.546875,-79.1015625
-18.5546875,-87.40234375,-43.9453125,-32.71484375
33.203125,-64.453125,-37.109375,-12.20703125
-18.06640625,-95.21484375,-48.828125,-41.9921875
-93.75,-133.7890625,-61.5234375,-75.1953125
-109.86328125,-134.27734375,-63.4765625,-81.0546875
-26.85546875,-82.03125,-43.45703125,-36.1328125
35.64453125,-47.36328125,-29.296875,-9.765625
-5.37109375,-76.171875,-44.43359375,-41.015625
-86.9140625,-126.953125,-58.59375,-77.1484375
-122.0703125,-136.23046875,-62.98828125,-83.984375
-44.921875,-77.1484375,-44.921875,-39.55078125
20.5078125,-48.33984375,-30.76171875,-10.7421875
-9.27734375,-84.9609375,-51.26953125,-29.78515625
-57.12890625,-111.328125,-56.640625,-39.55078125
-104.98046875,-122.0703125,-50.29296875,-62.98828125
-76.171875,-89.84375,-41.9921875,-69.3359375
-5.859375,-51.26953125,-32.71484375,-43.45703125
-9.27734375,-69.82421875,-41.50390625,-42.48046875
-86.42578125,-117.67578125,-50.78125,-76.171875
-140.13671875,-139.6484375,-55.17578125,-94.23828125
-77.1484375,-102.05078125,-41.015625,-65.91796875
2.9296875,-63.96484375,-26.85546875,-29.296875
-1.953125,-69.82421875,-29.78515625,-24.90234375
-76.66015625,-108.3984375,-49.8046875,-60.546875
-141.6015625,-136.23046875,-65.91796875,-85.9375
-85.44921875,-95.703125,-50.29296875,-50.29296875
6.8359375,-46.875,-32.71484375,-12.20703125
12.20703125,-51.7578125,-37.59765625,-24.4140625
-55.6640625,-94.7265625,-51.26953125,-60.05859375
-119.62890625,-123.046875,-60.546875,-83.984375
-84.47265625,-92.7734375,-50.78125,-64.94140625
6.8359375,-45.8984375,-35.15625,-20.99609375
27.34375,-39.55078125,-34.1796875,-10.25390625
-48.828125,-86.42578125,-52.24609375,-43.9453125
-116.69921875,-113.28125,-62.5,-68.359375
-100.09765625,-99.609375,-52.24609375,-58.59375
-10.7421875,-55.17578125,-34.66796875,-15.625
26.85546875,-34.1796875,-30.76171875,0.0
-42.96875,-90.8203125,-50.78125,-44.921875
-116.2109375,-132.8125,-63.96484375,-78.125
-110.83984375,-109.86328125,-54.19921875,-77.63671875
-19.04296875,-56.15234375,-35.64453125,-39.55078125
33.203125,-40.0390625,-30.2734375,-15.13671875
-22.4609375,-81.0546875,-46.38671875,-44.43359375
-102.5390625,-119.140625,-67.3828125,-76.171875
-112.79296875,-109.86328125,-62.5,-79.1015625
-29.296875,-54.19921875,-38.57421875,-41.015625
25.87890625,-34.66796875,-31.73828125,-16.6015625
-18.5546875,-74.70703125,-50.78125,-41.50390625
-89.35546875,-105.95703125,-61.03515625,-77.1484375
-111.81640625,-101.07421875,-53.22265625,-86.9140625
-31.73828125,-51.26953125,-35.15625,-45.8984375
33.69140625,-21.97265625,-21.97265625,-15.13671875
-8.30078125,-57.6171875,-36.62109375,-40.52734375
-87.890625,-103.02734375,-59.08203125,-75.68359375
-120.1171875,-111.81640625,-63.96484375,-81.54296875
-42.48046875,-65.4296875,-42.48046875,-42.48046875
35.64453125,-28.3203125,-22.94921875,-14.6484375
11.23046875,-45.8984375,-32.2265625,-28.80859375
-68.84765625,-96.19140625,-51.26953125,-61.5234375
-123.53515625,-120.1171875,-59.08203125,-83.984375
-56.640625,-75.68359375,-40.0390625,-56.15234375
34.66796875,-31.73828125,-24.90234375,-16.6015625
23.4375,-45.41015625,-30.2734375,-22.94921875
-53.22265625,-89.84375,-42.96875,-62.01171875
-108.88671875,-112.79296875,-57.12890625,-87.40234375
-61.5234375,-69.82421875,-50.78125,-60.546875
20.99609375,-19.53125,-35.64453125,-24.90234375
21.97265625,-35.15625,-39.0625,-29.78515625
-55.6640625,-85.9375,-58.59375,-67.87109375
-121.09375,-104.98046875,-66.40625,-93.26171875
-77.63671875,-63.96484375,-51.26953125,-68.84765625
-3.90625,-30.76171875,-38.57421875,-35.15625
5.859375,-34.66796875,-38.0859375,-28.80859375
-53.7109375,-76.171875,-52.734375,-63.4765625
-121.09375,-111.81640625,-67.87109375,-92.7734375
-97.16796875,-85.9375,-54.6875,-72.265625
-7.8125,-39.0625,-31.25,-25.87890625
25.390625,-27.83203125,-23.4375,-10.25390625
-33.203125,-69.82421875,-40.0390625,-46.875
-104.98046875,-110.83984375,-58.10546875,-77.63671875
-95.21484375,-89.35546875,-52.734375,-68.84765625
-7.8125,-33.203125,-31.25,-24.90234375
38.0859375,-18.5546875,-26.3671875,-3.41796875
-17.578125,-70.80078125,-45.8984375,-39.55078125
-103.02734375,-112.79296875,-62.5,-76.66015625
-114.74609375,-96.19140625,-60.546875,-68.84765625
-24.90234375,-48.33984375,-41.015625,-27.34375
33.69140625,-32.2265625,-27.83203125,-12.6953125
-17.08984375,-67.87109375,-44.921875,-34.66796875
-91.30859375,-105.95703125,-63.4765625,-64.453125
-110.3515625,-99.12109375,-61.5234375,-71.77734375
-39.0625,-50.29296875,-40.52734375,-37.109375
14.6484375,-28.3203125,-29.296875,-18.5546875
-24.90234375,-58.10546875,-42.48046875,-41.9921875
-99.12109375,-103.02734375,-57.12890625,-79.1015625
-125.9765625,-114.2578125,-61.5234375,-92.28515625
-42.96875,-53.7109375,-41.015625,-49.31640625
19.53125,-20.99609375,-30.76171875,-19.53125
-17.08984375,-54.6875,-44.921875,-41.015625
-84.9609375,-99.12109375,-61.03515625,-75.68359375
-120.1171875,-104.4921875,-62.5,-86.42578125
-50.29296875,-53.22265625,-40.0390625,-45.8984375
25.87890625,-29.78515625,-32.2265625,-12.20703125
15.13671875,-52.734375,-41.015625,-18.06640625
-57.6171875,-94.23828125,-51.7578125,-52.734375
-109.375,-104.4921875,-59.08203125,-70.80078125
-57.12890625,-63.96484375,-47.36328125,-41.015625
17.578125,-33.69140625,-34.66796875,-12.6953125
8.30078125,-46.875,-42.48046875,-23.92578125
-62.98828125,-93.26171875,-52.24609375,-59.08203125
-115.234375,-112.3046875,-53.22265625,-78.125
-83.49609375,-76.66015625,-45.8984375,-56.640625
-8.30078125,-38.0859375,-32.71484375,-20.5078125
3.90625,-41.9921875,-37.109375,-14.16015625
-70.3125,-92.28515625,-59.5703125,-53.22265625
-137.6953125,-124.51171875,-71.2890625,-81.54296875
-104.98046875,-87.40234375,-57.6171875,-57.12890625
-16.11328125,-31.25,-34.1796875,-16.11328125
17.578125,-34.66796875,-31.73828125,-6.8359375
-35.15625,-83.984375,-52.24609375,-34.66796875
-109.375,-112.3046875,-62.98828125,-65.4296875
-106.4453125,-97.16796875,-49.8046875,-63.96484375
-26.85546875,-59.08203125,-34.1796875,-29.78515625
18.06640625,-44.43359375,-36.1328125,-17.08984375
-31.25,-78.61328125,-46.875,-44.921875
-115.72265625,-123.046875,-58.59375,-80.078125
-123.53515625,-108.88671875,-53.22265625,-79.58984375
-36.1328125,-59.5703125,-34.1796875,-39.0625
8.7890625,-47.36328125,-28.80859375,-20.5078125
-39.0625,-80.078125,-41.015625,-47.8515625
-105.46875,-119.62890625,-52.734375,-73.73046875
-123.53515625,-118.1640625,-49.8046875,-81.0546875
-36.1328125,-61.03515625,-28.80859375,-42.48046875
22.4609375,-40.0390625,-21.484375,-14.6484375
-28.3203125,-77.63671875,-38.57421875,-48.33984375
-96.19140625,-107.421875,-54.19921875,-83.984375
-117.67578125,-111.328125,-57.12890625,-92.7734375
-35.15625,-65.4296875,-37.59765625,-51.26953125
37.109375,-29.78515625,-25.87890625,-14.6484375
1.46484375,-59.5703125,-43.9453125,-35.64453125
-70.3125,-104.98046875,-58.10546875,-71.2890625
-105.46875,-111.81640625,-59.5703125,-76.171875
-37.109375,-67.87109375,-38.0859375,-34.1796875
45.41015625,-30.2734375,-9.27734375,8.30078125
16.11328125,-54.19921875,-24.4140625,-9.27734375
-69.82421875,-109.86328125,-50.78125,-58.59375
-111.81640625,-127.9296875,-56.15234375,-78.61328125
-51.7578125,-80.56640625,-45.41015625,-46.875
23.4375,-38.57421875,-29.78515625,-9.765625
13.671875,-56.640625,-33.203125,-15.625
-61.5234375,-100.5859375,-53.7109375,-57.6171875
-117.67578125,-121.09375,-61.03515625,-76.66015625
-67.87109375,-80.078125,-46.875,-48.828125
19.04296875,-29.296875,-33.203125,-11.71875
24.4140625,-40.0390625,-35.64453125,-14.6484375
-53.22265625,-93.75,-55.17578125,-57.12890625
-116.69921875,-119.62890625,-68.359375,-83.49609375
-80.56640625,-94.23828125,-60.05859375,-62.01171875
3.90625,-43.9453125,-41.50390625,-19.04296875
22.4609375,-38.57421875,-39.0625,-14.6484375
-50.78125,-90.8203125,-57.12890625,-52.24609375
-118.1640625,-125.0,-67.3828125,-77.1484375
-94.7265625,-105.46875,-51.26953125,-65.91796875
-7.8125,-56.15234375,-28.80859375,-30.2734375
28.80859375,-41.50390625,-26.3671875,-16.11328125
-33.203125,-82.51953125,-40.0390625,-48.828125
-109.86328125,-122.0703125,-56.640625,-82.51953125
-104.98046875,-110.3515625,-52.734375,-74.21875
-18.5546875,-61.03515625,-29.296875,-28.80859375
32.71484375,-35.64453125,-22.4609375,-5.37109375
-20.01953125,-68.84765625,-42.96875,-37.59765625
-100.09765625,-116.69921875,-62.5,-75.68359375
-115.234375,-113.28125,-62.5,-79.1015625
-39.0625,-68.359375,-48.33984375,-38.0859375
26.85546875,-44.43359375,-40.0390625,3.41796875
-9.765625,-69.3359375,-51.7578125,-20.01953125
-101.07421875,-109.86328125,-68.359375,-85.9375
-129.39453125,-100.09765625,-68.359375,-102.05078125
-39.0625,-44.43359375,-44.921875,-55.17578125
30.2734375,-19.53125,-37.59765625,-25.390625
-5.37109375,-43.9453125,-56.15234375,-45.41015625
-79.1015625,-77.63671875,-70.80078125,-81.54296875
-114.74609375,-84.9609375,-73.73046875,-96.6796875
-39.0625,-41.9921875,-57.6171875,-51.7578125
32.71484375,-14.6484375,-48.33984375,-15.13671875
-1.953125,-39.0625,-60.546875,-40.0390625
-80.56640625,-79.58984375,-75.1953125,-78.125
-124.51171875,-109.375,-83.984375,-97.16796875
-54.6875,-59.08203125,-64.453125,-64.453125
33.69140625,-0.48828125,-42.48046875,-23.4375
17.08984375,-31.73828125,-51.7578125,-34.66796875
-60.05859375,-84.47265625,-71.77734375,-74.70703125
-112.79296875,-105.95703125,-78.125,-91.796875
-63.96484375,-71.2890625,-63.4765625,-61.5234375
18.06640625,-33.69140625,-50.78125,-30.76171875
19.53125,-42.96875,-53.7109375,-33.203125
-54.19921875,-87.40234375,-72.265625,-69.3359375
-110.83984375,-109.86328125,-77.1484375,-90.8203125
-62.5,-74.21875,-55.17578125,-67.3828125
25.390625,-33.69140625,-37.109375,-25.390625
41.9921875,-28.3203125,-35.15625,-16.11328125
-31.73828125,-67.3828125,-51.26953125,-50.29296875
-99.609375,-99.609375,-62.01171875,-65.91796875
-80.56640625,-81.0546875,-55.6640625,-50.29296875
2.44140625,-32.71484375,-35.64453125,-9.765625
34.1796875,-19.04296875,-24.90234375,2.9296875
-32.71484375,-66.89453125,-44.921875,-39.0625
-101.07421875,-104.00390625,-65.4296875,-67.87109375
-86.9140625,-84.47265625,-62.98828125,-60.05859375
-1.46484375,-36.62109375,-47.36328125,-14.6484375
39.0625,-24.4140625,-38.57421875,6.34765625
-22.4609375,-69.82421875,-55.17578125,-29.78515625
-97.65625,-106.93359375,-70.80078125,-66.40625
-98.14453125,-83.984375,-63.96484375,-64.94140625
-14.6484375,-42.96875,-42.96875,-23.92578125
31.73828125,-27.83203125,-34.1796875,-8.30078125
-18.5546875,-56.640625,-53.22265625,-39.0625
-85.44921875,-99.12109375,-68.84765625,-69.3359375
-93.75,-97.65625,-61.5234375,-68.359375
-17.08984375,-51.26953125,-41.015625,-30.76171875
44.43359375,-24.4140625,-31.25,-7.32421875
2.9296875,-53.7109375,-42.48046875,-28.80859375
-84.47265625,-92.28515625,-61.5234375,-60.546875
-120.60546875,-102.5390625,-67.3828125,-73.2421875
-48.828125,-64.94140625,-42.48046875,-41.015625
25.390625,-23.92578125,-24.4140625,-7.32421875
-2.9296875,-53.7109375,-41.9921875,-22.94921875
-77.63671875,-104.4921875,-58.10546875,-54.6875
-115.72265625,-113.76953125,-64.453125,-77.63671875
-54.19921875,-70.80078125,-47.36328125,-54.19921875
25.390625,-27.34375,-25.87890625,-19.04296875
12.20703125,-42.96875,-33.203125,-26.3671875
-65.4296875,-94.23828125,-56.640625,-60.546875
-119.62890625,-113.28125,-72.265625,-83.49609375
-63.4765625,-71.2890625,-51.26953125,-51.7578125
22.4609375,-30.2734375,-29.78515625,-8.7890625
18.06640625,-38.57421875,-40.52734375,-14.6484375
-61.5234375,-82.03125,-61.5234375,-61.03515625
-123.046875,-112.3046875,-68.84765625,-87.40234375
-73.73046875,-76.171875,-53.7109375,-60.546875
14.16015625,-32.71484375,-39.0625,-26.85546875
22.94921875,-37.59765625,-44.921875,-28.3203125
-45.8984375,-80.078125,-63.4765625,-60.546875
-107.421875,-108.3984375,-69.3359375,-80.078125
-70.3125,-76.66015625,-52.24609375,-60.05859375
11.23046875,-33.69140625,-40.52734375,-29.296875
31.25,-27.34375,-39.0625,-20.99609375
-39.55078125,-76.66015625,-56.15234375,-54.6875
-118.1640625,-114.74609375,-72.265625,-89.84375
-101.07421875,-86.9140625,-59.08203125,-78.125
-7.32421875,-37.109375,-31.73828125,-25.87890625
34.1796875,-29.78515625,-23.4375,-5.37109375
-36.62109375,-80.078125,-50.29296875,-55.17578125
-114.74609375,-111.81640625,-63.96484375,-85.44921875
-109.86328125,-91.30859375,-50.29296875,-79.1015625
-20.99609375,-43.9453125,-32.2265625,-41.015625
26.3671875,-23.4375,-28.3203125,-18.06640625
-25.390625,-62.5,-45.8984375,-48.828125
-100.09765625,-101.5625,-66.89453125,-79.1015625
-107.421875,-89.84375,-52.24609375,-76.66015625
-25.87890625,-44.921875,-19.53125,-34.66796875
27.83203125,-17.08984375,-13.18359375,-9.27734375
-10.7421875,-41.50390625,-26.85546875,-34.66796875
-88.37890625,-93.26171875,-47.8515625,-77.1484375
-120.60546875,-102.05078125,-54.19921875,-90.33203125
-41.9921875,-50.78125,-33.69140625,-44.921875
23.4375,-22.94921875,-22.4609375,-15.625
-9.27734375,-53.7109375,-41.015625,-39.55078125
-79.1015625,-95.21484375,-60.05859375,-73.73046875
-117.67578125,-100.09765625,-61.03515625,-86.9140625
-49.8046875,-52.24609375,-40.0390625,-49.31640625
23.4375,-20.99609375,-27.83203125,-18.5546875
-3.90625,-46.875,-41.9921875,-38.57421875
-77.1484375,-79.1015625,-56.15234375,-72.265625
-108.88671875,-96.6796875,-64.453125,-84.47265625
-34.1796875,-62.98828125,-51.26953125,-41.9921875
27.34375,-27.34375,-31.25,-10.25390625
0.9765625,-48.33984375,-32.71484375,-25.87890625
-74.70703125,-89.35546875,-51.26953125,-59.08203125
-141.11328125,-120.60546875,-65.4296875,-89.84375
-97.16796875,-90.33203125,-50.29296875,-68.359375
-18.06640625,-47.36328125,-31.73828125,-28.80859375
-20.5078125,-54.19921875,-36.1328125,-37.109375
-91.796875,-103.515625,-59.08203125,-79.58984375
-143.5546875,-125.0,-64.453125,-97.16796875
-101.5625,-80.078125,-46.875,-70.3125
-21.484375,-44.43359375,-36.1328125,-34.1796875
-2.44140625,-58.10546875,-42.48046875,-32.71484375
-62.01171875,-94.23828125,-58.10546875,-65.4296875
-125.48828125,-117.67578125,-62.5,-85.9375
-100.5859375,-103.02734375,-51.26953125,-75.1953125
-12.20703125,-51.26953125,-37.109375,-36.1328125
15.625,-43.45703125,-37.109375,-23.92578125
-54.19921875,-89.84375,-50.78125,-62.98828125
-127.9296875,-121.09375,-62.98828125,-93.75
-109.86328125,-102.5390625,-58.59375,-81.0546875
-22.94921875,-53.7109375,-38.57421875,-29.296875
20.99609375,-31.73828125,-34.66796875,-6.8359375
-24.4140625,-71.77734375,-55.17578125,-44.43359375
-96.6796875,-118.1640625,-69.3359375,-78.125
-106.4453125,-106.4453125,-63.96484375,-69.82421875
-17.578125,-52.734375,-44.921875,-25.87890625
34.66796875,-37.59765625,-32.71484375,-5.37109375
-13.18359375,-71.2890625,-41.015625,-31.25
-92.7734375,-114.2578125,-55.6640625,-67.87109375
-116.69921875,-108.3984375,-58.10546875,-81.54296875
-39.55078125,-52.734375,-40.0390625,-48.828125
19.53125,-30.76171875,-31.25,-21.484375
-13.671875,-59.08203125,-40.52734375,-41.9921875
-90.8203125,-90.8203125,-51.7578125,-80.078125
-128.41796875,-94.7265625,-59.08203125,-95.21484375
-52.24609375,-58.10546875,-43.45703125,-61.5234375
20.5078125,-23.4375,-33.203125,-31.25
-12.20703125,-45.41015625,-44.43359375,-51.7578125
-88.37890625,-90.33203125,-61.5234375,-92.7734375
-125.9765625,-104.98046875,-67.87109375,-108.3984375
-61.03515625,-66.40625,-43.9453125,-66.89453125
12.20703125,-34.1796875,-29.296875,-31.73828125
0.0,-52.734375,-41.50390625,-45.41015625
-65.91796875,-84.47265625,-48.33984375,-71.77734375
-114.2578125,-95.703125,-47.8515625,-84.9609375
-67.87109375,-57.12890625,-41.9921875,-64.94140625
2.9296875,-20.01953125,-30.2734375,-27.83203125
8.7890625,-30.76171875,-27.34375,-19.04296875
-58.10546875,-71.2890625,-41.9921875,-54.19921875
-130.859375,-110.83984375,-57.6171875,-83.49609375
-85.44921875,-82.51953125,-42.48046875,-54.6875
-3.41796875,-36.1328125,-29.78515625,-23.4375
0.48828125,-37.109375,-37.59765625,-28.80859375
-70.3125,-80.56640625,-59.08203125,-67.3828125
-131.8359375,-110.83984375,-69.82421875,-89.35546875
-97.16796875,-78.61328125,-57.12890625,-67.3828125
-15.625,-40.0390625,-37.109375,-22.94921875
6.8359375,-34.1796875,-34.1796875,-12.6953125
-56.15234375,-78.125,-55.17578125,-51.26953125
-126.46484375,-118.65234375,-70.3125,-85.44921875
-102.5390625,-89.35546875,-61.03515625,-72.265625
-16.6015625,-45.8984375,-41.9921875,-27.34375
22.94921875,-31.25,-34.66796875,-10.7421875
-28.3203125,-71.2890625,-50.78125,-45.41015625
-99.12109375,-106.93359375,-63.4765625,-77.1484375
-93.26171875,-88.8671875,-58.59375,-68.84765625
-15.625,-42.48046875,-43.9453125,-25.390625
29.78515625,-20.5078125,-25.87890625,2.44140625
-18.5546875,-61.5234375,-35.64453125,-31.73828125
-107.91015625,-104.98046875,-60.546875,-82.03125
-121.09375,-93.26171875,-53.22265625,-79.1015625
-29.78515625,-40.0390625,-32.2265625,-29.296875
22.94921875,-18.06640625,-32.71484375,-15.13671875
-26.3671875,-56.15234375,-51.26953125,-42.96875
-103.515625,-95.21484375,-68.84765625,-79.1015625
-129.39453125,-92.7734375,-62.98828125,-86.9140625
-49.31640625,-51.7578125,-39.0625,-41.015625
14.6484375,-22.4609375,-32.2265625,-13.18359375
-20.01953125,-54.19921875,-46.875,-33.203125
-87.890625,-99.609375,-54.6875,-64.94140625
-130.859375,-113.76953125,-57.12890625,-84.47265625
-64.453125,-64.453125,-45.41015625,-56.640625
14.16015625,-22.94921875,-31.73828125,-23.4375
-10.25390625,-57.6171875,-42.96875,-41.015625
-89.35546875,-104.98046875,-68.84765625,-84.47265625
-134.765625,-116.2109375,-78.61328125,-99.12109375
-69.3359375,-72.75390625,-62.01171875,-59.5703125
14.16015625,-32.2265625,-42.48046875,-23.92578125
10.25390625,-44.921875,-38.0859375,-31.25
-63.4765625,-89.84375,-53.7109375,-66.89453125
-117.67578125,-103.515625,-63.96484375,-84.47265625
-73.73046875,-67.87109375,-49.8046875,-54.6875
-0.48828125,-34.1796875,-37.59765625,-20.01953125
8.7890625,-28.80859375,-34.66796875,-14.16015625
-58.59375,-76.171875,-47.8515625,-44.921875
-126.953125,-120.1171875,-69.82421875,-80.078125
-91.30859375,-88.37890625,-58.10546875,-64.94140625
-9.27734375,-41.50390625,-37.59765625,-31.73828125
11.71875,-35.15625,-44.43359375,-32.2265625
-56.15234375,-74.21875,-62.98828125,-70.3125
-129.39453125,-113.28125,-71.2890625,-98.14453125
-112.3046875,-89.84375,-59.5703125,-83.49609375
-26.85546875,-41.015625,-38.0859375,-43.9453125
6.34765625,-34.66796875,-35.64453125,-25.87890625
-50.78125,-71.77734375,-49.31640625,-56.15234375
-112.3046875,-92.7734375,-62.5,-81.0546875
-110.83984375,-84.9609375,-58.10546875,-72.75390625
-26.85546875,-51.26953125,-35.15625,-28.80859375
18.5546875,-28.3203125,-22.94921875,-5.859375
-31.25,-52.734375,-36.62109375,-38.57421875
-100.09765625,-93.75,-57.12890625,-76.171875
-101.07421875,-91.30859375,-60.546875,-77.63671875
-5.37109375,-42.48046875,-37.59765625,-22.4609375
36.62109375,-23.4375,-26.3671875,-0.9765625
-29.296875,-57.6171875,-43.45703125,-43.9453125
-110.83984375,-99.12109375,-47.36328125,-83.49609375
-129.8828125,-97.65625,-43.45703125,-85.9375
-40.52734375,-44.921875,-31.25,-37.59765625
9.765625,-28.80859375,-18.5546875,-15.13671875
-31.25,-66.89453125,-29.78515625,-40.0390625
-95.703125,-91.796875,-43.45703125,-67.87109375
-132.32421875,-99.609375,-48.828125,-79.1015625
-64.453125,-69.3359375,-38.0859375,-50.78125
9.765625,-35.64453125,-23.92578125,-18.06640625
-9.27734375,-52.734375,-35.64453125,-25.87890625
-80.078125,-94.23828125,-56.15234375,-60.546875
-127.44140625,-110.83984375,-66.40625,-80.56640625
-63.96484375,-69.82421875,-52.734375,-49.31640625
19.53125,-33.203125,-36.1328125,-14.6484375
10.25390625,-44.921875,-43.45703125,-24.4140625
-65.4296875,-90.33203125,-62.5,-64.94140625
-123.53515625,-112.3046875,-60.05859375,-82.03125
-74.21875,-63.96484375,-35.64453125,-44.921875
-6.34765625,-35.15625,-28.3203125,-21.97265625
-11.71875,-51.26953125,-40.0390625,-39.0625
-80.56640625,-91.30859375,-58.10546875,-75.68359375
-139.6484375,-120.60546875,-63.96484375,-94.7265625
-98.14453125,-84.47265625,-45.8984375,-68.359375
-15.625,-37.109375,-31.73828125,-29.78515625
0.0,-44.921875,-38.57421875,-24.90234375
-62.01171875,-93.26171875,-59.08203125,-61.03515625
-117.67578125,-109.86328125,-64.453125,-79.58984375
-86.9140625,-81.0546875,-49.8046875,-66.40625
14.16015625,-35.15625,-17.578125,-16.11328125
46.38671875,-23.4375,-13.18359375,0.0
-41.50390625,-82.51953125,-49.8046875,-53.22265625
-115.72265625,-121.58203125,-63.96484375,-79.58984375
-97.65625,-99.12109375,-53.22265625,-65.4296875
-3.90625,-44.43359375,-31.73828125,-16.6015625
32.2265625,-27.34375,-28.80859375,-0.48828125
-21.97265625,-66.89453125,-45.41015625,-33.69140625
-88.8671875,-107.421875,-63.96484375,-62.5
-97.65625,-95.703125,-59.5703125,-63.4765625
-27.83203125,-43.9453125,-40.52734375,-29.296875
10.25390625,-28.80859375,-35.64453125,-20.99609375
-45.8984375,-71.77734375,-48.828125,-60.546875
-121.58203125,-110.83984375,-66.40625,-95.703125
-135.7421875,-107.91015625,-65.4296875,-103.515625
-53.7109375,-65.4296875,-46.38671875,-62.5
11.23046875,-37.59765625,-38.57421875,-30.2734375
-24.90234375,-66.40625,-49.8046875,-53.22265625
-99.609375,-102.05078125,-61.03515625,-87.40234375
-119.62890625,-99.12109375,-61.03515625,-90.33203125
-41.015625,-57.12890625,-39.55078125,-48.828125
29.296875,-23.4375,-24.4140625,-18.06640625
4.39453125,-41.015625,-38.0859375,-30.2734375
-72.75390625,-91.796875,-56.640625,-58.59375
-116.69921875,-113.76953125,-59.5703125,-73.2421875
-58.10546875,-70.80078125,-46.38671875,-54.19921875
16.6015625,-32.2265625,-37.109375,-24.4140625
0.9765625,-47.8515625,-44.43359375,-28.80859375
-83.0078125,-86.9140625,-60.546875,-69.3359375
-132.8125,-104.00390625,-63.4765625,-81.54296875
-78.125,-69.82421875,-41.9921875,-48.828125
-3.41796875,-32.71484375,-26.3671875,-14.6484375
-4.8828125,-46.38671875,-32.71484375,-16.11328125
-75.68359375,-86.42578125,-52.734375,-59.5703125
-129.39453125,-98.14453125,-62.98828125,-80.078125
-88.37890625,-76.171875,-55.17578125,-58.10546875
-0.9765625,-38.0859375,-38.57421875,-20.99609375
14.16015625,-29.78515625,-34.66796875,-13.671875
-62.5,-83.0078125,-59.5703125,-60.05859375
-127.44140625,-115.72265625,-75.68359375,-93.26171875
-80.56640625,-76.171875,-54.6875,-65.91796875
3.41796875,-24.90234375,-41.50390625,-22.94921875
22.4609375,-20.01953125,-44.43359375,-13.671875
-36.62109375,-67.87109375,-60.05859375,-55.17578125
-102.5390625,-98.6328125,-71.77734375,-87.40234375
-81.54296875,-69.82421875,-60.05859375,-69.82421875
0.48828125,-26.3671875,-47.8515625,-31.73828125
29.296875,-22.94921875,-45.8984375,-24.90234375
-32.71484375,-67.87109375,-52.24609375,-58.59375
-108.3984375,-103.515625,-61.5234375,-90.8203125
-105.46875,-88.37890625,-57.6171875,-82.51953125
-17.08984375,-32.71484375,-35.15625,-25.87890625
30.2734375,-11.23046875,-25.390625,-3.41796875
-20.5078125,-62.01171875,-41.50390625,-34.66796875
-88.37890625,-103.02734375,-58.59375,-58.59375
-96.6796875,-94.23828125,-59.08203125,-62.5
-17.578125,-46.875,-37.59765625,-35.64453125
31.25,-20.99609375,-26.85546875,-13.18359375
-14.16015625,-51.7578125,-41.015625,-36.1328125
-91.30859375,-98.6328125,-57.6171875,-74.70703125
-113.28125,-109.375,-56.15234375,-81.0546875
-41.50390625,-61.03515625,-43.45703125,-41.9921875
10.25390625,-29.296875,-39.55078125,-22.94921875
-22.94921875,-57.6171875,-45.8984375,-40.0390625
-93.75,-96.19140625,-62.01171875,-69.82421875
-129.8828125,-106.4453125,-71.2890625,-86.9140625
-59.08203125,-61.03515625,-43.9453125,-46.875
16.11328125,-26.85546875,-27.83203125,-9.765625
-2.44140625,-61.5234375,-43.45703125,-27.83203125
-74.21875,-106.93359375,-53.7109375,-59.5703125
-115.234375,-112.79296875,-53.7109375,-66.89453125
-53.7109375,-74.21875,-42.96875,-34.66796875
21.484375,-42.48046875,-33.203125,-2.9296875
20.99609375,-42.48046875,-30.2734375,-6.8359375
-46.38671875,-75.1953125,-45.8984375,-40.52734375
-102.05078125,-109.375,-63.4765625,-66.89453125
-56.640625,-74.21875,-47.8515625,-45.8984375
22.94921875,-24.90234375,-26.3671875,-6.8359375
25.390625,-38.0859375,-35.64453125,-13.18359375
-41.9921875,-90.33203125,-60.546875,-54.6875
-93.26171875,-119.62890625,-70.3125,-67.87109375
-70.80078125,-88.8671875,-51.26953125,-56.15234375
-8.30078125,-40.52734375,-30.76171875,-32.71484375
10.7421875,-39.0625,-35.64453125,-21.97265625
-52.734375,-89.84375,-49.31640625,-52.24609375
-125.9765625,-117.67578125,-55.6640625,-77.1484375
-107.91015625,-88.8671875,-53.22265625,-73.2421875
-29.78515625,-50.29296875,-41.9921875,-41.9921875
-0.9765625,-42.48046875,-42.48046875,-24.4140625
-54.6875,-80.078125,-59.5703125,-55.6640625
-121.09375,-115.234375,-71.77734375,-83.984375
-108.3984375,-97.16796875,-59.5703125,-71.77734375
-20.99609375,-42.96875,-41.9921875,-28.3203125
22.4609375,-24.90234375,-34.66796875,-8.7890625
-30.2734375,-60.05859375,-49.31640625,-37.109375
-109.86328125,-112.3046875,-77.1484375,-72.75390625
-111.328125,-102.5390625,-69.3359375,-71.77734375
-28.80859375,-45.41015625,-44.921875,-37.109375
15.625,-35.15625,-41.015625,-23.4375
-28.80859375,-67.3828125,-51.7578125,-49.8046875
-108.3984375,-111.81640625,-69.3359375,-83.49609375
-130.859375,-108.88671875,-67.3828125,-90.33203125
-47.8515625,-52.24609375,-43.9453125,-47.36328125
9.27734375,-23.4375,-37.109375,-19.53125
-35.15625,-55.6640625,-56.15234375,-45.41015625
-99.609375,-90.8203125,-63.4765625,-72.265625
-130.37109375,-96.19140625,-64.94140625,-88.8671875
-63.4765625,-63.96484375,-49.8046875,-56.640625
11.23046875,-28.80859375,-27.83203125,-13.671875
-9.27734375,-52.24609375,-36.1328125,-26.3671875
-79.58984375,-101.5625,-56.640625,-61.03515625
-123.53515625,-109.375,-62.5,-75.1953125
-53.7109375,-62.98828125,-39.0625,-35.15625
24.4140625,-32.71484375,-25.390625,-1.953125
5.859375,-51.7578125,-29.78515625,-15.625
-59.08203125,-83.49609375,-42.48046875,-54.19921875
-102.5390625,-98.14453125,-52.24609375,-74.21875
-54.6875,-64.94140625,-36.1328125,-39.55078125
24.4140625,-30.2734375,-23.4375,3.41796875
41.50390625,-33.69140625,-26.3671875,20.5078125
-40.0390625,-79.1015625,-44.921875,-31.25
-114.2578125,-112.79296875,-58.10546875,-78.61328125
-68.84765625,-72.75390625,-42.96875,-57.12890625
11.23046875,-30.2734375,-29.78515625,-25.87890625
32.2265625,-31.25,-33.69140625,-10.7421875
-38.0859375,-77.1484375,-52.734375,-46.38671875
-113.76953125,-108.88671875,-68.359375,-83.984375
-91.30859375,-83.984375,-58.59375,-70.3125
-6.8359375,-48.33984375,-36.62109375,-33.69140625
23.92578125,-37.59765625,-32.2265625,-25.87890625
-35.64453125,-74.70703125,-52.734375,-62.98828125
-106.4453125,-109.86328125,-65.4296875,-90.8203125
-98.14453125,-93.75,-58.59375,-78.61328125
-17.578125,-47.8515625,-41.015625,-36.1328125
22.4609375,-33.69140625,-30.76171875,-17.08984375
-35.15625,-77.63671875,-43.45703125,-48.33984375
-107.421875,-117.1875,-60.546875,-79.1015625
-105.46875,-98.6328125,-61.03515625,-77.1484375
-26.85546875,-48.33984375,-42.96875,-39.55078125
21.484375,-29.78515625,-36.62109375,-20.99609375
-29.78515625,-71.2890625,-57.12890625,-48.828125
-107.421875,-111.328125,-70.80078125,-79.1015625
-116.2109375,-93.75,-60.546875,-76.171875
-35.64453125,-48.828125,-40.0390625,-37.59765625
16.6015625,-40.0390625,-34.1796875,-20.99609375
-25.87890625,-77.1484375,-47.36328125,-45.41015625
-93.75,-106.4453125,-66.40625,-77.1484375
-115.72265625,-106.4453125,-64.94140625,-84.9609375
-37.109375,-63.4765625,-44.921875,-47.8515625
30.76171875,-29.296875,-42.48046875,-19.04296875
-3.41796875,-59.5703125,-55.6640625,-37.59765625
-76.66015625,-102.5390625,-65.4296875,-69.82421875
-119.62890625,-117.67578125,-68.84765625,-82.03125
-47.8515625,-69.82421875,-52.24609375,-45.41015625
32.2265625,-21.97265625,-39.55078125,-6.8359375
6.8359375,-48.33984375,-49.31640625,-23.92578125
-66.89453125,-95.21484375,-62.5,-63.4765625
-114.74609375,-108.3984375,-68.359375,-83.984375
-66.40625,-73.2421875,-56.15234375,-59.08203125
10.25390625,-34.66796875,-40.0390625,-23.4375
7.32421875,-41.50390625,-43.45703125,-29.78515625
-66.89453125,-83.0078125,-58.59375,-66.89453125
-129.39453125,-116.2109375,-64.94140625,-89.35546875
-89.84375,-83.49609375,-53.22265625,-66.89453125
-9.765625,-46.38671875,-33.69140625,-34.1796875
-5.37109375,-49.8046875,-32.2265625,-33.203125
-75.1953125,-81.54296875,-52.24609375,-67.3828125
-137.20703125,-120.1171875,-69.82421875,-95.21484375
-101.5625,-102.05078125,-58.10546875,-79.1015625
-7.8125,-53.7109375,-34.66796875,-34.1796875
10.7421875,-57.6171875,-34.66796875,-26.3671875
-59.5703125,-109.86328125,-56.640625,-63.4765625
-116.2109375,-136.23046875,-67.87109375,-84.9609375
-95.703125,-116.69921875,-57.12890625,-70.80078125
-17.578125,-79.58984375,-37.109375,-31.25
26.85546875,-63.4765625,-33.69140625,-16.6015625
-28.3203125,-105.46875,-54.6875,-46.38671875
-105.46875,-144.04296875,-63.4765625,-76.171875
-98.14453125,-119.140625,-56.640625,-73.73046875
-10.25390625,-75.1953125,-44.43359375,-38.57421875
34.66796875,-66.89453125,-39.0625,-21.484375
-25.87890625,-104.98046875,-57.6171875,-56.15234375
-95.21484375,-136.71875,-67.87109375,-86.42578125
-90.8203125,-123.046875,-53.22265625,-80.078125
-11.23046875,-78.61328125,-36.1328125,-41.50390625
37.59765625,-56.640625,-29.296875,-21.97265625
-14.16015625,-91.796875,-41.50390625,-42.48046875
-93.26171875,-129.39453125,-59.5703125,-64.453125
-123.046875,-133.7890625,-64.94140625,-75.1953125
-44.921875,-84.47265625,-46.38671875,-44.43359375
28.3203125,-37.109375,-30.2734375,-12.20703125
-14.16015625,-72.265625,-46.38671875,-37.59765625
-96.6796875,-127.9296875,-73.2421875,-87.40234375
-123.53515625,-124.51171875,-74.21875,-92.7734375
-49.31640625,-74.70703125,-43.9453125,-48.828125
20.01953125,-45.8984375,-28.80859375,-20.99609375
-4.8828125,-69.82421875,-44.43359375,-34.66796875
-81.0546875,-112.3046875,-60.05859375,-69.82421875
-118.1640625,-122.0703125,-59.08203125,-84.47265625
-50.78125,-79.1015625,-40.52734375,-50.78125
23.4375,-42.48046875,-29.78515625,-18.5546875
5.37109375,-57.6171875,-35.64453125,-28.3203125
-59.08203125,-91.30859375,-48.33984375,-63.4765625
-106.93359375,-109.86328125,-59.5703125,-76.66015625
-74.70703125,-100.5859375,-59.5703125,-61.5234375
5.859375,-62.98828125,-36.1328125,-36.62109375
23.92578125,-47.36328125,-28.3203125,-31.25
-48.33984375,-86.42578125,-49.8046875,-66.89453125
-115.72265625,-118.65234375,-56.15234375,-93.26171875
-80.078125,-87.40234375,-45.8984375,-76.171875
-1.46484375,-42.48046875,-33.203125,-39.0625
11.23046875,-44.921875,-33.69140625,-36.1328125
-58.10546875,-87.40234375,-53.22265625,-71.2890625
-124.51171875,-113.76953125,-65.4296875,-85.44921875
-92.7734375,-76.171875,-49.31640625,-61.03515625
-10.7421875,-38.0859375,-37.59765625,-24.4140625
12.20703125,-43.45703125,-44.43359375,-13.671875
-44.43359375,-80.56640625,-56.15234375,-45.41015625
-105.46875,-113.76953125,-66.40625,-78.125
-87.890625,-91.796875,-62.5,-67.3828125
-3.90625,-45.8984375,-45.41015625,-22.94921875
36.62109375,-31.73828125,-34.1796875,-6.34765625
-17.08984375,-67.3828125,-43.9453125,-34.66796875
-90.33203125,-104.00390625,-57.6171875,-69.3359375
-96.19140625,-88.8671875,-60.05859375,-69.3359375
-11.71875,-39.55078125,-41.9921875,-24.4140625
33.69140625,-19.53125,-29.78515625,-5.859375
-22.4609375,-60.05859375,-54.6875,-40.0390625
-98.6328125,-103.515625,-69.3359375,-71.2890625
-116.69921875,-98.14453125,-56.15234375,-72.75390625
-33.69140625,-48.828125,-42.48046875,-35.15625
23.92578125,-20.5078125,-33.203125,-10.7421875
-13.671875,-50.78125,-38.0859375,-34.66796875
-84.9609375,-91.30859375,-54.6875,-69.3359375
-117.67578125,-95.703125,-60.546875,-85.9375
-40.52734375,-52.24609375,-41.015625,-49.31640625
34.66796875,-23.92578125,-28.3203125,-18.06640625
6.8359375,-53.7109375,-45.8984375,-40.0390625
-62.01171875,-88.8671875,-63.96484375,-69.3359375
-97.65625,-105.46875,-62.01171875,-79.58984375
-46.38671875,-73.2421875,-42.96875,-52.24609375
26.85546875,-29.296875,-25.390625,-17.08984375
5.37109375,-41.015625,-21.484375,-26.3671875
-84.47265625,-90.33203125,-45.41015625,-71.77734375
-127.44140625,-112.3046875,-64.453125,-91.796875
-64.453125,-66.89453125,-49.31640625,-57.12890625
7.32421875,-31.73828125,-37.59765625,-26.3671875
3.41796875,-40.0390625,-44.43359375,-31.25
-72.265625,-87.40234375,-63.96484375,-68.84765625
-129.8828125,-114.74609375,-72.265625,-89.35546875
-74.70703125,-65.91796875,-50.78125,-55.17578125
2.44140625,-28.80859375,-37.109375,-20.99609375
2.44140625,-46.38671875,-40.52734375,-21.484375
-63.4765625,-80.56640625,-57.12890625,-52.24609375
-118.1640625,-100.5859375,-68.359375,-77.63671875
-84.47265625,-79.1015625,-53.7109375,-57.6171875
-4.39453125,-38.57421875,-34.66796875,-16.6015625
13.671875,-33.69140625,-33.203125,-18.06640625
-55.6640625,-73.73046875,-54.19921875,-60.546875
-121.58203125,-101.07421875,-67.87109375,-85.9375
-103.515625,-86.42578125,-57.6171875,-75.68359375
-24.90234375,-41.50390625,-42.48046875,-41.50390625
13.18359375,-22.4609375,-35.64453125,-29.296875
-48.33984375,-70.3125,-54.19921875,-69.82421875
-121.58203125,-115.72265625,-68.359375,-98.6328125
-114.2578125,-98.6328125,-64.94140625,-87.40234375
-31.25,-47.36328125,-52.24609375,-45.41015625
17.08984375,-31.73828125,-42.96875,-28.80859375
-32.71484375,-68.359375,-53.7109375,-60.546875
-110.83984375,-107.421875,-65.4296875,-93.26171875
-117.67578125,-96.6796875,-64.453125,-97.16796875
-33.69140625,-39.0625,-47.36328125,-54.6875
8.7890625,-19.04296875,-39.0625,-33.203125
-34.1796875,-56.15234375,-53.7109375,-54.19921875
-99.609375,-87.890625,-64.94140625,-81.0546875
-123.046875,-95.703125,-60.05859375,-89.35546875
-42.96875,-51.26953125,-35.64453125,-45.41015625
11.23046875,-23.92578125,-35.64453125,-20.99609375
-27.83203125,-59.5703125,-49.8046875,-37.109375
-93.75,-92.7734375,-58.10546875,-69.82421875
-126.46484375,-96.6796875,-61.03515625,-84.47265625
-56.640625,-55.6640625,-44.43359375,-46.38671875
17.08984375,-20.5078125,-29.78515625,-16.11328125
-4.8828125,-39.0625,-40.0390625,-35.64453125
-80.56640625,-82.03125,-58.59375,-75.1953125
-127.44140625,-96.19140625,-60.05859375,-86.42578125
-73.2421875,-59.5703125,-42.48046875,-52.734375
6.8359375,-24.90234375,-27.34375,-21.97265625
-10.7421875,-51.26953125,-43.9453125,-34.66796875
-92.7734375,-97.16796875,-63.4765625,-71.2890625
-133.30078125,-107.91015625,-61.5234375,-86.42578125
-76.66015625,-60.05859375,-46.38671875,-52.24609375
-7.8125,-22.94921875,-41.50390625,-25.390625
-9.27734375,-41.015625,-47.36328125,-34.1796875
-75.68359375,-80.078125,-59.08203125,-61.03515625
-139.6484375,-106.93359375,-69.82421875,-83.49609375
-101.07421875,-81.0546875,-58.10546875,-65.4296875
-10.25390625,-38.0859375,-39.55078125,-30.76171875
16.11328125,-25.390625,-33.203125,-20.99609375
-51.26953125,-70.3125,-52.734375,-57.12890625
-126.953125,-117.67578125,-75.1953125,-93.26171875
-98.6328125,-82.51953125,-59.08203125,-67.3828125
-7.32421875,-36.1328125,-30.2734375,-20.99609375
20.5078125,-32.2265625,-29.78515625,-16.6015625
-42.48046875,-67.87109375,-54.19921875,-52.24609375
-110.3515625,-97.16796875,-67.87109375,-78.61328125
-96.19140625,-76.66015625,-54.6875,-65.4296875
-21.484375,-40.0390625,-45.8984375,-33.69140625
17.08984375,-30.2734375,-44.43359375,-26.3671875
-29.296875,-59.5703125,-49.31640625,-48.828125
-91.796875,-86.42578125,-64.453125,-71.77734375
-111.328125,-87.40234375,-75.1953125,-79.58984375
-42.48046875,-55.17578125,-52.734375,-39.55078125
23.92578125,-22.4609375,-23.92578125,-4.39453125
-25.87890625,-48.828125,-37.109375,-32.71484375
-101.5625,-82.51953125,-50.78125,-69.82421875
-121.09375,-86.9140625,-49.8046875,-81.54296875
-41.015625,-44.921875,-32.71484375,-41.015625
20.01953125,-19.53125,-25.390625,-17.08984375
-24.90234375,-52.24609375,-44.43359375,-46.875
-103.515625,-90.8203125,-63.4765625,-84.47265625
-136.23046875,-90.33203125,-64.453125,-97.16796875
-62.01171875,-32.71484375,-43.45703125,-56.640625
-7.32421875,-12.20703125,-42.96875,-36.62109375
-36.1328125,-47.8515625,-55.6640625,-57.12890625
-92.28515625,-76.66015625,-59.08203125,-78.125
-124.51171875,-86.9140625,-67.3828125,-90.8203125
-59.08203125,-47.36328125,-49.8046875,-51.26953125
14.6484375,-9.765625,-26.85546875,-15.625
1.953125,-28.80859375,-36.62109375,-32.71484375
-67.3828125,-72.75390625,-58.59375,-65.4296875
-112.79296875,-90.8203125,-59.5703125,-66.89453125
-71.77734375,-54.6875,-38.57421875,-37.109375
1.953125,-13.18359375,-26.85546875,-7.8125
-1.46484375,-23.4375,-35.64453125,-15.625
-79.58984375,-80.56640625,-57.12890625,-61.5234375
-125.0,-110.83984375,-60.05859375,-82.03125
-77.1484375,-74.21875,-37.109375,-52.734375
-4.39453125,-35.64453125,-29.296875,-22.4609375
8.30078125,-38.0859375,-40.0390625,-24.4140625
-57.12890625,-80.078125,-52.734375,-58.10546875
-118.65234375,-103.515625,-57.12890625,-78.61328125
-81.54296875,-66.89453125,-43.45703125,-55.17578125
3.41796875,-25.390625,-28.3203125,-15.13671875
32.71484375,-23.4375,-27.83203125,-1.953125
-29.296875,-55.17578125,-39.0625,-29.78515625
-98.6328125,-72.265625,-43.9453125,-49.31640625
-86.42578125,-66.89453125,-45.8984375,-45.41015625
-4.39453125,-33.203125,-37.109375,-8.30078125
26.3671875,-15.625,-32.71484375,9.27734375
-38.0859375,-60.05859375,-53.7109375,-30.2734375
-102.5390625,-92.7734375,-61.5234375,-62.5
-97.16796875,-71.77734375,-50.29296875,-56.15234375
-19.04296875,-25.390625,-34.66796875,-20.01953125
21.97265625,-4.39453125,-24.90234375,-8.30078125
-25.390625,-35.15625,-35.15625,-37.59765625
-100.5859375,-76.66015625,-51.7578125,-72.75390625
-116.69921875,-77.1484375,-51.7578125,-82.03125
-31.73828125,-25.390625,-33.203125,-37.109375
25.390625,-8.30078125,-30.2734375,-11.71875
-23.4375,-50.29296875,-42.96875,-38.0859375
-104.4921875,-90.8203125,-62.01171875,-77.63671875
-128.90625,-95.21484375,-67.87109375,-91.796875
-37.59765625,-35.15625,-39.0625,-39.0625
33.203125,-5.37109375,-25.87890625,-8.7890625
-7.8125,-42.48046875,-40.52734375,-34.66796875
-86.42578125,-79.1015625,-52.734375,-68.84765625
-116.2109375,-87.890625,-49.8046875,-73.73046875
-47.8515625,-53.22265625,-33.203125,-39.55078125
20.5078125,-15.625,-21.484375,-16.6015625
3.41796875,-24.4140625,-34.66796875,-35.64453125
-69.82421875,-72.75390625,-57.12890625,-73.73046875
-118.1640625,-95.703125,-63.96484375,-87.890625
-63.96484375,-62.98828125,-56.15234375,-63.4765625
19.04296875,-19.53125,-38.57421875,-24.4140625
12.20703125,-23.92578125,-37.59765625,-22.4609375
-67.3828125,-71.77734375,-57.12890625,-63.4765625
-116.69921875,-96.6796875,-63.4765625,-83.984375
-68.359375,-62.98828125,-44.43359375,-53.7109375
3.90625,-23.92578125,-31.25,-22.94921875
11.71875,-35.64453125,-36.62109375,-27.34375
-56.640625,-79.1015625,-54.19921875,-62.98828125
-114.2578125,-92.7734375,-59.5703125,-90.33203125
-77.1484375,-53.7109375,-39.0625,-67.3828125
-2.9296875,-24.90234375,-30.76171875,-31.25
18.06640625,-21.484375,-35.64453125,-27.34375
-46.875,-57.6171875,-52.24609375,-58.59375
-115.72265625,-91.796875,-65.91796875,-77.1484375
-94.7265625,-65.4296875,-62.01171875,-61.03515625
-13.18359375,-25.87890625,-47.36328125,-24.4140625
25.87890625,-7.8125,-32.2265625,-4.8828125
-36.1328125,-47.36328125,-46.38671875,-41.50390625
-111.81640625,-90.33203125,-63.4765625,-72.265625
-99.609375,-71.2890625,-54.6875,-64.94140625
-15.625,-16.6015625,-38.0859375,-28.80859375
22.4609375,-6.34765625,-35.15625,-14.16015625
-26.85546875,-47.36328125,-47.8515625,-42.48046875
-95.703125,-79.58984375,-65.91796875,-71.2890625
-111.81640625,-82.51953125,-63.4765625,-77.63671875
-28.3203125,-33.203125,-35.64453125,-30.2734375
26.3671875,-9.27734375,-23.92578125,1.953125
-22.94921875,-52.734375,-43.9453125,-32.2265625
-95.21484375,-91.30859375,-58.10546875,-67.3828125
-116.69921875,-85.9375,-57.6171875,-77.1484375
-35.64453125,-41.015625,-38.57421875,-43.45703125
27.34375,-12.20703125,-28.3203125,-11.71875
-12.20703125,-31.73828125,-38.57421875,-31.73828125
-88.37890625,-70.3125,-50.29296875,-64.94140625
-127.44140625,-94.23828125,-59.08203125,-79.1015625
-53.22265625,-44.43359375,-44.921875,-40.52734375
36.1328125,-4.39453125,-27.83203125,0.9765625
-0.9765625,-32.2265625,-38.0859375,-22.4609375
-102.05078125,-71.77734375,-56.640625,-74.21875
-143.5546875,-92.7734375,-62.98828125,-90.33203125
-70.80078125,-53.22265625,-41.50390625,-51.7578125
3.90625,-8.7890625,-27.83203125,-20.01953125
-10.7421875,-31.25,-36.62109375,-29.296875
-87.40234375,-78.125,-53.22265625,-73.73046875
-136.71875,-91.796875,-61.5234375,-100.09765625
-83.0078125,-60.05859375,-48.33984375,-63.4765625
3.90625,-23.92578125,-36.62109375,-20.99609375
10.7421875,-30.2734375,-35.64453125,-16.6015625
-66.89453125,-75.68359375,-52.734375,-56.640625
-132.8125,-106.4453125,-65.91796875,-90.33203125
-84.47265625,-67.87109375,-47.36328125,-60.05859375
0.9765625,-17.08984375,-31.73828125,-20.5078125
7.32421875,-11.23046875,-41.015625,-22.94921875
-65.91796875,-63.96484375,-62.5,-63.96484375
-126.953125,-104.4921875,-73.2421875,-95.21484375
-91.30859375,-71.2890625,-57.12890625,-77.63671875
-6.34765625,-16.6015625,-41.50390625,-37.59765625
19.04296875,-14.6484375,-40.0390625,-29.296875
-45.8984375,-65.4296875,-55.17578125,-68.84765625
-118.65234375,-100.09765625,-70.80078125,-99.609375
-111.328125,-84.47265625,-62.98828125,-86.9140625
-28.80859375,-35.64453125,-45.8984375,-40.52734375
18.06640625,-14.6484375,-36.1328125,-17.578125
-41.9921875,-58.10546875,-45.8984375,-48.828125
-111.81640625,-98.6328125,-61.5234375,-81.54296875
-104.98046875,-85.9375,-56.640625,-80.56640625
-21.97265625,-42.48046875,-34.66796875,-36.62109375
25.87890625,-16.6015625,-32.71484375,-16.11328125
-19.04296875,-44.921875,-48.828125,-45.41015625
-97.65625,-96.19140625,-69.82421875,-83.0078125
-121.58203125,-98.6328125,-76.171875,-95.21484375
-29.78515625,-37.59765625,-45.41015625,-42.96875
33.203125,0.48828125,-26.85546875,-10.7421875
-11.23046875,-35.64453125,-43.45703125,-45.8984375
-85.44921875,-83.49609375,-61.03515625,-83.49609375
-116.2109375,-91.30859375,-66.89453125,-89.35546875
-40.52734375,-38.57421875,-46.38671875,-48.828125
26.85546875,-6.34765625,-29.78515625,-19.04296875
-2.44140625,-33.69140625,-42.48046875,-32.71484375
-77.63671875,-69.3359375,-59.08203125,-56.15234375
-116.69921875,-73.73046875,-65.91796875,-67.87109375
-44.921875,-38.57421875,-53.7109375,-39.55078125
25.390625,-11.71875,-36.1328125,-8.7890625
3.41796875,-26.85546875,-39.0625,-21.484375
-76.171875,-74.70703125,-56.640625,-59.5703125
-126.46484375,-93.26171875,-62.98828125,-81.0546875
-61.5234375,-43.9453125,-43.45703125,-47.36328125
15.625,-4.8828125,-31.25,-15.625
10.25390625,-20.99609375,-45.8984375,-24.4140625
-58.59375,-60.546875,-62.01171875,-58.59375
-118.65234375,-91.30859375,-64.94140625,-80.078125
-69.3359375,-55.6640625,-50.29296875,-49.31640625
16.6015625,2.9296875,-35.64453125,-11.71875
23.4375,-1.953125,-40.52734375,-12.6953125
-42.48046875,-55.17578125,-55.17578125,-44.921875
-100.5859375,-87.40234375,-62.98828125,-70.3125
-65.91796875,-58.59375,-53.7109375,-58.10546875
19.53125,-6.34765625,-35.15625,-16.6015625
25.390625,-3.90625,-33.203125,-12.6953125
-57.12890625,-61.5234375,-56.640625,-55.6640625
-114.74609375,-91.796875,-60.546875,-75.68359375
-93.75,-63.96484375,-44.43359375,-61.03515625
-12.6953125,-16.11328125,-29.296875,-22.94921875
19.04296875,-8.7890625,-23.92578125,-9.765625
-41.9921875,-47.8515625,-39.55078125,-40.52734375
-104.4921875,-84.9609375,-51.26953125,-60.05859375
-103.515625,-79.58984375,-50.29296875,-58.10546875
-27.83203125,-28.3203125,-40.52734375,-32.71484375
24.4140625,-8.7890625,-34.1796875,-8.7890625
-26.3671875,-44.921875,-53.22265625,-37.109375
-107.91015625,-77.63671875,-72.75390625,-81.0546875
-115.72265625,-72.75390625,-72.265625,-85.44921875
-31.73828125,-25.87890625,-50.29296875,-45.41015625
18.5546875,-5.37109375,-37.59765625,-27.34375
-32.2265625,-48.33984375,-58.10546875,-56.640625
-106.93359375,-87.890625,-79.58984375,-88.8671875
-114.2578125,-78.125,-77.1484375,-84.9609375
-30.2734375,-26.3671875,-53.22265625,-35.15625
23.92578125,-2.9296875,-43.45703125,-8.7890625
-15.13671875,-26.85546875,-57.6171875,-34.1796875
-85.9375,-66.89453125,-73.2421875,-67.3828125
-122.55859375,-88.8671875,-73.2421875,-80.078125
-52.734375,-47.36328125,-47.36328125,-46.38671875
20.5078125,-7.32421875,-30.76171875,-18.5546875
-6.34765625,-29.296875,-43.9453125,-38.0859375
-82.03125,-73.2421875,-65.4296875,-73.2421875
-125.48828125,-88.8671875,-69.3359375,-86.42578125
-63.4765625,-47.36328125,-41.9921875,-51.7578125
20.5078125,1.46484375,-23.92578125,-18.5546875
5.859375,-27.34375,-37.109375,-39.0625
-71.2890625,-95.21484375,-62.5,-84.47265625
-117.1875,-102.05078125,-60.05859375,-99.609375
-58.59375,-46.875,-36.1328125,-55.6640625
20.5078125,-7.32421875,-25.87890625,-13.671875
17.578125,-24.4140625,-34.66796875,-20.99609375
-53.22265625,-66.40625,-50.78125,-53.22265625
-119.140625,-91.30859375,-60.546875,-83.0078125
-79.58984375,-61.5234375,-50.29296875,-64.94140625
10.25390625,-20.99609375,-30.2734375,-20.5078125
31.73828125,-17.08984375,-29.296875,-13.671875
-33.203125,-51.7578125,-48.828125,-49.8046875
-99.12109375,-92.28515625,-62.5,-77.1484375
-73.2421875,-73.73046875,-46.38671875,-59.5703125
4.39453125,-21.97265625,-29.78515625,-14.6484375
25.390625,-19.04296875,-36.62109375,-7.32421875
-49.8046875,-78.61328125,-60.05859375,-53.22265625
-119.140625,-111.81640625,-66.40625,-78.61328125
-107.421875,-83.984375,-52.24609375,-66.89453125
-30.76171875,-33.203125,-33.203125,-36.62109375
6.34765625,-18.5546875,-26.3671875,-28.80859375
-46.38671875,-57.6171875,-43.45703125,-58.59375
-110.3515625,-89.35546875,-59.5703125,-91.796875
-115.234375,-75.1953125,-56.15234375,-95.703125
-32.71484375,-31.73828125,-43.45703125,-50.78125
21.484375,-20.5078125,-37.109375,-26.85546875
-25.390625,-52.734375,-53.22265625,-51.26953125
-98.6328125,-87.890625,-68.84765625,-78.125
-108.3984375,-79.58984375,-57.6171875,-74.70703125
-22.4609375,-30.2734375,-34.66796875,-29.296875
36.62109375,-10.25390625,-27.83203125,-5.37109375
-11.71875,-43.9453125,-47.36328125,-35.15625
-92.28515625,-83.49609375,-65.4296875,-68.359375
-119.62890625,-87.890625,-63.4765625,-70.80078125
-41.50390625,-41.015625,-42.96875,-31.25
28.3203125,-7.32421875,-31.73828125,-6.8359375
-3.90625,-41.015625,-41.015625,-26.85546875
-80.078125,-87.40234375,-57.12890625,-64.453125
-123.046875,-101.07421875,-66.89453125,-78.125
-53.7109375,-61.03515625,-52.734375,-41.015625
28.3203125,-16.11328125,-34.1796875,-8.30078125
6.34765625,-30.76171875,-40.0390625,-28.3203125
-74.21875,-71.77734375,-60.05859375,-71.77734375
-117.67578125,-80.56640625,-66.89453125,-84.47265625
-61.03515625,-43.9453125,-43.9453125,-44.43359375
14.16015625,-9.765625,-26.3671875,-5.859375
15.625,-15.13671875,-37.59765625,-17.578125
-52.24609375,-57.12890625,-54.6875,-51.26953125
-112.79296875,-93.26171875,-60.05859375,-74.21875
-72.75390625,-63.96484375,-48.33984375,-55.6640625
10.7421875,-16.6015625,-32.2265625,-11.71875
20.99609375,-16.6015625,-36.1328125,-1.953125
-52.24609375,-56.640625,-54.19921875,-42.48046875
-124.0234375,-90.8203125,-63.96484375,-77.1484375
-98.6328125,-65.4296875,-50.78125,-65.91796875
-10.7421875,-13.18359375,-27.83203125,-29.78515625
