TP9,AF7,AF8,TP10
-170.41015625,7.32421875,-54.19921875,-200.68359375
136.23046875,220.703125,-37.109375,124.0234375
163.0859375,60.546875,-41.9921875,164.0625
62.98828125,-131.34765625,-40.52734375,103.02734375
-216.796875,-421.875,-46.875,-212.40234375
-206.54296875,-28.80859375,-51.26953125,-232.421875
119.62890625,248.046875,-37.59765625,115.72265625
178.7109375,83.49609375,-36.62109375,176.7578125
102.5390625,-61.5234375,-42.96875,136.71875
-166.9921875,-412.109375,-55.6640625,-151.85546875
-223.14453125,-137.20703125,-62.01171875,-247.0703125
111.328125,267.578125,-40.52734375,106.4453125
193.359375,116.2109375,-23.4375,195.3125
133.30078125,-38.57421875,-23.4375,174.31640625
-107.91015625,-354.00390625,-36.1328125,-87.40234375
-243.1640625,-202.63671875,-47.36328125,-266.6015625
79.1015625,254.8828125,-32.71484375,66.40625
200.68359375,151.85546875,-20.99609375,190.4296875
139.6484375,-13.671875,-23.4375,175.29296875
-92.7734375,-340.8203125,-40.0390625,-66.89453125
-264.16015625,-253.90625,-49.8046875,-291.015625
46.38671875,239.2578125,-41.9921875,30.2734375
203.61328125,166.50390625,-37.59765625,178.7109375
164.55078125,37.59765625,-32.2265625,166.9921875
-41.9921875,-291.015625,-38.57421875,-32.2265625
-281.73828125,-323.2421875,-55.6640625,-322.75390625
-11.23046875,229.4921875,-49.31640625,-41.9921875
191.89453125,208.0078125,-41.9921875,159.1796875
148.4375,43.9453125,-44.43359375,143.06640625
-39.0625,-214.35546875,-52.734375,-28.80859375
-308.59375,-375.9765625,-64.94140625,-341.796875
-89.84375,112.79296875,-61.03515625,-121.09375
159.1796875,199.70703125,-47.8515625,130.37109375
134.765625,44.921875,-39.55078125,134.765625
-24.4140625,-222.65625,-40.0390625,-6.34765625
-304.6875,-411.62109375,-54.6875,-339.35546875
-139.16015625,99.12109375,-54.19921875,-175.29296875
137.6953125,229.98046875,-36.62109375,115.234375
130.37109375,58.10546875,-31.73828125,120.60546875
-10.25390625,-206.54296875,-40.52734375,9.27734375
-299.8046875,-454.58984375,-61.5234375,-326.66015625
-191.40625,67.87109375,-61.03515625,-232.91015625
122.0703125,238.76953125,-41.015625,87.890625
129.8828125,10.7421875,-40.52734375,112.3046875
11.71875,-170.41015625,-43.9453125,38.57421875
-277.34375,-448.73046875,-54.19921875,-291.015625
-246.58203125,-58.10546875,-55.17578125,-275.390625
85.44921875,241.2109375,-41.015625,77.63671875
126.953125,87.890625,-41.50390625,128.41796875
33.69140625,-110.83984375,-41.50390625,79.1015625
-248.046875,-448.2421875,-52.24609375,-230.95703125
-290.0390625,-138.671875,-56.15234375,-293.9453125
52.24609375,233.88671875,-36.1328125,74.70703125
135.7421875,122.0703125,-27.83203125,156.25
73.73046875,-26.3671875,-31.25,133.30078125
-190.4296875,-414.0625,-42.48046875,-155.2734375
-297.36328125,-204.1015625,-51.26953125,-312.01171875
43.9453125,253.41796875,-38.0859375,50.78125
153.3203125,115.72265625,-35.15625,160.15625
93.75,-18.06640625,-40.0390625,136.71875
-147.4609375,-332.51953125,-52.734375,-119.62890625
-313.4765625,-262.20703125,-69.3359375,-347.16796875
15.13671875,230.46875,-58.59375,-7.32421875
173.828125,153.80859375,-41.015625,149.4140625
125.0,20.01953125,-34.1796875,138.671875
-97.65625,-277.83203125,-40.52734375,-82.03125
-325.1953125,-320.3125,-57.12890625,-364.2578125
-38.0859375,213.37890625,-52.734375,-57.6171875
163.0859375,202.63671875,-42.96875,145.99609375
119.62890625,12.20703125,-48.828125,126.46484375
-60.05859375,-262.6953125,-56.15234375,-46.875
-298.828125,-341.30859375,-62.01171875,-345.703125
-75.68359375,182.6171875,-54.6875,-120.1171875
144.53125,221.19140625,-51.26953125,107.421875
112.79296875,64.453125,-56.640625,110.3515625
-63.4765625,-231.93359375,-51.7578125,-38.57421875
-342.28515625,-402.83203125,-63.4765625,-378.90625
-148.92578125,145.99609375,-62.01171875,-188.96484375
132.32421875,233.88671875,-43.45703125,105.46875
119.140625,48.33984375,-38.0859375,116.69921875
-27.83203125,-210.44921875,-42.48046875,0.9765625
-323.2421875,-468.75,-60.546875,-341.796875
-186.03515625,54.19921875,-54.6875,-217.28515625
136.71875,273.4375,-39.0625,110.3515625
145.5078125,70.80078125,-41.50390625,131.8359375
29.78515625,-162.109375,-44.43359375,47.8515625
-266.11328125,-428.7109375,-60.546875,-284.1796875
-214.35546875,-28.80859375,-65.91796875,-250.48828125
112.3046875,248.046875,-49.8046875,90.8203125
147.94921875,125.9765625,-40.52734375,137.20703125
54.19921875,-98.6328125,-42.96875,74.21875
-244.140625,-448.73046875,-60.05859375,-249.0234375
-270.01953125,-108.3984375,-65.4296875,-292.48046875
81.0546875,258.7890625,-52.24609375,70.80078125
161.62109375,125.0,-39.0625,150.87890625
85.9375,-63.4765625,-30.2734375,120.1171875
-199.70703125,-424.8046875,-42.96875,-188.4765625
-287.109375,-156.73828125,-54.6875,-320.80078125
71.77734375,306.15234375,-39.0625,58.10546875
174.31640625,123.53515625,-35.15625,162.59765625
100.5859375,-48.33984375,-39.0625,127.9296875
-160.64453125,-333.0078125,-50.78125,-144.53125
-318.359375,-235.3515625,-67.3828125,-350.5859375
16.11328125,231.4453125,-52.734375,2.9296875
159.66796875,158.203125,-36.62109375,149.90234375
104.98046875,2.9296875,-30.2734375,136.23046875
-135.7421875,-323.2421875,-41.50390625,-104.00390625
-351.5625,-295.41015625,-56.15234375,-369.140625
-31.25,242.1875,-36.1328125,-33.203125
163.0859375,184.5703125,-26.3671875,159.1796875
111.81640625,38.57421875,-34.66796875,143.5546875
-96.19140625,-265.625,-42.96875,-49.8046875
-354.98046875,-369.62890625,-61.5234375,-358.3984375
-92.7734375,203.61328125,-58.10546875,-85.44921875
147.4609375,225.09765625,-42.96875,151.3671875
108.88671875,26.85546875,-41.015625,139.6484375
-72.265625,-261.71875,-40.0390625,-24.90234375
-350.09765625,-405.2734375,-49.31640625,-356.4453125
-137.20703125,138.671875,-45.8984375,-143.06640625
138.671875,222.65625,-30.76171875,135.7421875
121.09375,61.03515625,-26.85546875,140.625
-35.15625,-210.9375,-37.59765625,2.9296875
-336.9140625,-442.87109375,-56.640625,-349.609375
-181.640625,74.70703125,-53.7109375,-204.58984375
132.8125,244.140625,-39.55078125,110.83984375
134.27734375,108.88671875,-40.0390625,132.8125
-5.37109375,-170.41015625,-40.0390625,34.1796875
-314.94140625,-473.6328125,-50.29296875,-317.87109375
-232.421875,14.6484375,-51.7578125,-257.8125
115.234375,268.06640625,-28.80859375,97.16796875
141.6015625,96.6796875,-23.4375,133.30078125
11.71875,-141.6015625,-30.2734375,49.8046875
-297.8515625,-459.47265625,-45.8984375,-286.1328125
-289.55078125,-74.70703125,-59.08203125,-307.6171875
71.77734375,262.20703125,-49.31640625,58.10546875
130.37109375,83.0078125,-41.50390625,125.9765625
36.1328125,-104.98046875,-40.52734375,81.0546875
-255.859375,-436.5234375,-50.78125,-241.69921875
-316.89453125,-144.04296875,-56.15234375,-342.7734375
47.8515625,252.9296875,-42.96875,46.875
138.671875,104.98046875,-41.015625,144.53125
67.87109375,-40.0390625,-42.96875,120.60546875
-206.54296875,-381.8359375,-57.12890625,-163.0859375
-351.07421875,-193.84765625,-72.265625,-345.21484375
9.765625,258.30078125,-48.828125,27.34375
152.83203125,144.04296875,-28.3203125,159.66796875
84.47265625,7.8125,-27.34375,135.25390625
-173.33984375,-363.76953125,-42.96875,-135.7421875
-363.76953125,-291.9921875,-61.5234375,-385.7421875
-19.53125,285.64453125,-52.24609375,-20.99609375
153.80859375,159.66796875,-47.8515625,146.484375
101.5625,0.0,-37.59765625,128.90625
-118.1640625,-287.59765625,-36.1328125,-82.03125
-372.55859375,-345.21484375,-58.59375,-392.578125
-74.21875,232.421875,-52.24609375,-75.68359375
157.2265625,219.7265625,-35.15625,159.1796875
117.67578125,38.57421875,-31.73828125,146.484375
-82.03125,-265.625,-41.015625,-32.71484375
-370.1171875,-400.390625,-56.15234375,-375.48828125
-125.48828125,143.5546875,-50.78125,-129.8828125
165.0390625,230.46875,-36.62109375,166.015625
132.32421875,94.23828125,-27.34375,159.1796875
-69.3359375,-245.60546875,-29.78515625,-13.18359375
-374.0234375,-493.65234375,-48.828125,-377.44140625
-187.5,97.16796875,-44.921875,-195.3125
125.9765625,250.48828125,-30.76171875,127.9296875
116.2109375,52.24609375,-27.83203125,134.765625
-33.203125,-194.82421875,-31.25,17.08984375
-348.6328125,-480.46875,-53.7109375,-350.5859375
-240.72265625,27.34375,-61.5234375,-257.32421875
101.5625,270.99609375,-39.0625,94.7265625
122.0703125,71.2890625,-35.64453125,122.55859375
0.48828125,-148.4375,-44.43359375,39.0625
-306.15234375,-452.1484375,-50.78125,-304.6875
-278.3203125,-56.15234375,-54.19921875,-290.0390625
79.58984375,258.7890625,-36.62109375,91.30859375
130.37109375,98.14453125,-27.34375,150.390625
23.92578125,-119.140625,-31.73828125,93.26171875
-276.85546875,-458.0078125,-50.29296875,-244.62890625
-327.1484375,-131.34765625,-62.5,-335.44921875
33.69140625,258.7890625,-40.52734375,48.33984375
119.62890625,108.88671875,-32.2265625,134.27734375
39.0625,-58.10546875,-36.62109375,91.30859375
-241.2109375,-418.9453125,-46.38671875,-213.37890625
-356.93359375,-206.54296875,-55.17578125,-375.9765625
9.27734375,301.26953125,-41.015625,9.765625
133.7890625,139.6484375,-27.83203125,134.27734375
61.5234375,-51.7578125,-25.87890625,101.5625
-202.63671875,-386.71875,-45.41015625,-167.96875
-384.765625,-287.59765625,-64.94140625,-399.90234375
-45.41015625,273.4375,-52.24609375,-37.109375
124.51171875,167.48046875,-39.0625,133.30078125
73.2421875,-8.30078125,-41.50390625,108.3984375
-150.87890625,-323.73046875,-50.29296875,-124.0234375
-376.953125,-329.1015625,-62.5,-412.109375
-73.73046875,224.609375,-43.45703125,-87.40234375
139.6484375,187.5,-24.4140625,127.44140625
100.09765625,57.12890625,-33.203125,113.28125
-100.5859375,-261.71875,-53.7109375,-73.2421875
-362.79296875,-403.3203125,-70.3125,-394.04296875
-106.4453125,172.8515625,-45.41015625,-125.48828125
147.94921875,244.62890625,-21.97265625,140.625
116.69921875,70.80078125,-26.3671875,131.34765625
-62.01171875,-222.65625,-40.52734375,-24.4140625
-345.703125,-438.96484375,-62.98828125,-365.72265625
-153.80859375,93.75,-58.10546875,-171.875
142.08984375,246.58203125,-33.203125,131.8359375
134.765625,70.80078125,-28.80859375,135.7421875
-17.578125,-174.8046875,-33.203125,13.671875
-313.96484375,-412.109375,-56.640625,-335.44921875
-201.66015625,39.0625,-67.3828125,-227.05078125
111.328125,238.28125,-41.015625,109.86328125
130.37109375,79.58984375,-31.25,143.5546875
-3.41796875,-160.64453125,-39.55078125,52.24609375
-312.5,-442.3828125,-55.17578125,-294.921875
-253.90625,-18.06640625,-49.31640625,-263.18359375
90.33203125,255.859375,-30.2734375,87.40234375
125.9765625,90.8203125,-36.62109375,126.46484375
21.484375,-102.05078125,-39.0625,67.87109375
-265.625,-456.54296875,-51.7578125,-260.7421875
-285.64453125,-110.3515625,-65.4296875,-316.89453125
65.91796875,309.08203125,-46.38671875,58.59375
148.92578125,116.2109375,-40.0390625,147.94921875
77.63671875,-93.75,-44.921875,114.2578125
-206.54296875,-410.64453125,-54.6875,-206.54296875
-304.6875,-153.3203125,-69.82421875,-350.5859375
48.828125,277.34375,-61.03515625,27.34375
146.484375,127.44140625,-48.33984375,132.32421875
69.3359375,-22.4609375,-38.0859375,103.02734375
-188.4765625,-365.72265625,-46.875,-166.9921875
-345.703125,-253.90625,-61.03515625,-371.09375
-9.27734375,239.74609375,-46.875,-12.6953125
146.484375,166.9921875,-40.0390625,138.18359375
99.12109375,55.17578125,-37.109375,130.859375
-130.37109375,-297.8515625,-46.38671875,-102.05078125
-338.37890625,-325.1953125,-64.94140625,-367.67578125
-37.109375,221.6796875,-52.734375,-40.0390625
152.34375,191.89453125,-41.50390625,155.2734375
115.72265625,37.59765625,-36.62109375,148.92578125
-87.40234375,-276.3671875,-39.0625,-38.57421875
-333.49609375,-372.0703125,-61.03515625,-345.703125
-67.87109375,186.03515625,-47.36328125,-73.2421875
161.62109375,223.6328125,-27.34375,164.0625
121.09375,51.7578125,-34.66796875,157.2265625
-58.10546875,-229.00390625,-40.52734375,-8.30078125
-328.125,-367.67578125,-50.78125,-348.6328125
-121.58203125,121.58203125,-45.41015625,-135.25390625
143.5546875,213.37890625,-31.73828125,150.390625
122.0703125,76.171875,-38.0859375,154.296875
-35.64453125,-229.00390625,-51.7578125,17.578125
-322.265625,-450.68359375,-64.453125,-332.51953125
-181.640625,51.7578125,-69.3359375,-194.3359375
123.046875,229.4921875,-49.8046875,126.46484375
126.953125,70.3125,-31.73828125,147.94921875
-9.27734375,-162.109375,-33.203125,52.24609375
-300.29296875,-447.75390625,-44.921875,-291.015625
-224.609375,2.9296875,-48.33984375,-232.91015625
105.95703125,297.8515625,-32.71484375,125.0
142.578125,90.33203125,-30.2734375,165.0390625
41.015625,-162.59765625,-36.62109375,87.40234375
-244.62890625,-455.56640625,-52.734375,-245.60546875
-244.140625,-82.03125,-59.5703125,-270.99609375
97.16796875,274.4140625,-43.9453125,94.7265625
151.85546875,104.00390625,-42.48046875,149.4140625
58.59375,-104.4921875,-41.50390625,101.07421875
-221.19140625,-421.875,-52.24609375,-215.8203125
-282.2265625,-146.484375,-65.91796875,-321.77734375
65.91796875,254.39453125,-50.78125,57.6171875
155.2734375,119.62890625,-45.41015625,145.99609375
89.35546875,-14.6484375,-46.38671875,116.2109375
-172.8515625,-392.578125,-52.734375,-166.9921875
-311.5234375,-248.53515625,-62.98828125,-352.5390625
26.3671875,272.94921875,-48.33984375,16.11328125
151.3671875,165.52734375,-37.109375,150.390625
102.05078125,8.30078125,-40.0390625,148.92578125
-141.6015625,-344.7265625,-53.7109375,-105.46875
-350.09765625,-289.0625,-69.3359375,-379.39453125
-26.85546875,262.20703125,-61.03515625,-31.73828125
145.01953125,175.29296875,-41.50390625,150.390625
86.9140625,10.7421875,-39.0625,131.34765625
-122.55859375,-278.80859375,-47.36328125,-86.42578125
-350.09765625,-312.01171875,-59.5703125,-381.8359375
-76.66015625,202.63671875,-49.8046875,-80.56640625
139.6484375,187.5,-37.109375,133.7890625
108.3984375,48.828125,-33.203125,122.55859375
-77.1484375,-249.51171875,-37.109375,-55.6640625
-349.609375,-405.2734375,-61.03515625,-396.97265625
-133.30078125,146.484375,-54.6875,-160.15625
127.9296875,235.83984375,-35.15625,112.79296875
107.91015625,63.4765625,-37.59765625,112.3046875
-57.6171875,-234.86328125,-47.8515625,-25.87890625
-342.7734375,-464.35546875,-65.91796875,-373.53515625
-178.22265625,82.51953125,-62.01171875,-210.9375
131.8359375,283.203125,-32.71484375,109.375
132.8125,86.9140625,-24.4140625,124.51171875
-20.99609375,-216.796875,-33.69140625,5.859375
-315.91796875,-479.00390625,-47.36328125,-340.33203125
-225.5859375,15.13671875,-51.7578125,-259.27734375
86.9140625,262.20703125,-39.0625,75.68359375
117.67578125,86.42578125,-31.73828125,119.140625
11.71875,-136.71875,-38.0859375,46.38671875
-282.71484375,-458.0078125,-62.5,-296.875
-255.37109375,-49.8046875,-63.96484375,-292.48046875
85.9375,273.4375,-41.015625,72.75390625
132.32421875,111.328125,-36.1328125,123.53515625
44.43359375,-55.17578125,-32.71484375,74.70703125
-218.26171875,-421.875,-44.921875,-223.14453125
-259.765625,-130.37109375,-59.5703125,-304.19921875
55.17578125,265.625,-48.33984375,35.15625
122.0703125,91.796875,-38.0859375,99.12109375
50.78125,-61.03515625,-35.64453125,68.359375
-182.6171875,-372.55859375,-45.8984375,-180.6640625
-269.53125,-177.734375,-56.15234375,-307.6171875
42.96875,274.90234375,-41.015625,30.2734375
137.20703125,139.6484375,-34.66796875,117.1875
70.80078125,-40.52734375,-41.015625,90.8203125
-137.20703125,-330.078125,-52.24609375,-125.48828125
-270.01953125,-209.47265625,-66.89453125,-317.87109375
16.11328125,225.09765625,-53.7109375,-6.34765625
138.18359375,113.28125,-41.50390625,120.1171875
83.0078125,4.8828125,-41.50390625,104.98046875
-107.91015625,-287.59765625,-49.31640625,-79.58984375
-291.015625,-294.43359375,-62.98828125,-320.80078125
-26.85546875,230.46875,-52.24609375,-40.52734375
145.01953125,169.43359375,-43.9453125,130.37109375
93.26171875,13.671875,-47.8515625,107.421875
-76.66015625,-243.1640625,-47.8515625,-41.015625
-282.2265625,-337.40234375,-62.5,-305.17578125
-55.17578125,187.5,-56.640625,-80.078125
149.90234375,236.81640625,-36.1328125,122.0703125
109.375,41.50390625,-35.15625,109.375
-42.48046875,-249.51171875,-44.921875,-14.6484375
-274.90234375,-393.06640625,-64.94140625,-301.26953125
-101.07421875,119.62890625,-61.03515625,-128.41796875
130.37109375,229.4921875,-45.8984375,112.3046875
107.421875,58.10546875,-42.48046875,109.375
-14.16015625,-191.40625,-43.45703125,18.06640625
-248.53515625,-387.6953125,-51.7578125,-263.671875
-127.9296875,77.63671875,-49.31640625,-151.85546875
127.44140625,209.47265625,-36.62109375,114.74609375
119.140625,54.6875,-29.78515625,114.2578125
20.5078125,-104.98046875,-30.2734375,51.7578125
-223.14453125,-415.0390625,-51.26953125,-226.07421875
-178.22265625,-32.71484375,-59.08203125,-200.68359375
95.21484375,243.1640625,-47.36328125,85.44921875
113.76953125,66.89453125,-43.9453125,108.88671875
31.73828125,-85.9375,-42.96875,72.265625
-193.359375,-357.91015625,-51.7578125,-186.03515625
-200.68359375,-83.49609375,-47.36328125,-221.19140625
74.70703125,215.33203125,-25.87890625,76.66015625
116.69921875,78.125,-20.99609375,119.140625
43.45703125,-75.1953125,-31.25,90.33203125
-182.6171875,-387.6953125,-42.48046875,-160.15625
-244.62890625,-120.1171875,-50.29296875,-261.23046875
43.45703125,248.046875,-46.875,49.8046875
111.81640625,65.91796875,-42.96875,116.69921875
47.36328125,-55.6640625,-39.0625,89.84375
-151.3671875,-342.7734375,-46.875,-123.53515625
-271.97265625,-236.81640625,-59.5703125,-287.59765625
2.9296875,205.078125,-52.734375,6.8359375
118.65234375,146.484375,-46.875,112.79296875
65.91796875,6.34765625,-38.0859375,94.23828125
-102.05078125,-297.36328125,-34.1796875,-75.1953125
-262.20703125,-263.18359375,-46.38671875,-290.0390625
-23.4375,218.26171875,-39.55078125,-42.96875
125.48828125,195.80078125,-27.34375,101.5625
73.73046875,15.13671875,-28.3203125,93.26171875
-90.33203125,-260.25390625,-40.52734375,-56.640625
-277.83203125,-303.7109375,-55.17578125,-304.6875
-74.70703125,134.27734375,-46.38671875,-82.03125
102.5390625,171.875,-34.66796875,99.609375
74.70703125,28.3203125,-36.62109375,88.37890625
-62.01171875,-213.8671875,-44.921875,-30.76171875
-266.6015625,-333.49609375,-62.01171875,-284.1796875
-99.12109375,109.375,-62.5,-110.3515625
115.234375,182.12890625,-44.43359375,98.6328125
96.19140625,66.40625,-30.76171875,96.6796875
-25.390625,-136.23046875,-30.76171875,11.71875
-251.953125,-398.4375,-50.29296875,-263.18359375
-142.08984375,20.99609375,-54.6875,-160.64453125
97.16796875,204.58984375,-40.52734375,82.51953125
90.33203125,46.38671875,-42.48046875,90.33203125
-11.23046875,-150.87890625,-47.36328125,28.3203125
-236.328125,-389.6484375,-59.5703125,-238.76953125
-182.6171875,-35.15625,-59.5703125,-194.3359375
73.73046875,205.56640625,-41.015625,72.265625
84.9609375,67.87109375,-44.43359375,86.9140625
4.39453125,-113.76953125,-44.43359375,44.43359375
-217.28515625,-382.32421875,-54.6875,-205.078125
-210.9375,-21.484375,-62.5,-224.12109375
56.15234375,221.6796875,-46.38671875,50.29296875
88.37890625,50.78125,-41.9921875,78.125
23.92578125,-71.77734375,-48.33984375,55.6640625
-191.40625,-373.53515625,-59.5703125,-181.640625
-238.28125,-126.46484375,-61.03515625,-272.94921875
49.31640625,240.72265625,-34.1796875,30.2734375
113.76953125,104.98046875,-23.92578125,98.6328125
45.41015625,-35.15625,-27.83203125,74.70703125
-147.4609375,-294.43359375,-40.52734375,-127.9296875
-248.53515625,-201.171875,-52.24609375,-273.4375
5.859375,183.10546875,-41.50390625,-1.46484375
103.02734375,145.5078125,-40.0390625,86.9140625
52.24609375,-7.8125,-46.38671875,76.66015625
-133.7890625,-319.3359375,-56.640625,-106.93359375
-276.85546875,-264.6484375,-64.453125,-301.26953125
-24.4140625,208.0078125,-44.921875,-28.80859375
107.421875,150.390625,-29.78515625,95.703125
65.91796875,11.71875,-25.87890625,86.42578125
-99.12109375,-252.9296875,-37.109375,-61.5234375
-277.83203125,-306.640625,-52.734375,-295.41015625
-59.08203125,168.9453125,-45.41015625,-70.80078125
104.00390625,172.36328125,-33.69140625,90.33203125
71.77734375,33.69140625,-31.73828125,81.0546875
-69.3359375,-190.91796875,-42.96875,-40.0390625
-270.5078125,-319.82421875,-66.89453125,-290.52734375
-99.12109375,95.703125,-61.5234375,-110.83984375
94.23828125,158.69140625,-39.55078125,76.66015625
78.61328125,46.38671875,-35.15625,63.96484375
-44.43359375,-181.15234375,-42.48046875,-23.92578125
-263.671875,-373.046875,-63.4765625,-285.64453125
-127.44140625,62.01171875,-62.01171875,-166.015625
100.09765625,195.80078125,-40.0390625,71.2890625
85.9375,50.29296875,-31.73828125,78.125
-18.5546875,-153.80859375,-32.71484375,9.765625
-241.69921875,-372.0703125,-47.36328125,-250.48828125
-162.109375,46.38671875,-51.26953125,-182.12890625
81.0546875,191.40625,-41.9921875,74.70703125
77.1484375,23.92578125,-39.55078125,79.58984375
-5.859375,-114.74609375,-49.31640625,37.109375
-222.65625,-400.87890625,-69.3359375,-206.54296875
-207.51953125,-69.3359375,-71.77734375,-217.28515625
58.10546875,204.1015625,-52.24609375,47.8515625
93.26171875,70.3125,-40.0390625,84.9609375
18.06640625,-84.9609375,-32.2265625,62.5
-184.08203125,-371.09375,-40.0390625,-172.8515625
-218.26171875,-127.9296875,-55.6640625,-244.140625
40.0390625,205.078125,-41.50390625,35.64453125
99.609375,125.0,-26.85546875,98.14453125
37.109375,-54.19921875,-29.296875,89.35546875
-170.8984375,-393.06640625,-46.38671875,-137.20703125
-251.46484375,-180.17578125,-58.10546875,-274.90234375
23.4375,213.8671875,-44.921875,11.23046875
109.375,101.07421875,-38.57421875,90.8203125
55.17578125,-11.71875,-42.48046875,76.66015625
-125.9765625,-311.03515625,-50.29296875,-110.83984375
-252.44140625,-243.65234375,-63.4765625,-292.96875
3.41796875,205.56640625,-54.6875,-26.85546875
117.1875,133.30078125,-36.1328125,86.42578125
69.82421875,-2.9296875,-26.3671875,76.171875
-92.7734375,-237.79296875,-38.57421875,-69.82421875
-270.01953125,-300.78125,-54.6875,-292.48046875
-56.640625,144.04296875,-46.875,-70.80078125
112.79296875,176.7578125,-37.59765625,89.35546875
95.21484375,34.1796875,-35.15625,92.28515625
-71.2890625,-223.6328125,-36.1328125,-47.8515625
-285.15625,-319.3359375,-46.875,-308.10546875
-92.7734375,143.06640625,-50.29296875,-120.60546875
89.84375,180.17578125,-38.57421875,58.59375
62.5,55.6640625,-35.64453125,55.6640625
-59.5703125,-217.7734375,-38.57421875,-30.2734375
-269.04296875,-389.16015625,-49.31640625,-282.2265625
-118.1640625,105.95703125,-53.22265625,-146.97265625
95.703125,170.8984375,-42.48046875,65.4296875
82.51953125,29.78515625,-31.73828125,74.70703125
-15.13671875,-136.71875,-32.2265625,8.7890625
-231.4453125,-371.09375,-46.875,-249.51171875
-150.390625,15.13671875,-52.24609375,-179.6875
87.890625,211.9140625,-41.9921875,62.98828125
97.65625,71.2890625,-38.57421875,84.47265625
6.8359375,-134.27734375,-42.48046875,39.0625
-202.1484375,-375.48828125,-49.31640625,-205.078125
-159.66796875,-28.80859375,-51.7578125,-191.40625
83.0078125,217.7734375,-43.45703125,62.98828125
105.46875,100.5859375,-36.62109375,88.37890625
27.83203125,-104.00390625,-38.0859375,52.734375
-186.5234375,-406.25,-49.31640625,-184.5703125
-202.1484375,-112.3046875,-56.640625,-231.93359375
55.6640625,199.70703125,-43.45703125,37.109375
109.86328125,90.8203125,-29.296875,87.890625
48.828125,-67.3828125,-33.203125,75.68359375
-150.390625,-352.05078125,-48.828125,-126.953125
-210.44921875,-126.953125,-55.17578125,-225.09765625
47.36328125,231.4453125,-36.62109375,47.36328125
108.88671875,91.796875,-30.76171875,114.2578125
61.5234375,-9.765625,-29.296875,105.46875
-117.1875,-266.11328125,-37.109375,-70.3125
-237.79296875,-223.6328125,-57.12890625,-233.3984375
13.671875,191.89453125,-47.36328125,16.11328125
121.09375,143.5546875,-44.43359375,118.65234375
85.44921875,3.90625,-47.8515625,118.1640625
-62.98828125,-251.953125,-45.8984375,-24.4140625
-211.9140625,-247.0703125,-60.05859375,-213.37890625
19.53125,212.40234375,-54.6875,24.4140625
174.8046875,182.12890625,-38.0859375,166.50390625
156.25,51.7578125,-33.203125,173.33984375
16.6015625,-208.49609375,-37.109375,65.4296875
-157.71484375,-266.6015625,-46.38671875,-146.97265625
48.33984375,235.3515625,-36.1328125,53.7109375
218.26171875,191.89453125,-26.3671875,218.26171875
185.546875,37.109375,-31.73828125,217.7734375
63.96484375,-173.33984375,-40.0390625,126.953125
-128.41796875,-320.80078125,-56.640625,-112.3046875
22.4609375,136.71875,-57.6171875,26.85546875
210.44921875,222.65625,-45.8984375,208.984375
182.12890625,40.0390625,-45.41015625,194.82421875
68.359375,-190.4296875,-45.8984375,118.65234375
-136.71875,-354.00390625,-57.12890625,-121.58203125
-31.25,59.5703125,-61.5234375,-37.59765625
185.05859375,217.7734375,-49.31640625,172.8515625
167.48046875,73.73046875,-42.48046875,168.9453125
65.91796875,-154.296875,-48.828125,107.421875
-141.6015625,-396.97265625,-63.96484375,-124.51171875
-89.84375,-13.18359375,-60.546875,-91.30859375
143.5546875,221.6796875,-44.921875,138.671875
146.484375,77.1484375,-47.8515625,146.97265625
54.19921875,-101.07421875,-45.41015625,107.91015625
-155.76171875,-357.421875,-49.31640625,-113.28125
-155.76171875,-58.59375,-57.6171875,-145.5078125
77.63671875,217.7734375,-52.734375,80.56640625
96.6796875,58.59375,-50.78125,95.21484375
22.94921875,-96.19140625,-47.8515625,71.77734375
-167.96875,-329.1015625,-55.6640625,-128.41796875
-210.9375,-147.4609375,-61.5234375,-217.7734375
29.78515625,172.8515625,-51.7578125,21.97265625
86.9140625,91.30859375,-42.48046875,71.2890625
37.109375,-50.78125,-33.203125,63.96484375
-143.06640625,-327.1484375,-42.48046875,-113.28125
-242.1875,-194.3359375,-62.01171875,-248.046875
-2.44140625,210.9375,-54.6875,-8.7890625
75.1953125,114.74609375,-43.9453125,53.7109375
19.53125,-28.3203125,-45.8984375,40.0390625
-143.06640625,-291.015625,-54.6875,-109.375
-278.80859375,-239.74609375,-65.91796875,-293.45703125
-62.98828125,197.265625,-53.7109375,-83.0078125
42.48046875,110.3515625,-50.29296875,13.671875
-7.8125,-41.015625,-56.640625,8.30078125
-152.83203125,-268.5546875,-54.19921875,-118.65234375
-318.84765625,-311.03515625,-70.3125,-334.9609375
-125.9765625,136.71875,-72.265625,-139.16015625
24.4140625,135.25390625,-53.22265625,0.0
-5.859375,16.6015625,-43.9453125,-8.7890625
-125.48828125,-220.703125,-46.38671875,-101.5625
-309.5703125,-340.8203125,-61.5234375,-325.68359375
-156.73828125,92.28515625,-55.17578125,-175.78125
23.4375,161.62109375,-30.2734375,-5.859375
-3.90625,54.6875,-30.2734375,-13.18359375
-123.046875,-210.9375,-46.875,-93.75
-320.3125,-406.25,-57.12890625,-324.70703125
-196.77734375,51.7578125,-50.29296875,-213.37890625
9.27734375,156.73828125,-42.48046875,-15.13671875
-6.34765625,2.9296875,-41.9921875,-17.578125
-95.21484375,-169.921875,-42.96875,-70.3125
-291.9921875,-380.859375,-56.640625,-296.875
-216.30859375,-8.7890625,-61.03515625,-242.1875
16.6015625,180.6640625,-52.734375,-23.92578125
32.71484375,50.78125,-44.921875,-10.7421875
-41.50390625,-119.62890625,-36.62109375,-31.25
-240.72265625,-366.2109375,-52.24609375,-241.2109375
-217.7734375,-72.75390625,-60.546875,-246.09375
18.06640625,197.75390625,-44.43359375,-12.6953125
50.29296875,72.265625,-36.1328125,21.97265625
-29.78515625,-100.5859375,-29.78515625,-7.8125
-227.05078125,-345.21484375,-39.55078125,-219.7265625
-242.67578125,-109.86328125,-53.22265625,-262.20703125
-7.8125,185.05859375,-42.48046875,-25.390625
50.29296875,81.0546875,-33.69140625,20.01953125
-1.46484375,-45.41015625,-37.109375,15.625
-183.59375,-336.42578125,-52.734375,-162.109375
-256.34765625,-167.96875,-65.4296875,-275.87890625
-19.04296875,224.12109375,-53.22265625,-40.0390625
49.31640625,71.77734375,-43.45703125,20.99609375
6.34765625,-53.22265625,-40.0390625,24.90234375
-156.73828125,-296.38671875,-44.43359375,-123.53515625
-276.3671875,-241.69921875,-55.17578125,-289.55078125
-48.828125,172.8515625,-41.015625,-62.01171875
48.33984375,108.88671875,-27.34375,24.90234375
2.9296875,-18.06640625,-29.296875,15.625
-140.13671875,-252.9296875,-31.25,-98.14453125
-291.9921875,-262.6953125,-43.45703125,-286.62109375
-94.23828125,138.671875,-46.875,-94.23828125
43.45703125,130.37109375,-37.59765625,25.390625
9.765625,45.8984375,-29.78515625,21.97265625
-132.32421875,-241.2109375,-41.50390625,-97.65625
-320.3125,-380.37109375,-63.4765625,-330.56640625
-144.53125,109.86328125,-55.6640625,-160.15625
25.87890625,158.203125,-42.48046875,-0.9765625
-0.48828125,20.5078125,-43.9453125,-12.6953125
-124.0234375,-204.58984375,-42.48046875,-104.4921875
-338.37890625,-375.48828125,-49.31640625,-353.02734375
-180.6640625,77.1484375,-51.26953125,-196.77734375
65.91796875,213.37890625,-33.69140625,56.640625
55.6640625,64.453125,-29.78515625,58.10546875
-78.125,-188.96484375,-37.109375,-45.8984375
-342.7734375,-416.50390625,-49.31640625,-358.88671875
-237.3046875,34.1796875,-50.29296875,-270.01953125
57.6171875,209.9609375,-37.59765625,34.1796875
73.2421875,53.7109375,-34.66796875,65.4296875
-33.203125,-143.06640625,-36.1328125,-3.90625
-288.0859375,-426.7578125,-46.875,-307.12890625
-244.140625,-51.26953125,-50.29296875,-279.78515625
42.96875,224.609375,-40.0390625,29.296875
85.44921875,70.3125,-30.2734375,74.21875
-2.44140625,-115.72265625,-23.92578125,33.203125
-282.71484375,-429.19921875,-45.41015625,-277.34375
-304.6875,-130.859375,-54.19921875,-337.40234375
28.3203125,285.15625,-36.62109375,7.8125
101.07421875,111.81640625,-38.0859375,77.63671875
20.99609375,-97.16796875,-40.0390625,46.875
-234.86328125,-379.8828125,-49.31640625,-228.02734375
-331.0546875,-203.61328125,-57.6171875,-363.28125
-10.25390625,223.6328125,-45.8984375,-20.01953125
93.26171875,112.79296875,-37.109375,74.70703125
34.1796875,-30.76171875,-39.0625,56.640625
-204.1015625,-374.0234375,-47.36328125,-188.96484375
-365.234375,-275.390625,-56.640625,-393.5546875
-43.9453125,241.69921875,-43.45703125,-53.22265625
107.91015625,162.59765625,-31.25,90.33203125
52.734375,34.1796875,-37.109375,74.21875
-168.9453125,-328.61328125,-48.33984375,-139.16015625
-379.39453125,-354.98046875,-61.03515625,-409.66796875
-89.84375,229.4921875,-48.828125,-109.86328125
98.14453125,187.5,-35.15625,83.0078125
49.8046875,29.296875,-30.2734375,67.3828125
-140.13671875,-259.27734375,-39.0625,-113.76953125
-383.30078125,-395.01953125,-66.40625,-418.9453125
-135.25390625,171.875,-55.17578125,-160.64453125
105.95703125,201.66015625,-35.15625,79.1015625
70.3125,32.2265625,-41.9921875,69.82421875
-103.515625,-212.40234375,-48.828125,-67.87109375
-365.72265625,-373.046875,-62.5,-392.578125
-170.41015625,109.375,-56.15234375,-202.1484375
103.02734375,210.9375,-39.55078125,84.9609375
96.19140625,67.87109375,-35.64453125,97.16796875
-49.31640625,-205.56640625,-35.64453125,-15.13671875
-327.1484375,-448.2421875,-50.78125,-347.16796875
-191.40625,52.24609375,-49.31640625,-221.19140625
114.2578125,250.9765625,-33.203125,100.09765625
130.859375,97.65625,-28.3203125,128.41796875
8.30078125,-144.53125,-33.203125,41.9921875
-293.9453125,-469.23828125,-55.6640625,-303.22265625
-242.67578125,-14.6484375,-58.10546875,-268.5546875
94.23828125,297.8515625,-39.0625,86.9140625
130.37109375,83.49609375,-35.64453125,136.23046875
13.18359375,-154.78515625,-36.62109375,58.59375
-269.04296875,-442.87109375,-53.7109375,-268.5546875
-273.92578125,-91.796875,-63.4765625,-307.6171875
71.2890625,249.51171875,-45.41015625,56.15234375
145.5078125,110.83984375,-38.57421875,130.859375
63.96484375,-79.58984375,-41.9921875,90.33203125
-210.44921875,-430.6640625,-63.4765625,-214.35546875
-287.59765625,-156.73828125,-72.75390625,-332.51953125
62.98828125,280.76171875,-47.8515625,48.33984375
164.55078125,134.27734375,-35.64453125,150.390625
92.7734375,-10.7421875,-41.015625,124.0234375
-164.0625,-374.51171875,-59.5703125,-148.4375
-305.17578125,-266.6015625,-73.2421875,-347.16796875
34.1796875,256.8359375,-58.10546875,22.94921875
181.15234375,175.29296875,-44.921875,169.921875
121.58203125,11.71875,-39.0625,142.578125
-120.1171875,-326.66015625,-46.875,-104.00390625
-327.63671875,-299.31640625,-68.359375,-367.67578125
-17.578125,241.69921875,-53.22265625,-33.203125
175.29296875,196.77734375,-21.97265625,158.203125
123.53515625,46.38671875,-24.90234375,146.97265625
-78.61328125,-255.859375,-42.96875,-40.0390625
-318.84765625,-337.890625,-46.875,-342.7734375
-74.21875,187.01171875,-31.25,-78.61328125
156.25,201.171875,-12.6953125,152.34375
128.90625,47.8515625,-15.625,150.87890625
-65.91796875,-259.27734375,-32.2265625,-22.94921875
-347.16796875,-428.7109375,-49.31640625,-368.65234375
-129.39453125,147.94921875,-50.78125,-137.6953125
159.66796875,260.7421875,-37.59765625,162.109375
143.5546875,62.5,-32.71484375,162.109375
-21.97265625,-222.16796875,-35.15625,20.99609375
-308.10546875,-443.359375,-57.12890625,-330.078125
-151.3671875,89.84375,-62.01171875,-171.875
156.25,277.83203125,-39.0625,155.76171875
145.5078125,74.21875,-30.76171875,166.9921875
3.90625,-209.9609375,-35.15625,56.15234375
-291.9921875,-493.1640625,-59.08203125,-302.734375
-214.84375,-19.53125,-62.01171875,-232.421875
127.9296875,272.94921875,-37.109375,128.90625
146.97265625,77.1484375,-31.25,158.69140625
21.484375,-170.8984375,-31.73828125,79.1015625
-263.671875,-456.0546875,-49.8046875,-266.11328125
-245.60546875,-55.17578125,-55.6640625,-278.80859375
103.02734375,271.484375,-33.203125,110.3515625
158.69140625,94.7265625,-28.80859375,172.8515625
71.77734375,-66.89453125,-31.73828125,120.60546875
-204.58984375,-424.31640625,-41.9921875,-198.73046875
-267.08984375,-183.10546875,-53.22265625,-300.29296875
85.9375,264.6484375,-42.48046875,89.84375
182.6171875,140.13671875,-33.69140625,178.7109375
96.19140625,-52.734375,-29.296875,136.71875
-172.36328125,-415.52734375,-41.015625,-163.0859375
-301.26953125,-222.65625,-58.59375,-350.09765625
37.59765625,294.921875,-47.36328125,36.62109375
169.43359375,174.31640625,-31.73828125,171.875
97.16796875,-31.25,-37.59765625,143.06640625
-151.3671875,-358.88671875,-52.734375,-122.55859375
-330.56640625,-248.53515625,-61.5234375,-367.67578125
-8.30078125,255.37109375,-52.24609375,-7.8125
160.15625,157.2265625,-41.50390625,166.9921875
104.98046875,22.4609375,-41.9921875,144.53125
-110.83984375,-306.15234375,-46.875,-81.0546875
-342.7734375,-345.21484375,-62.98828125,-391.11328125
-62.01171875,233.3984375,-57.6171875,-72.75390625
162.59765625,217.7734375,-39.0625,170.8984375
116.69921875,40.52734375,-40.0390625,152.34375
-80.56640625,-266.6015625,-54.6875,-38.57421875
-333.984375,-400.390625,-69.82421875,-376.953125
-94.23828125,195.3125,-52.24609375,-119.140625
166.9921875,274.90234375,-26.3671875,166.50390625
133.7890625,51.7578125,-30.76171875,156.25
-40.52734375,-270.5078125,-44.921875,-0.9765625
-323.2421875,-463.37890625,-65.91796875,-361.81640625
-152.83203125,84.47265625,-64.453125,-181.15234375
142.578125,251.46484375,-43.9453125,150.87890625
138.18359375,86.42578125,-46.38671875,163.57421875
-20.01953125,-176.26953125,-53.22265625,31.73828125
-312.98828125,-447.75390625,-53.7109375,-332.51953125
-197.265625,25.390625,-52.734375,-230.95703125
123.046875,273.4375,-42.96875,125.48828125
137.6953125,96.6796875,-38.0859375,152.34375
25.87890625,-124.0234375,-41.015625,68.359375
-265.625,-480.95703125,-59.08203125,-287.59765625
-241.2109375,-83.49609375,-68.84765625,-279.78515625
90.33203125,273.92578125,-47.8515625,103.02734375
126.953125,83.0078125,-40.52734375,148.4375
26.85546875,-120.1171875,-37.59765625,76.66015625
-257.32421875,-454.1015625,-49.31640625,-260.7421875
-270.01953125,-130.37109375,-62.5,-308.10546875
94.23828125,270.5078125,-46.875,98.6328125
151.85546875,126.953125,-38.57421875,146.97265625
62.98828125,-51.26953125,-43.9453125,87.40234375
-194.82421875,-386.23046875,-63.96484375,-214.35546875
-284.1796875,-143.5546875,-75.68359375,-358.88671875
72.265625,294.43359375,-58.59375,49.31640625
178.22265625,129.39453125,-50.78125,161.1328125
91.30859375,-21.484375,-56.15234375,116.2109375
-155.2734375,-370.1171875,-65.4296875,-153.80859375
-319.3359375,-271.97265625,-77.63671875,-384.27734375
8.7890625,287.109375,-60.05859375,-2.9296875
166.9921875,164.55078125,-43.45703125,172.8515625
101.5625,-3.41796875,-49.31640625,142.578125
-119.62890625,-302.24609375,-55.6640625,-89.84375
-327.63671875,-328.125,-68.84765625,-369.62890625
-34.66796875,269.53125,-60.05859375,-29.296875
167.96875,258.30078125,-43.9453125,193.84765625
116.2109375,21.97265625,-42.96875,174.31640625
-89.35546875,-295.8984375,-52.24609375,-32.2265625
-337.40234375,-380.859375,-70.80078125,-365.234375
-78.61328125,195.80078125,-64.453125,-95.21484375
169.43359375,237.79296875,-41.9921875,156.25
131.34765625,67.3828125,-42.48046875,140.625
-44.43359375,-225.5859375,-52.24609375,-19.53125
-309.5703125,-415.0390625,-60.546875,-364.74609375
-119.62890625,144.53125,-54.19921875,-156.25
150.390625,240.72265625,-41.9921875,156.73828125
126.46484375,73.73046875,-37.109375,164.55078125
-30.2734375,-163.0859375,-34.66796875,36.1328125
-321.2890625,-460.44921875,-57.6171875,-334.9609375
-204.1015625,22.4609375,-69.82421875,-216.30859375
102.05078125,247.55859375,-52.734375,135.25390625
114.74609375,78.61328125,-45.8984375,156.25
-17.08984375,-175.78125,-48.33984375,46.38671875
-303.22265625,-472.65625,-55.17578125,-318.84765625
-245.60546875,-25.87890625,-58.59375,-277.34375
74.70703125,260.7421875,-46.875,97.16796875
107.91015625,100.09765625,-42.96875,132.32421875
9.765625,-105.95703125,-44.921875,57.6171875
-259.765625,-437.01171875,-61.5234375,-283.203125
-270.5078125,-70.3125,-68.84765625,-327.1484375
64.453125,290.0390625,-42.48046875,70.3125
120.1171875,79.1015625,-40.0390625,136.23046875
30.76171875,-99.12109375,-48.828125,83.49609375
-224.12109375,-412.109375,-57.6171875,-236.328125
-299.8046875,-175.29296875,-66.89453125,-371.09375
28.3203125,247.0703125,-49.31640625,25.87890625
126.46484375,125.48828125,-38.57421875,138.18359375
64.94140625,-12.20703125,-36.62109375,116.69921875
-178.7109375,-370.1171875,-48.828125,-174.8046875
-323.2421875,-252.44140625,-65.4296875,-389.6484375
-7.32421875,276.3671875,-50.78125,0.0
132.32421875,211.42578125,-34.66796875,151.3671875
76.66015625,7.32421875,-37.59765625,123.046875
-150.390625,-342.28515625,-52.734375,-130.37109375
-343.75,-301.7578125,-64.453125,-402.83203125
-50.78125,218.75,-53.22265625,-47.36328125
132.8125,191.40625,-42.48046875,158.69140625
85.9375,23.92578125,-40.0390625,145.99609375
-105.95703125,-287.59765625,-45.41015625,-67.87109375
-333.0078125,-359.86328125,-59.08203125,-400.390625
-78.61328125,202.63671875,-51.7578125,-97.65625
138.18359375,214.35546875,-36.62109375,155.76171875
94.7265625,44.43359375,-30.76171875,141.11328125
-70.80078125,-212.890625,-36.1328125,-30.76171875
-327.1484375,-415.0390625,-55.17578125,-400.87890625
-130.37109375,114.74609375,-42.48046875,-168.9453125
136.23046875,245.60546875,-20.5078125,140.13671875
117.1875,58.59375,-25.87890625,129.39453125
-23.4375,-160.64453125,-30.2734375,-8.30078125
-289.55078125,-393.5546875,-45.8984375,-367.67578125
-154.296875,43.45703125,-48.33984375,-211.9140625
131.8359375,249.0234375,-34.1796875,141.11328125
126.953125,75.1953125,-33.69140625,159.1796875
-0.48828125,-168.45703125,-29.78515625,53.22265625
-280.2734375,-433.10546875,-40.0390625,-316.40625
-207.03125,13.671875,-45.8984375,-249.0234375
113.76953125,241.2109375,-25.87890625,135.25390625
141.11328125,59.08203125,-21.97265625,171.38671875
24.90234375,-145.01953125,-31.73828125,81.0546875
-256.34765625,-447.75390625,-50.29296875,-285.64453125
-244.140625,-71.2890625,-58.59375,-306.15234375
93.26171875,269.53125,-41.50390625,95.703125
149.90234375,106.93359375,-41.50390625,162.109375
55.6640625,-99.609375,-46.875,101.07421875
-217.7734375,-427.24609375,-52.24609375,-236.81640625
-286.1328125,-162.109375,-55.17578125,-341.796875
44.43359375,261.23046875,-33.203125,60.05859375
130.859375,150.87890625,-34.1796875,159.66796875
56.640625,-50.78125,-44.43359375,125.48828125
-208.49609375,-435.05859375,-53.22265625,-201.171875
-338.8671875,-247.0703125,-59.5703125,-413.0859375
5.859375,258.30078125,-37.59765625,-9.765625
141.6015625,146.97265625,-25.87890625,136.71875
70.80078125,-25.390625,-32.71484375,104.98046875
-175.29296875,-357.91015625,-48.828125,-171.38671875
-362.79296875,-301.26953125,-66.89453125,-438.4765625
-40.52734375,242.67578125,-53.22265625,-56.640625
138.18359375,188.96484375,-35.64453125,143.5546875
81.0546875,27.83203125,-40.0390625,122.0703125
-129.39453125,-270.01953125,-50.78125,-112.3046875
-364.2578125,-361.81640625,-63.96484375,-438.4765625
-88.37890625,176.7578125,-59.5703125,-104.00390625
138.671875,209.9609375,-41.015625,152.34375
94.23828125,55.17578125,-37.109375,137.6953125
-101.07421875,-261.23046875,-43.45703125,-61.5234375
-357.421875,-411.62109375,-52.24609375,-422.36328125
-134.765625,167.96875,-48.828125,-157.71484375
116.69921875,260.7421875,-30.76171875,136.23046875
91.796875,82.03125,-30.2734375,129.8828125
-85.9375,-223.6328125,-43.45703125,-41.50390625
-377.44140625,-429.6875,-62.98828125,-438.96484375
-200.68359375,140.625,-58.10546875,-236.328125
99.609375,268.06640625,-40.0390625,111.328125
87.890625,72.75390625,-39.55078125,110.3515625
-67.87109375,-176.7578125,-41.015625,-33.203125
-377.9296875,-512.6953125,-55.6640625,-445.3125
-271.97265625,20.01953125,-51.7578125,-339.35546875
62.5,304.6875,-35.15625,41.50390625
87.40234375,103.515625,-37.59765625,73.73046875
-55.6640625,-148.4375,-37.59765625,-33.203125
-381.8359375,-474.609375,-56.15234375,-454.1015625
-344.7265625,-51.26953125,-63.4765625,-444.3359375
16.11328125,322.265625,-49.8046875,0.0
60.546875,167.48046875,-54.19921875,54.6875
-59.5703125,-110.83984375,-53.22265625,-44.43359375
-353.02734375,-488.28125,-59.08203125,-416.015625
-394.04296875,-136.71875,-76.171875,-496.09375
-29.296875,292.48046875,-59.5703125,-42.48046875
77.1484375,144.04296875,-48.828125,75.68359375
14.6484375,-47.36328125,-43.45703125,39.0625
-264.6484375,-453.125,-47.36328125,-305.17578125
-375.9765625,-206.54296875,-61.03515625,-483.88671875
7.32421875,308.10546875,-56.15234375,-20.01953125
160.15625,159.1796875,-58.10546875,154.296875
85.44921875,-9.27734375,-62.5,123.53515625
-180.17578125,-375.9765625,-62.01171875,-192.87109375
-350.5859375,-322.75390625,-64.453125,-449.21875
17.08984375,248.53515625,-51.26953125,8.7890625
210.44921875,186.03515625,-36.1328125,240.72265625
145.01953125,7.32421875,-41.9921875,228.02734375
-87.40234375,-356.4453125,-56.15234375,-39.55078125
-301.26953125,-368.1640625,-60.546875,-367.1875
21.484375,250.48828125,-44.921875,34.66796875
261.23046875,243.65234375,-33.203125,315.91796875
225.09765625,52.24609375,-42.96875,299.8046875
6.8359375,-321.77734375,-55.17578125,53.7109375
-258.7890625,-421.875,-56.15234375,-321.2890625
23.92578125,224.609375,-52.24609375,29.78515625
312.01171875,237.3046875,-51.7578125,364.74609375
293.45703125,44.43359375,-39.0625,359.86328125
80.078125,-273.92578125,-46.38671875,145.99609375
-242.1875,-483.88671875,-74.70703125,-291.9921875
-12.20703125,146.97265625,-54.6875,-25.390625
307.12890625,312.5,-25.87890625,366.69921875
283.69140625,134.765625,-27.34375,359.375
113.76953125,-185.546875,-33.203125,185.546875
-221.19140625,-502.9296875,-50.29296875,-278.80859375
-87.40234375,77.63671875,-53.22265625,-129.39453125
271.97265625,343.26171875,-33.69140625,313.4765625
276.3671875,163.57421875,-29.296875,333.49609375
106.93359375,-145.01953125,-45.41015625,178.22265625
-237.3046875,-557.6171875,-70.3125,-281.25
-173.33984375,-66.89453125,-68.359375,-223.14453125
207.03125,312.5,-32.71484375,256.8359375
253.41796875,134.765625,-23.4375,312.98828125
116.2109375,-115.234375,-29.78515625,194.82421875
-233.88671875,-515.13671875,-50.29296875,-260.7421875
-262.6953125,-129.39453125,-66.40625,-318.84765625
134.27734375,325.68359375,-36.1328125,195.3125
223.6328125,154.78515625,-18.5546875,297.8515625
117.1875,-74.21875,-20.99609375,222.16796875
-209.47265625,-462.40234375,-41.9921875,-205.078125
-304.6875,-213.37890625,-59.5703125,-378.41796875
104.98046875,306.640625,-35.64453125,146.97265625
235.3515625,183.59375,-29.78515625,295.8984375
146.484375,-39.0625,-42.96875,227.5390625
-157.2265625,-441.89453125,-53.22265625,-168.9453125
-344.23828125,-289.0625,-58.59375,-447.75390625
42.48046875,320.3125,-46.875,56.640625
225.09765625,233.3984375,-39.0625,269.53125
145.01953125,43.45703125,-37.59765625,223.14453125
-144.04296875,-389.6484375,-49.31640625,-130.37109375
-386.71875,-376.46484375,-65.91796875,-490.72265625
-9.27734375,334.9609375,-56.640625,-13.18359375
232.91015625,264.16015625,-37.59765625,266.11328125
163.0859375,33.203125,-33.69140625,222.65625
-93.75,-309.08203125,-41.015625,-74.21875
-391.6015625,-418.45703125,-60.05859375,-505.37109375
-79.58984375,256.8359375,-50.29296875,-107.91015625
216.796875,304.6875,-29.296875,249.51171875
179.19921875,77.1484375,-35.15625,227.5390625
-43.9453125,-283.203125,-37.109375,-25.87890625
-379.8828125,-495.60546875,-48.33984375,-499.0234375
-135.25390625,157.2265625,-46.38671875,-189.453125
200.1953125,308.59375,-30.76171875,232.421875
181.15234375,118.1640625,-27.83203125,228.515625
-6.34765625,-235.3515625,-33.203125,7.8125
-360.83984375,-562.98828125,-56.640625,-498.046875
-200.68359375,49.31640625,-49.31640625,-281.73828125
177.24609375,313.4765625,-24.4140625,203.61328125
184.5703125,88.37890625,-21.484375,219.7265625
2.9296875,-251.953125,-27.34375,33.69140625
-354.98046875,-583.49609375,-52.734375,-476.07421875
-260.7421875,-16.6015625,-59.08203125,-378.41796875
154.296875,341.30859375,-37.59765625,151.3671875
198.2421875,103.02734375,-37.59765625,210.44921875
52.24609375,-153.3203125,-44.921875,84.47265625
-312.01171875,-516.11328125,-60.546875,-405.2734375
-309.08203125,-93.26171875,-59.08203125,-421.875
126.953125,363.28125,-33.69140625,142.578125
201.66015625,166.9921875,-34.1796875,232.421875
78.125,-97.65625,-33.203125,126.953125
-270.01953125,-508.30078125,-48.33984375,-341.796875
-348.6328125,-166.015625,-60.05859375,-477.5390625
85.44921875,349.12109375,-38.57421875,100.09765625
204.1015625,185.05859375,-25.390625,251.46484375
106.93359375,-34.1796875,-23.4375,182.6171875
-225.09765625,-487.3046875,-43.9453125,-254.39453125
-392.578125,-265.625,-64.94140625,-519.53125
38.57421875,384.765625,-40.52734375,45.41015625
218.26171875,230.46875,-27.83203125,262.20703125
133.7890625,-8.30078125,-38.0859375,208.49609375
-160.64453125,-442.3828125,-41.9921875,-171.38671875
-392.08984375,-369.140625,-55.17578125,-530.76171875
-9.765625,325.68359375,-60.05859375,-20.99609375
225.5859375,261.71875,-43.45703125,275.87890625
166.015625,64.94140625,-33.203125,238.28125
-122.0703125,-353.02734375,-49.8046875,-116.69921875
-414.0625,-428.22265625,-72.75390625,-548.828125
-67.87109375,293.45703125,-54.19921875,-82.03125
212.40234375,312.98828125,-31.73828125,277.83203125
163.57421875,99.12109375,-27.83203125,257.32421875
-93.75,-347.16796875,-44.43359375,-37.109375
-426.26953125,-512.20703125,-70.80078125,-530.76171875
-120.1171875,253.90625,-53.7109375,-145.5078125
218.26171875,331.0546875,-30.2734375,285.15625
185.546875,96.6796875,-37.109375,260.25390625
-33.203125,-258.30078125,-50.29296875,-2.44140625
-402.34375,-523.4375,-63.4765625,-520.01953125
-189.453125,146.97265625,-55.17578125,-245.60546875
191.89453125,340.8203125,-28.3203125,236.328125
186.5234375,99.609375,-23.4375,239.2578125
0.9765625,-219.23828125,-33.69140625,39.55078125
-371.58203125,-559.5703125,-58.10546875,-479.98046875
-244.62890625,17.08984375,-59.5703125,-334.9609375
172.8515625,337.890625,-31.25,201.171875
189.94140625,108.88671875,-32.71484375,235.3515625
33.69140625,-187.98828125,-43.9453125,68.359375
-342.28515625,-572.75390625,-60.05859375,-458.49609375
-320.80078125,-67.87109375,-69.3359375,-436.5234375
127.9296875,345.21484375,-50.78125,130.859375
197.265625,160.64453125,-40.52734375,218.26171875
49.31640625,-109.375,-32.71484375,104.98046875
-314.453125,-551.26953125,-47.8515625,-397.94921875
-369.140625,-152.34375,-62.5,-512.20703125
77.63671875,398.92578125,-34.1796875,82.51953125
192.3828125,175.78125,-27.34375,223.14453125
77.63671875,-99.609375,-39.0625,138.671875
-274.4140625,-526.85546875,-52.24609375,-318.359375
-419.43359375,-251.953125,-67.87109375,-542.48046875
26.3671875,364.74609375,-47.36328125,39.0625
203.61328125,223.14453125,-31.73828125,250.0
97.16796875,-6.8359375,-41.50390625,167.48046875
-231.93359375,-461.9140625,-54.19921875,-262.20703125
-427.24609375,-324.70703125,-62.98828125,-565.91796875
-12.6953125,330.078125,-45.8984375,-17.578125
197.75390625,238.76953125,-29.78515625,250.0
130.37109375,65.4296875,-32.71484375,202.63671875
-163.57421875,-394.04296875,-46.38671875,-156.73828125
-456.54296875,-468.75,-74.70703125,-579.1015625
-71.77734375,297.8515625,-60.05859375,-84.47265625
214.35546875,299.31640625,-29.78515625,267.08984375
158.69140625,70.80078125,-30.76171875,228.515625
-110.3515625,-355.46875,-51.26953125,-96.19140625
-446.77734375,-509.765625,-78.125,-573.2421875
-124.51171875,241.69921875,-62.98828125,-158.203125
211.9140625,308.10546875,-36.62109375,257.8125
167.48046875,69.82421875,-37.109375,237.79296875
-65.91796875,-286.1328125,-38.0859375,-23.4375
-423.33984375,-505.859375,-54.6875,-535.64453125
-184.5703125,174.31640625,-48.828125,-227.05078125
185.546875,293.9453125,-26.3671875,254.8828125
176.7578125,93.75,-34.1796875,258.30078125
-28.3203125,-249.0234375,-41.015625,30.76171875
-416.015625,-609.375,-54.6875,-503.41796875
-263.18359375,54.19921875,-60.546875,-307.6171875
156.25,359.375,-51.7578125,228.515625
184.5703125,124.0234375,-41.50390625,253.90625
13.18359375,-195.3125,-36.1328125,83.984375
-371.58203125,-606.4453125,-57.6171875,-438.96484375
-299.8046875,-32.71484375,-58.59375,-373.53515625
153.3203125,411.1328125,-33.203125,197.75390625
195.80078125,114.2578125,-29.78515625,251.46484375
40.52734375,-175.78125,-37.109375,114.2578125
-319.82421875,-548.33984375,-55.17578125,-380.859375
-337.40234375,-144.04296875,-57.6171875,-442.87109375
120.60546875,363.76953125,-37.109375,152.83203125
218.75,170.8984375,-39.0625,268.06640625
94.7265625,-105.46875,-39.55078125,165.0390625
-275.390625,-552.24609375,-51.7578125,-316.40625
-394.04296875,-239.74609375,-67.3828125,-515.625
64.94140625,331.54296875,-45.8984375,77.1484375
222.16796875,205.56640625,-38.57421875,265.13671875
132.8125,20.01953125,-42.48046875,203.125
-211.9140625,-490.234375,-61.03515625,-231.4453125
-414.0625,-335.9375,-88.37890625,-541.50390625
34.1796875,359.86328125,-68.359375,32.71484375
234.375,244.140625,-36.62109375,274.4140625
157.71484375,47.36328125,-29.296875,211.9140625
-109.86328125,-408.69140625,-34.1796875,-129.8828125
-404.296875,-424.8046875,-48.828125,-537.109375
-62.01171875,329.58984375,-44.43359375,-75.1953125
201.66015625,284.66796875,-28.80859375,246.58203125
125.9765625,66.40625,-33.203125,199.21875
-156.25,-345.21484375,-45.41015625,-137.20703125
-486.328125,-452.1484375,-62.98828125,-599.12109375
-161.62109375,258.7890625,-48.828125,-166.50390625
154.296875,271.97265625,-34.1796875,225.09765625
108.3984375,56.15234375,-38.0859375,191.40625
-136.71875,-340.33203125,-49.31640625,-80.078125
-483.3984375,-574.21875,-65.91796875,-563.96484375
-205.56640625,158.203125,-59.5703125,-223.6328125
165.52734375,326.66015625,-46.38671875,234.86328125
154.78515625,99.609375,-39.0625,229.98046875
-36.1328125,-258.30078125,-44.43359375,10.25390625
-411.1328125,-594.23828125,-67.3828125,-509.27734375
-269.04296875,96.6796875,-63.4765625,-323.2421875
140.625,383.30078125,-39.55078125,172.36328125
166.9921875,106.4453125,-31.25,210.44921875
-41.9921875,-258.30078125,-41.015625,12.6953125
-426.26953125,-621.58203125,-66.89453125,-508.30078125
-312.01171875,-20.99609375,-66.89453125,-391.6015625
143.5546875,363.76953125,-39.55078125,169.921875
199.21875,131.34765625,-35.64453125,229.98046875
44.43359375,-158.203125,-41.50390625,85.9375
-332.51953125,-564.453125,-56.15234375,-408.69140625
-333.49609375,-89.35546875,-62.01171875,-435.05859375
124.0234375,389.16015625,-38.57421875,137.20703125
215.8203125,175.78125,-31.73828125,246.09375
83.984375,-85.44921875,-42.48046875,140.13671875
-287.59765625,-553.7109375,-57.6171875,-337.40234375
-380.859375,-233.88671875,-70.80078125,-492.1875
77.63671875,352.5390625,-56.15234375,82.51953125
213.37890625,175.78125,-41.015625,238.76953125
114.2578125,-40.52734375,-33.203125,163.57421875
-232.421875,-494.140625,-44.921875,-257.32421875
-413.57421875,-288.57421875,-60.546875,-518.5546875
36.1328125,388.671875,-40.0390625,41.015625
223.14453125,236.328125,-26.85546875,262.6953125
134.27734375,23.92578125,-26.3671875,209.9609375
-181.640625,-430.17578125,-43.45703125,-168.9453125
-427.734375,-340.33203125,-64.94140625,-526.3671875
-18.5546875,337.40234375,-49.31640625,-12.6953125
224.609375,230.95703125,-28.3203125,258.30078125
161.62109375,50.78125,-22.4609375,202.1484375
-133.30078125,-395.01953125,-39.0625,-126.953125
-445.3125,-463.8671875,-62.98828125,-545.41015625
-82.51953125,283.203125,-51.26953125,-101.5625
227.5390625,321.77734375,-25.87890625,255.37109375
176.26953125,95.21484375,-26.3671875,234.375
-82.03125,-325.68359375,-51.26953125,-49.31640625
-428.22265625,-530.2734375,-66.89453125,-525.390625
-130.37109375,222.16796875,-48.33984375,-168.45703125
229.4921875,370.60546875,-31.25,255.859375
189.453125,93.26171875,-29.78515625,247.0703125
-38.0859375,-287.59765625,-35.64453125,13.671875
-410.15625,-553.22265625,-58.10546875,-489.2578125
-199.21875,126.46484375,-68.84765625,-235.3515625
204.58984375,378.41796875,-50.29296875,250.9765625
195.3125,130.37109375,-28.3203125,257.32421875
-11.71875,-257.32421875,-28.3203125,55.17578125
-391.11328125,-607.421875,-50.29296875,-442.3828125
-261.23046875,22.94921875,-53.7109375,-304.19921875
155.2734375,369.62890625,-38.0859375,191.40625
177.734375,145.99609375,-35.15625,227.5390625
16.6015625,-127.44140625,-39.0625,84.47265625
-367.67578125,-582.03125,-63.96484375,-408.203125
-335.44921875,-84.47265625,-74.70703125,-393.5546875
120.1171875,392.08984375,-51.26953125,150.87890625
205.56640625,168.9453125,-37.59765625,246.58203125
75.1953125,-105.95703125,-36.1328125,145.99609375
-311.5234375,-537.59765625,-59.08203125,-341.796875
-374.0234375,-171.38671875,-74.21875,-461.42578125
93.75,391.11328125,-50.78125,102.5390625
223.14453125,216.796875,-31.25,243.1640625
112.3046875,-76.171875,-30.2734375,161.1328125
-250.0,-525.390625,-54.19921875,-282.2265625
-391.11328125,-231.93359375,-69.3359375,-497.55859375
69.82421875,378.90625,-41.9921875,79.58984375
237.3046875,201.66015625,-29.78515625,266.6015625
150.390625,-3.90625,-35.64453125,201.66015625
-180.17578125,-457.03125,-51.7578125,-181.640625
-411.1328125,-329.1015625,-75.1953125,-505.859375
20.99609375,362.3046875,-50.78125,28.80859375
248.046875,266.6015625,-31.73828125,293.9453125
171.38671875,50.29296875,-41.015625,244.140625
-138.671875,-387.20703125,-52.24609375,-116.2109375
-414.55078125,-413.57421875,-65.4296875,-501.46484375
-19.04296875,345.703125,-55.17578125,-12.6953125
251.46484375,358.88671875,-39.0625,298.33984375
193.84765625,85.44921875,-39.0625,266.6015625
-84.47265625,-362.79296875,-52.734375,-38.57421875
-431.640625,-520.5078125,-72.265625,-515.13671875
-106.4453125,223.6328125,-61.5234375,-127.9296875
240.72265625,329.1015625,-37.59765625,278.3203125
198.2421875,92.28515625,-36.1328125,257.8125
-42.96875,-291.50390625,-50.78125,-11.23046875
-426.26953125,-562.5,-73.73046875,-529.78515625
-184.08203125,171.875,-64.453125,-236.328125
216.30859375,369.62890625,-37.109375,239.2578125
199.70703125,108.88671875,-28.80859375,246.09375
-11.23046875,-204.58984375,-33.69140625,37.59765625
-393.5546875,-594.7265625,-55.17578125,-473.6328125
-246.58203125,33.69140625,-58.10546875,-299.8046875
175.29296875,389.6484375,-41.50390625,215.8203125
210.44921875,113.28125,-30.2734375,263.671875
43.9453125,-204.1015625,-27.34375,115.72265625
-344.23828125,-598.14453125,-56.640625,-405.2734375
-281.25,-61.03515625,-61.03515625,-356.93359375
186.03515625,388.671875,-32.2265625,216.796875
257.32421875,180.6640625,-20.5078125,301.26953125
91.796875,-151.3671875,-25.87890625,160.64453125
-282.2265625,-561.5234375,-53.22265625,-325.1953125
-307.12890625,-85.44921875,-63.96484375,-390.625
131.34765625,352.05078125,-42.96875,168.9453125
228.02734375,130.37109375,-36.62109375,295.8984375
114.74609375,-87.890625,-40.0390625,214.84375
-233.88671875,-529.78515625,-55.17578125,-236.81640625
-363.76953125,-192.87109375,-67.3828125,-438.96484375
91.796875,386.23046875,-38.0859375,133.7890625
250.48828125,198.2421875,-24.90234375,313.4765625
150.87890625,5.859375,-35.15625,237.3046875
-192.3828125,-469.23828125,-49.31640625,-185.05859375
-405.76171875,-335.9375,-59.5703125,-489.74609375
37.59765625,396.484375,-40.0390625,63.96484375
252.44140625,299.31640625,-30.2734375,310.546875
169.43359375,20.01953125,-33.69140625,250.48828125
-137.6953125,-435.05859375,-41.015625,-122.55859375
-411.62109375,-408.69140625,-63.4765625,-511.71875
-15.13671875,326.66015625,-46.38671875,-9.765625
252.44140625,291.9921875,-23.92578125,307.12890625
184.08203125,89.84375,-25.390625,267.578125
-97.65625,-342.7734375,-41.015625,-55.17578125
-430.17578125,-483.88671875,-71.2890625,-532.71484375
-97.16796875,260.25390625,-56.640625,-106.93359375
225.5859375,290.52734375,-26.3671875,289.0625
189.94140625,106.93359375,-17.578125,257.8125
-59.08203125,-284.1796875,-31.25,-21.484375
-431.640625,-567.3828125,-62.01171875,-527.83203125
-162.59765625,163.0859375,-53.7109375,-197.265625
217.28515625,348.14453125,-31.73828125,259.765625
189.453125,95.21484375,-34.66796875,247.0703125
-27.34375,-248.046875,-38.0859375,20.5078125
-416.50390625,-584.9609375,-61.03515625,-502.9296875
-241.2109375,53.7109375,-59.08203125,-295.8984375
182.6171875,357.421875,-28.80859375,224.12109375
194.82421875,138.671875,-22.4609375,251.953125
1.46484375,-211.9140625,-32.71484375,65.4296875
-393.06640625,-609.86328125,-55.6640625,-459.9609375
-292.48046875,24.4140625,-56.640625,-353.515625
160.15625,381.34765625,-29.296875,216.30859375
203.61328125,95.21484375,-24.90234375,273.92578125
40.52734375,-163.57421875,-37.59765625,121.09375
-339.84375,-563.4765625,-62.01171875,-389.16015625
-343.75,-107.421875,-61.5234375,-417.48046875
120.1171875,368.65234375,-36.62109375,166.9921875
215.33203125,174.8046875,-35.64453125,277.34375
85.9375,-93.26171875,-39.55078125,161.1328125
-288.0859375,-571.77734375,-59.08203125,-343.26171875
-381.8359375,-203.125,-74.70703125,-498.53515625
86.9140625,400.87890625,-52.734375,102.5390625
228.02734375,223.14453125,-41.9921875,270.99609375
131.34765625,-59.08203125,-35.15625,208.0078125
-223.14453125,-548.828125,-42.96875,-246.58203125
-411.62109375,-321.2890625,-62.5,-535.64453125
36.1328125,338.8671875,-51.7578125,46.38671875
232.421875,211.42578125,-38.0859375,272.4609375
156.25,6.8359375,-34.1796875,220.21484375
-158.69140625,-434.08203125,-41.50390625,-157.2265625
-425.78125,-392.08984375,-58.10546875,-546.38671875
-19.04296875,354.98046875,-50.29296875,-30.2734375
236.81640625,294.43359375,-33.69140625,279.296875
164.0625,63.4765625,-28.3203125,232.421875
-132.32421875,-347.65625,-44.43359375,-110.83984375
-449.70703125,-478.02734375,-61.5234375,-561.5234375
-88.37890625,266.11328125,-41.9921875,-109.375
227.05078125,332.51953125,-30.2734375,270.01953125
179.6875,84.47265625,-31.73828125,239.2578125
-87.890625,-319.82421875,-37.109375,-55.6640625
-448.2421875,-518.06640625,-58.59375,-554.19921875
-158.69140625,205.078125,-53.22265625,-198.73046875
214.35546875,363.76953125,-26.85546875,246.58203125
183.59375,130.859375,-20.5078125,232.91015625
-58.59375,-270.01953125,-32.71484375,-13.671875
-435.05859375,-583.49609375,-62.01171875,-530.76171875
-213.8671875,150.390625,-67.87109375,-275.87890625
186.5234375,373.046875,-45.41015625,227.05078125
187.01171875,96.19140625,-46.38671875,253.41796875
-2.44140625,-224.12109375,-49.31640625,50.29296875
-395.99609375,-613.28125,-60.05859375,-489.2578125
-275.87890625,12.20703125,-56.15234375,-346.19140625
180.17578125,402.83203125,-38.0859375,217.28515625
209.9609375,144.53125,-34.66796875,256.8359375
29.78515625,-179.6875,-21.484375,88.8671875
-352.05078125,-579.58984375,-43.9453125,-425.78125
-333.0078125,-96.6796875,-62.5,-432.12890625
133.30078125,390.625,-34.1796875,169.43359375
214.35546875,190.4296875,-25.390625,281.73828125
75.1953125,-127.44140625,-43.9453125,152.83203125
-302.734375,-577.63671875,-62.01171875,-350.5859375
-368.1640625,-169.43359375,-61.5234375,-469.23828125
102.05078125,391.11328125,-34.66796875,132.32421875
223.6328125,197.75390625,-24.4140625,275.390625
112.79296875,-47.8515625,-24.90234375,196.77734375
-250.9765625,-517.578125,-42.48046875,-271.97265625
-413.0859375,-276.85546875,-71.2890625,-527.34375
41.015625,372.55859375,-59.5703125,69.3359375
214.84375,209.47265625,-38.0859375,287.59765625
129.8828125,9.765625,-35.64453125,224.609375
-206.0546875,-436.03515625,-46.38671875,-197.265625
-445.3125,-375.48828125,-62.01171875,-555.17578125
-18.06640625,323.2421875,-44.921875,-6.8359375
218.75,254.39453125,-29.296875,270.99609375
152.34375,56.15234375,-35.64453125,229.98046875
-148.4375,-376.953125,-49.31640625,-136.71875
-444.82421875,-457.51953125,-63.96484375,-573.2421875
-73.73046875,303.7109375,-42.96875,-82.03125
209.47265625,323.2421875,-25.87890625,278.3203125
151.85546875,75.1953125,-34.1796875,239.2578125
-110.83984375,-341.30859375,-49.31640625,-80.56640625
-449.21875,-495.60546875,-75.1953125,-567.87109375
-132.32421875,274.90234375,-62.01171875,-162.109375
211.42578125,315.4296875,-37.109375,264.6484375
171.875,93.75,-34.66796875,242.67578125
-66.40625,-267.578125,-35.64453125,-16.6015625
-444.82421875,-569.82421875,-60.05859375,-542.96875
-210.9375,153.80859375,-60.05859375,-252.44140625
191.89453125,369.140625,-26.85546875,251.953125
187.98828125,119.62890625,-25.390625,256.8359375
-24.4140625,-243.65234375,-35.15625,33.69140625
-414.55078125,-618.65234375,-47.36328125,-491.69921875
-268.06640625,24.90234375,-48.828125,-321.77734375
167.48046875,396.97265625,-32.2265625,221.19140625
192.3828125,159.66796875,-33.69140625,266.6015625
21.484375,-212.40234375,-40.52734375,96.19140625
-362.79296875,-635.25390625,-61.03515625,-435.546875
-306.15234375,-57.6171875,-69.82421875,-393.5546875
150.390625,393.06640625,-41.015625,183.10546875
215.33203125,174.31640625,-22.94921875,252.9296875
71.77734375,-94.23828125,-26.3671875,122.55859375
-318.84765625,-580.56640625,-57.6171875,-382.8125
-365.234375,-186.03515625,-68.84765625,-471.6796875
109.375,379.8828125,-36.1328125,125.9765625
221.19140625,179.6875,-28.3203125,256.8359375
104.00390625,-42.96875,-40.52734375,170.41015625
-252.44140625,-480.95703125,-57.12890625,-292.96875
-397.94921875,-272.4609375,-70.3125,-511.71875
57.12890625,354.4921875,-49.31640625,84.47265625
215.33203125,210.44921875,-31.73828125,273.92578125
117.1875,-13.18359375,-29.78515625,196.77734375
-212.890625,-470.21484375,-48.33984375,-224.12109375
-424.8046875,-336.42578125,-63.4765625,-532.71484375
7.32421875,344.23828125,-37.59765625,22.94921875
231.93359375,259.765625,-19.53125,271.97265625
157.2265625,51.26953125,-20.5078125,224.12109375
-161.62109375,-429.19921875,-38.57421875,-163.57421875
-439.453125,-425.78125,-63.4765625,-576.66015625
-41.9921875,336.42578125,-49.31640625,-51.7578125
231.4453125,303.22265625,-32.2265625,287.109375
170.41015625,52.734375,-42.48046875,240.234375
-109.375,-365.72265625,-62.98828125,-86.9140625
-445.80078125,-496.09375,-72.75390625,-561.03515625
-114.2578125,257.8125,-57.6171875,-134.27734375
219.7265625,325.68359375,-32.2265625,278.3203125
175.29296875,64.453125,-24.90234375,251.46484375
-71.77734375,-304.19921875,-34.66796875,-24.4140625
-430.17578125,-529.78515625,-62.98828125,-543.9453125
-177.734375,149.90234375,-66.40625,-222.65625
203.125,344.23828125,-47.8515625,256.34765625
196.77734375,135.7421875,-41.9921875,253.90625
-25.390625,-264.16015625,-49.8046875,20.5078125
-420.41015625,-626.46484375,-71.2890625,-527.34375
-242.67578125,45.41015625,-58.59375,-309.08203125
179.19921875,351.07421875,-33.69140625,236.328125
193.359375,124.0234375,-29.296875,253.90625
11.71875,-218.75,-37.59765625,63.96484375
-380.37109375,-595.21484375,-62.98828125,-475.09765625
-297.36328125,-26.3671875,-61.5234375,-390.13671875
154.78515625,374.0234375,-40.52734375,187.5
205.078125,161.1328125,-40.0390625,251.953125
43.45703125,-132.8125,-47.8515625,107.91015625
-338.8671875,-536.62109375,-63.4765625,-402.83203125
-359.375,-128.90625,-70.80078125,-450.68359375
98.6328125,376.46484375,-47.8515625,149.4140625
199.21875,188.96484375,-30.2734375,269.53125
67.3828125,-104.98046875,-23.92578125,157.2265625
-306.640625,-540.52734375,-39.0625,-330.078125
-411.62109375,-223.14453125,-58.10546875,-505.37109375
61.5234375,358.88671875,-38.57421875,98.14453125
221.19140625,205.078125,-20.99609375,283.69140625
130.859375,-28.80859375,-22.4609375,210.44921875
-222.16796875,-503.90625,-52.734375,-242.1875
-405.76171875,-283.69140625,-74.21875,-527.83203125
51.26953125,395.5078125,-50.78125,57.12890625
245.1171875,229.00390625,-39.0625,288.0859375
155.2734375,23.92578125,-36.62109375,222.16796875
-167.48046875,-409.66796875,-48.33984375,-177.734375
-438.96484375,-391.6015625,-72.265625,-570.80078125
-25.390625,363.76953125,-49.8046875,-24.90234375
234.86328125,290.52734375,-31.25,290.0390625
167.48046875,25.390625,-37.109375,240.72265625
-122.55859375,-379.8828125,-43.9453125,-98.14453125
-440.91796875,-462.890625,-63.4765625,-560.05859375
-69.3359375,271.97265625,-47.8515625,-90.33203125
242.67578125,321.2890625,-17.08984375,308.10546875
174.8046875,103.02734375,-16.11328125,271.484375
-82.03125,-333.49609375,-33.203125,-34.1796875
-431.640625,-558.10546875,-51.7578125,-548.828125
-145.01953125,180.6640625,-35.64453125,-174.31640625
222.16796875,345.21484375,-19.53125,285.64453125
189.94140625,102.5390625,-22.4609375,261.71875
-28.3203125,-270.99609375,-27.83203125,15.13671875
-400.390625,-573.73046875,-50.78125,-520.5078125
-202.63671875,89.84375,-54.19921875,-278.80859375
213.8671875,370.1171875,-31.25,250.48828125
216.796875,101.07421875,-27.34375,265.625
11.71875,-221.6796875,-36.62109375,49.8046875
-378.41796875,-556.15234375,-64.94140625,-486.328125
-269.53125,3.90625,-62.01171875,-359.86328125
170.8984375,355.46875,-28.80859375,202.63671875
214.84375,131.34765625,-29.78515625,262.6953125
56.15234375,-154.78515625,-36.1328125,115.72265625
-333.984375,-581.54296875,-59.5703125,-411.1328125
-327.63671875,-107.421875,-66.40625,-421.38671875
138.18359375,367.1875,-36.62109375,171.875
228.02734375,173.33984375,-28.80859375,276.3671875
89.35546875,-107.421875,-33.69140625,156.73828125
-287.59765625,-550.29296875,-55.6640625,-338.37890625
-369.62890625,-142.08984375,-69.82421875,-478.515625
92.28515625,422.8515625,-43.9453125,119.62890625
228.02734375,195.3125,-33.69140625,280.76171875
116.69921875,-85.44921875,-34.66796875,187.5
-237.79296875,-527.34375,-46.875,-265.13671875
-409.1796875,-285.64453125,-70.80078125,-531.25
56.640625,379.8828125,-52.734375,60.05859375
250.48828125,237.79296875,-33.69140625,291.015625
163.0859375,22.4609375,-39.55078125,232.421875
-172.36328125,-442.3828125,-55.6640625,-187.5
-430.6640625,-392.578125,-74.21875,-572.75390625
-4.39453125,348.6328125,-55.17578125,-9.27734375
241.2109375,279.78515625,-38.57421875,291.9921875
164.55078125,84.9609375,-40.52734375,240.72265625
-149.90234375,-378.41796875,-56.640625,-134.27734375
-473.6328125,-485.3515625,-78.61328125,-599.609375
-88.8671875,320.3125,-60.05859375,-97.16796875
225.5859375,314.94140625,-35.15625,293.45703125
174.31640625,53.22265625,-28.80859375,255.859375
-99.12109375,-343.26171875,-42.48046875,-63.96484375
-459.47265625,-518.5546875,-68.359375,-573.73046875
-141.6015625,244.140625,-50.78125,-166.9921875
226.07421875,351.5625,-26.3671875,289.55078125
192.87109375,102.05078125,-33.203125,270.99609375
-50.29296875,-268.06640625,-41.015625,-4.39453125
-446.77734375,-555.17578125,-60.05859375,-560.05859375
-224.12109375,118.65234375,-59.5703125,-274.90234375
184.5703125,344.23828125,-43.9453125,243.65234375
180.6640625,105.95703125,-51.26953125,254.39453125
-21.97265625,-249.0234375,-56.640625,40.0390625
-419.921875,-604.4921875,-63.96484375,-514.6484375
-285.15625,31.73828125,-55.6640625,-353.515625
160.64453125,373.53515625,-29.78515625,218.26171875
199.21875,148.4375,-22.4609375,270.99609375
26.3671875,-182.6171875,-23.4375,107.91015625
-377.44140625,-614.2578125,-49.8046875,-443.359375
-333.0078125,-61.03515625,-62.5,-407.2265625
146.97265625,409.1796875,-36.62109375,211.9140625
215.8203125,159.1796875,-26.85546875,297.8515625
71.77734375,-138.671875,-29.78515625,164.55078125
-316.40625,-594.23828125,-55.6640625,-354.4921875
-374.51171875,-183.10546875,-71.2890625,-464.35546875
119.140625,395.01953125,-37.109375,154.296875
241.69921875,209.47265625,-21.97265625,295.8984375
120.60546875,-60.05859375,-28.3203125,189.94140625
-258.30078125,-526.3671875,-51.26953125,-304.19921875
-412.59765625,-238.76953125,-75.1953125,-534.1796875
74.21875,380.37109375,-48.33984375,93.26171875
252.44140625,216.796875,-37.59765625,304.19921875
160.64453125,22.94921875,-46.875,242.67578125
-194.3359375,-491.2109375,-57.6171875,-208.984375
-450.1953125,-401.3671875,-80.56640625,-575.1953125
8.7890625,367.1875,-54.6875,23.92578125
253.90625,280.2734375,-29.296875,315.91796875
171.875,46.38671875,-33.203125,253.90625
-154.296875,-412.109375,-51.7578125,-146.484375
-463.37890625,-447.265625,-73.2421875,-585.9375
-49.31640625,339.35546875,-59.5703125,-58.59375
248.53515625,316.40625,-43.45703125,307.6171875
182.12890625,69.3359375,-41.015625,264.6484375
-99.609375,-349.609375,-50.29296875,-80.56640625
-457.03125,-508.30078125,-78.125,-587.40234375
-110.3515625,263.671875,-70.80078125,-143.06640625
250.9765625,333.49609375,-43.45703125,302.24609375
203.125,83.984375,-30.2734375,271.97265625
-56.640625,-312.98828125,-37.109375,-14.6484375
-449.21875,-577.1484375,-67.87109375,-569.3359375
-191.89453125,178.7109375,-70.80078125,-245.60546875
219.7265625,378.41796875,-42.96875,272.94921875
209.9609375,104.00390625,-33.69140625,271.97265625
-20.5078125,-277.34375,-43.45703125,21.484375
-450.68359375,-629.8828125,-71.77734375,-557.12890625
-293.9453125,71.2890625,-67.3828125,-345.21484375
174.31640625,428.7109375,-33.203125,242.1875
194.82421875,125.48828125,-35.64453125,287.109375
-4.39453125,-231.4453125,-46.875,85.9375
-421.875,-651.3671875,-64.453125,-486.81640625
-349.12109375,-75.1953125,-67.87109375,-400.87890625
151.3671875,380.37109375,-44.43359375,218.26171875
227.05078125,148.92578125,-38.57421875,296.38671875
73.73046875,-154.78515625,-46.38671875,143.06640625
-338.8671875,-607.421875,-63.96484375,-415.0390625
-373.53515625,-137.6953125,-69.3359375,-482.421875
121.58203125,399.4140625,-44.43359375,166.9921875
218.75,189.94140625,-39.55078125,296.38671875
92.28515625,-56.640625,-43.45703125,184.08203125
-295.41015625,-558.10546875,-57.12890625,-336.42578125
-436.03515625,-259.27734375,-73.73046875,-550.29296875
63.96484375,411.1328125,-52.734375,104.98046875
229.98046875,226.5625,-43.45703125,296.38671875
120.1171875,-10.7421875,-48.828125,216.30859375
-252.9296875,-508.30078125,-63.96484375,-241.69921875
-475.09765625,-366.69921875,-83.49609375,-566.89453125
13.671875,381.8359375,-51.26953125,50.78125
247.55859375,261.71875,-29.296875,321.2890625
164.0625,13.18359375,-40.0390625,244.140625
-174.8046875,-460.9375,-53.22265625,-200.68359375
-474.12109375,-416.9921875,-73.73046875,-634.27734375
-36.62109375,363.28125,-58.10546875,-59.5703125
250.48828125,285.15625,-39.55078125,293.9453125
175.29296875,53.22265625,-41.9921875,240.234375
-133.30078125,-373.046875,-53.22265625,-118.65234375
-491.69921875,-498.046875,-73.2421875,-614.74609375
-120.60546875,294.921875,-54.6875,-128.41796875
240.72265625,337.40234375,-26.3671875,312.01171875
193.84765625,98.6328125,-26.85546875,277.34375
-84.9609375,-296.38671875,-46.875,-44.921875
-482.421875,-577.1484375,-72.75390625,-597.16796875
-181.15234375,185.546875,-61.03515625,-218.26171875
220.703125,408.203125,-36.1328125,293.9453125
190.91796875,136.23046875,-31.25,291.9921875
-56.640625,-309.5703125,-37.109375,24.90234375
-473.6328125,-615.72265625,-58.59375,-558.10546875
-257.32421875,102.05078125,-59.5703125,-308.59375
205.078125,400.390625,-39.55078125,270.99609375
221.6796875,141.6015625,-34.1796875,301.7578125
18.5546875,-231.4453125,-38.57421875,83.0078125
-413.0859375,-646.484375,-62.5,-502.9296875
-312.5,-8.30078125,-69.3359375,-386.23046875
168.9453125,408.69140625,-43.9453125,229.00390625
229.98046875,168.45703125,-30.76171875,299.8046875
74.21875,-136.71875,-36.62109375,142.578125
-352.05078125,-639.16015625,-61.5234375,-430.17578125
-353.02734375,-140.13671875,-73.2421875,-450.68359375
173.828125,420.41015625,-46.875,201.171875
268.5546875,197.265625,-36.62109375,307.6171875
115.234375,-104.00390625,-45.8984375,177.24609375
-301.7578125,-611.328125,-67.3828125,-372.55859375
-407.2265625,-230.46875,-75.68359375,-537.59765625
126.953125,424.31640625,-49.8046875,133.30078125
287.109375,227.05078125,-40.52734375,317.87109375
166.9921875,-34.1796875,-41.9921875,231.93359375
-238.28125,-520.01953125,-60.05859375,-280.2734375
-443.359375,-286.1328125,-72.265625,-578.125
50.29296875,368.65234375,-40.52734375,64.453125
250.0,219.7265625,-25.87890625,314.453125
174.31640625,32.2265625,-28.80859375,260.25390625
-187.5,-502.44140625,-49.8046875,-190.4296875
-481.93359375,-444.3359375,-70.80078125,-601.07421875
-7.32421875,361.81640625,-47.36328125,-1.46484375
272.94921875,296.38671875,-24.90234375,324.70703125
197.265625,57.12890625,-26.3671875,259.765625
-121.58203125,-428.22265625,-43.9453125,-133.30078125
-483.3984375,-529.296875,-65.91796875,-631.8359375
-81.0546875,320.3125,-50.29296875,-109.86328125
275.87890625,374.51171875,-27.34375,311.5234375
218.75,90.33203125,-27.83203125,266.6015625
-76.66015625,-367.1875,-40.0390625,-65.91796875
-471.19140625,-597.16796875,-59.08203125,-613.28125
-142.08984375,222.65625,-45.41015625,-192.3828125
262.6953125,406.73828125,-18.5546875,304.6875
227.05078125,123.53515625,-17.08984375,279.78515625
-37.109375,-327.63671875,-30.2734375,-7.32421875
-453.61328125,-633.30078125,-61.5234375,-586.42578125
-216.30859375,142.08984375,-61.03515625,-294.43359375
223.14453125,421.38671875,-31.73828125,269.53125
234.375,169.921875,-23.92578125,282.71484375
22.4609375,-220.703125,-23.92578125,51.7578125
-434.08203125,-671.875,-51.7578125,-541.9921875
-299.31640625,11.23046875,-54.6875,-386.23046875
204.1015625,410.15625,-25.87890625,233.88671875
240.72265625,152.34375,-26.3671875,286.62109375
52.24609375,-178.22265625,-24.4140625,106.4453125
-391.6015625,-659.66796875,-46.38671875,-479.00390625
-366.2109375,-104.00390625,-59.08203125,-468.26171875
166.50390625,440.91796875,-30.2734375,190.91796875
253.90625,205.56640625,-23.4375,302.24609375
92.7734375,-153.80859375,-27.34375,166.015625
-338.8671875,-628.90625,-51.26953125,-397.4609375
-412.59765625,-152.34375,-64.94140625,-525.87890625
122.55859375,422.8515625,-36.1328125,154.78515625
254.39453125,194.82421875,-36.1328125,310.546875
132.32421875,-44.921875,-44.921875,202.63671875
-270.5078125,-584.9609375,-50.29296875,-301.26953125
-454.1015625,-302.734375,-65.91796875,-574.21875
66.89453125,437.98828125,-39.0625,77.63671875
265.625,255.859375,-22.4609375,310.546875
162.59765625,18.06640625,-30.2734375,232.421875
-216.30859375,-499.51171875,-49.8046875,-232.421875
-490.72265625,-413.0859375,-74.21875,-613.28125
2.44140625,407.2265625,-56.640625,12.6953125
271.97265625,335.9375,-33.69140625,331.0546875
187.5,58.59375,-32.71484375,267.08984375
-163.0859375,-463.37890625,-49.8046875,-147.4609375
-516.6015625,-522.94921875,-73.73046875,-627.9296875
-76.171875,341.796875,-53.7109375,-80.56640625
262.20703125,360.83984375,-33.69140625,312.5
201.66015625,104.00390625,-40.0390625,267.08984375
-114.2578125,-381.8359375,-50.78125,-84.9609375
-527.34375,-580.56640625,-75.68359375,-626.46484375
-163.57421875,280.2734375,-66.40625,-176.26953125
243.65234375,383.30078125,-38.0859375,301.7578125
205.078125,112.3046875,-36.62109375,278.3203125
-71.2890625,-292.48046875,-44.43359375,-24.4140625
-503.90625,-640.13671875,-65.91796875,-607.421875
-232.421875,160.15625,-62.5,-284.66796875
225.09765625,422.8515625,-39.55078125,261.23046875
217.7734375,109.375,-35.64453125,266.11328125
-20.99609375,-292.96875,-46.38671875,16.6015625
-478.02734375,-672.8515625,-74.21875,-578.125
-312.98828125,53.7109375,-70.80078125,-380.859375
199.21875,422.36328125,-40.0390625,235.3515625
249.51171875,175.29296875,-32.71484375,295.8984375
43.9453125,-213.8671875,-39.0625,97.65625
-419.921875,-678.7109375,-59.08203125,-496.58203125
-350.09765625,-25.390625,-62.98828125,-437.98828125
188.96484375,429.6875,-42.96875,200.68359375
268.06640625,160.15625,-36.1328125,301.7578125
96.19140625,-147.4609375,-32.71484375,159.66796875
-359.86328125,-645.01953125,-57.6171875,-420.41015625
-409.1796875,-145.99609375,-74.70703125,-500.0
131.8359375,444.82421875,-38.57421875,176.7578125
259.27734375,203.125,-20.99609375,317.87109375
116.69921875,-84.9609375,-31.73828125,200.1953125
-308.10546875,-597.65625,-45.8984375,-327.63671875
-460.44921875,-267.08984375,-65.91796875,-550.78125
86.9140625,438.4765625,-55.17578125,110.83984375
290.52734375,271.484375,-27.34375,323.2421875
177.24609375,-11.23046875,-21.97265625,236.81640625
-230.95703125,-547.8515625,-38.0859375,-242.67578125
-486.81640625,-381.8359375,-60.546875,-589.35546875
28.3203125,417.96875,-47.36328125,46.875
289.55078125,300.29296875,-29.78515625,334.9609375
194.82421875,51.26953125,-32.71484375,267.08984375
-170.8984375,-466.30859375,-48.33984375,-152.83203125
-500.0,-483.88671875,-72.265625,-608.3984375
-38.0859375,372.55859375,-46.875,-38.0859375
280.2734375,314.453125,-25.390625,322.265625
214.35546875,87.40234375,-31.73828125,265.13671875
-104.00390625,-359.86328125,-41.9921875,-91.30859375
-505.37109375,-581.0546875,-69.82421875,-621.58203125
-114.74609375,268.06640625,-50.29296875,-146.97265625
289.55078125,396.484375,-19.04296875,321.2890625
248.046875,131.8359375,-29.78515625,294.43359375
-54.6875,-340.33203125,-47.8515625,-28.3203125
-492.1875,-632.32421875,-80.078125,-602.05078125
-189.453125,210.9375,-67.87109375,-230.95703125
260.25390625,400.87890625,-30.2734375,298.828125
255.859375,138.671875,-19.04296875,293.45703125
0.0,-278.80859375,-28.80859375,24.90234375
-468.26171875,-655.2734375,-61.5234375,-572.265625
-256.34765625,144.04296875,-63.96484375,-333.49609375
250.0,443.359375,-37.109375,257.32421875
258.30078125,99.609375,-30.76171875,288.57421875
36.62109375,-256.8359375,-39.55078125,82.03125
-423.33984375,-661.62109375,-61.03515625,-502.44140625
-333.984375,-9.27734375,-64.94140625,-403.80859375
191.89453125,448.2421875,-38.0859375,217.7734375
259.27734375,200.68359375,-23.4375,293.9453125
83.0078125,-144.53125,-24.90234375,129.8828125
-380.37109375,-638.18359375,-60.05859375,-444.82421875
-403.80859375,-124.0234375,-82.51953125,-481.93359375
150.87890625,446.77734375,-45.41015625,180.17578125
273.4375,228.515625,-24.4140625,312.98828125
128.41796875,-102.5390625,-30.2734375,196.77734375
-315.91796875,-625.9765625,-54.6875,-348.6328125
-450.68359375,-238.76953125,-67.87109375,-541.015625
98.14453125,424.31640625,-41.015625,124.51171875
263.18359375,213.8671875,-30.2734375,313.96484375
143.06640625,-27.34375,-33.203125,220.703125
-255.37109375,-535.64453125,-54.19921875,-270.99609375
-486.328125,-346.19140625,-78.125,-590.33203125
28.80859375,416.015625,-53.22265625,41.50390625
281.25,277.34375,-28.80859375,329.1015625
149.90234375,5.37109375,-27.34375,205.078125
-245.1171875,-497.0703125,-55.17578125,-268.5546875
-502.9296875,-421.875,-86.42578125,-622.55859375
-29.296875,369.140625,-60.05859375,-43.45703125
286.62109375,313.4765625,-29.78515625,308.59375
189.94140625,60.05859375,-28.3203125,225.09765625
-163.0859375,-416.50390625,-43.9453125,-162.59765625
-517.578125,-524.4140625,-72.265625,-628.41796875
-99.609375,309.08203125,-55.17578125,-120.1171875
278.80859375,367.1875,-22.94921875,317.87109375
229.4921875,96.6796875,-21.97265625,283.203125
-72.75390625,-352.05078125,-38.0859375,-36.62109375
-508.30078125,-584.9609375,-66.89453125,-603.515625
-173.828125,279.296875,-61.03515625,-213.37890625
263.18359375,410.15625,-40.52734375,300.78125
228.515625,105.46875,-38.0859375,288.57421875
-32.2265625,-306.15234375,-41.9921875,6.34765625
-501.46484375,-662.109375,-66.89453125,-587.890625
-277.83203125,136.23046875,-65.4296875,-312.5
221.6796875,432.6171875,-28.80859375,256.34765625
229.00390625,138.18359375,-27.34375,277.83203125
2.44140625,-249.0234375,-38.57421875,60.05859375
-458.0078125,-666.50390625,-56.15234375,-537.109375
-324.21875,-0.48828125,-62.5,-393.06640625
212.890625,441.40625,-34.1796875,239.74609375
261.71875,205.078125,-26.85546875,293.9453125
66.40625,-192.87109375,-35.15625,110.83984375
-399.4140625,-697.265625,-66.40625,-473.14453125
-389.6484375,-106.4453125,-85.44921875,-472.65625
159.1796875,444.82421875,-47.36328125,192.3828125
261.71875,219.23828125,-23.4375,309.5703125
104.4921875,-117.67578125,-28.3203125,174.8046875
-346.19140625,-646.484375,-54.19921875,-384.765625
-440.91796875,-205.56640625,-70.3125,-532.2265625
117.67578125,445.3125,-41.015625,141.6015625
268.06640625,228.02734375,-28.3203125,311.5234375
145.99609375,-22.94921875,-33.69140625,214.35546875
-266.11328125,-545.8984375,-53.22265625,-283.203125
-469.23828125,-306.15234375,-74.21875,-566.40625
75.1953125,420.8984375,-46.875,85.44921875
290.0390625,259.27734375,-26.85546875,329.1015625
179.19921875,30.2734375,-34.66796875,254.39453125
-216.796875,-514.16015625,-54.6875,-206.54296875
-519.04296875,-431.640625,-72.75390625,-611.328125
-14.16015625,420.8984375,-53.22265625,-4.39453125
280.2734375,315.91796875,-38.57421875,319.82421875
199.21875,66.89453125,-40.0390625,267.08984375
-157.71484375,-425.78125,-49.31640625,-133.30078125
-521.97265625,-511.23046875,-66.40625,-623.53515625
-69.82421875,383.7890625,-48.33984375,-87.890625
288.57421875,349.12109375,-22.94921875,322.265625
229.98046875,77.63671875,-23.4375,287.59765625
-83.984375,-360.83984375,-41.9921875,-58.59375
-520.5078125,-608.88671875,-72.265625,-621.09375
-158.69140625,256.8359375,-60.546875,-191.40625
270.99609375,402.34375,-36.1328125,303.7109375
239.74609375,135.7421875,-36.1328125,288.57421875
-43.45703125,-320.80078125,-46.875,-3.90625
-502.9296875,-653.80859375,-71.2890625,-585.44921875
-237.79296875,152.34375,-61.5234375,-270.99609375
231.93359375,425.78125,-35.64453125,288.57421875
238.28125,196.2890625,-33.203125,296.38671875
5.37109375,-271.97265625,-44.921875,51.7578125
-475.09765625,-722.65625,-72.265625,-546.875
-316.40625,61.5234375,-71.77734375,-373.046875
203.61328125,452.63671875,-38.57421875,242.1875
240.72265625,183.10546875,-26.85546875,294.43359375
48.33984375,-201.171875,-30.2734375,100.5859375
-423.33984375,-703.61328125,-50.29296875,-477.05078125
-376.46484375,-74.21875,-56.640625,-435.546875
175.78125,438.4765625,-30.76171875,207.51953125
250.9765625,183.59375,-27.83203125,304.19921875
88.37890625,-138.18359375,-37.59765625,166.015625
-359.86328125,-629.39453125,-58.10546875,-393.06640625
-426.7578125,-178.22265625,-65.91796875,-502.44140625
125.48828125,424.8046875,-42.48046875,163.57421875
256.8359375,211.42578125,-42.96875,316.89453125
127.9296875,-68.84765625,-45.41015625,219.7265625
-300.78125,-609.375,-55.17578125,-305.6640625
-480.46875,-292.48046875,-67.3828125,-562.01171875
69.82421875,449.21875,-43.9453125,104.98046875
271.97265625,267.578125,-29.296875,328.125
181.640625,24.90234375,-30.76171875,246.58203125
-223.14453125,-546.875,-50.78125,-227.5390625
-511.23046875,-411.1328125,-70.80078125,-601.5625
10.25390625,442.3828125,-50.78125,21.484375
278.3203125,302.24609375,-36.1328125,318.84765625
190.91796875,38.57421875,-34.1796875,248.046875
-176.7578125,-450.68359375,-47.36328125,-168.9453125
-535.64453125,-498.53515625,-66.89453125,-639.6484375
-73.73046875,373.53515625,-49.8046875,-83.49609375
268.06640625,349.609375,-30.76171875,307.6171875
189.94140625,59.5703125,-31.25,261.71875
-131.34765625,-400.390625,-47.8515625,-95.703125
-542.48046875,-576.171875,-72.75390625,-626.953125
-154.78515625,288.57421875,-51.7578125,-158.69140625
262.20703125,405.76171875,-22.4609375,310.546875
217.7734375,141.6015625,-22.4609375,284.1796875
-73.73046875,-332.51953125,-35.15625,-29.296875
-517.08984375,-664.55078125,-61.03515625,-611.81640625
-221.6796875,159.1796875,-57.6171875,-268.06640625
237.79296875,419.43359375,-29.296875,278.3203125
234.86328125,162.59765625,-22.4609375,281.73828125
-8.7890625,-279.296875,-35.64453125,20.99609375
-480.95703125,-685.05859375,-64.94140625,-573.73046875
-287.109375,93.75,-64.453125,-351.5625
230.46875,461.42578125,-30.2734375,254.8828125
249.51171875,161.1328125,-31.73828125,293.45703125
40.0390625,-221.19140625,-48.33984375,90.8203125
-416.9921875,-656.73828125,-63.4765625,-488.28125
-345.21484375,-58.10546875,-62.01171875,-420.8984375
187.01171875,432.12890625,-35.64453125,201.171875
260.7421875,185.05859375,-23.92578125,291.9921875
74.70703125,-194.82421875,-27.83203125,131.34765625
-395.01953125,-693.84765625,-54.19921875,-442.87109375
-417.96875,-172.36328125,-65.4296875,-498.046875
143.5546875,443.84765625,-34.66796875,168.45703125
265.625,198.2421875,-20.5078125,300.78125
130.37109375,-112.79296875,-28.3203125,185.546875
-314.94140625,-649.90234375,-49.8046875,-345.703125
-458.49609375,-278.80859375,-67.87109375,-554.19921875
104.98046875,472.16796875,-46.38671875,114.2578125
272.4609375,218.75,-31.73828125,318.359375
155.76171875,-67.3828125,-35.64453125,243.65234375
-248.046875,-552.734375,-51.26953125,-243.1640625
-499.51171875,-378.90625,-69.3359375,-583.984375
32.2265625,428.7109375,-47.8515625,59.08203125
281.25,303.22265625,-26.85546875,319.3359375
190.91796875,36.62109375,-27.83203125,245.60546875
-186.03515625,-493.65234375,-46.875,-181.15234375
-517.578125,-482.91015625,-74.21875,-625.0
-38.0859375,385.7421875,-59.08203125,-39.55078125
270.5078125,334.9609375,-33.69140625,326.171875
200.1953125,103.02734375,-23.92578125,272.94921875
-131.8359375,-412.109375,-41.50390625,-106.4453125
-524.4140625,-594.7265625,-73.73046875,-622.0703125
-118.1640625,297.8515625,-57.12890625,-124.51171875
262.20703125,365.234375,-32.2265625,310.05859375
218.26171875,112.79296875,-28.3203125,273.4375
-84.9609375,-351.5625,-35.15625,-47.8515625
-506.34765625,-624.0234375,-68.84765625,-589.35546875
-175.29296875,254.39453125,-68.84765625,-201.66015625
251.953125,424.31640625,-44.921875,290.52734375
234.86328125,105.95703125,-41.9921875,284.1796875
-20.99609375,-303.22265625,-45.8984375,12.20703125
-474.609375,-639.16015625,-62.5,-577.1484375
-261.23046875,94.7265625,-65.4296875,-323.73046875
245.1171875,412.109375,-47.36328125,270.5078125
270.5078125,169.43359375,-36.62109375,302.24609375
36.1328125,-242.67578125,-27.34375,72.75390625
-451.66015625,-690.4296875,-50.78125,-536.62109375
-349.609375,-3.41796875,-60.05859375,-422.8515625
180.6640625,452.1484375,-28.80859375,220.21484375
246.09375,167.96875,-14.16015625,301.7578125
65.4296875,-210.44921875,-21.97265625,130.37109375
-402.83203125,-692.3828125,-51.26953125,-447.75390625
-401.3671875,-104.4921875,-62.98828125,-465.8203125
158.69140625,479.00390625,-30.76171875,195.80078125
270.01953125,179.19921875,-19.53125,312.01171875
108.88671875,-149.90234375,-28.80859375,177.24609375
-335.9375,-647.4609375,-42.96875,-365.72265625
-443.84765625,-257.32421875,-55.6640625,-524.90234375
102.05078125,412.59765625,-41.50390625,136.71875
267.578125,227.05078125,-38.0859375,316.89453125
160.15625,-27.83203125,-35.15625,232.91015625
-262.6953125,-551.7578125,-46.875,-267.578125
-481.4453125,-307.6171875,-63.4765625,-571.77734375
56.640625,437.98828125,-41.015625,73.73046875
283.203125,286.1328125,-31.25,323.73046875
188.96484375,58.10546875,-41.50390625,255.37109375
-199.21875,-489.74609375,-56.640625,-178.7109375
-512.20703125,-417.48046875,-68.84765625,-588.37890625
-16.6015625,419.43359375,-43.45703125,-3.41796875
276.85546875,319.82421875,-27.34375,333.0078125
205.078125,78.125,-26.85546875,286.62109375
-144.53125,-426.7578125,-48.33984375,-100.09765625
-531.25,-551.26953125,-76.171875,-596.6796875
-86.9140625,324.70703125,-47.8515625,-84.9609375
276.85546875,370.60546875,-23.4375,326.66015625
213.37890625,107.421875,-27.83203125,279.296875
-89.35546875,-343.26171875,-36.1328125,-57.6171875
-517.08984375,-583.984375,-63.4765625,-606.93359375
-173.33984375,224.609375,-58.10546875,-199.70703125
261.71875,387.6953125,-34.66796875,299.31640625
235.3515625,119.62890625,-41.015625,292.48046875
-38.0859375,-327.63671875,-49.31640625,9.27734375
-499.51171875,-642.08984375,-68.84765625,-575.1953125
-255.859375,150.390625,-58.59375,-288.0859375
230.46875,383.30078125,-31.25,272.94921875
234.86328125,123.53515625,-25.87890625,298.33984375
2.9296875,-239.2578125,-39.55078125,73.73046875
-468.26171875,-677.24609375,-75.68359375,-516.11328125
-326.66015625,23.92578125,-67.87109375,-370.1171875
207.03125,459.9609375,-26.3671875,233.3984375
253.41796875,180.17578125,-19.53125,292.96875
57.12890625,-213.8671875,-41.015625,108.88671875
-416.015625,-685.05859375,-68.359375,-468.26171875
-384.765625,-77.63671875,-74.21875,-455.078125
166.9921875,437.5,-44.43359375,190.4296875
257.8125,189.453125,-28.3203125,302.24609375
108.3984375,-144.53125,-32.2265625,167.96875
-337.40234375,-641.11328125,-51.7578125,-382.32421875
-427.734375,-176.7578125,-66.89453125,-522.4609375
127.9296875,438.4765625,-39.55078125,140.13671875
272.4609375,240.72265625,-29.78515625,300.78125
145.99609375,-14.6484375,-42.48046875,198.2421875
-281.73828125,-589.35546875,-62.5,-308.59375
-479.00390625,-318.359375,-75.1953125,-576.171875
69.82421875,430.6640625,-46.38671875,85.9375
285.15625,260.25390625,-31.25,318.359375
182.6171875,7.32421875,-41.9921875,229.98046875
-215.33203125,-534.66796875,-56.640625,-222.16796875
-505.37109375,-408.203125,-67.3828125,-591.796875
4.39453125,418.9453125,-39.0625,16.11328125
285.15625,317.3828125,-20.99609375,324.21875
204.1015625,67.87109375,-30.2734375,261.71875
-144.04296875,-444.82421875,-46.38671875,-139.16015625
-516.6015625,-481.93359375,-70.3125,-610.3515625
-68.84765625,363.28125,-56.15234375,-73.2421875
287.59765625,322.75390625,-37.109375,316.89453125
226.07421875,81.54296875,-30.76171875,280.2734375
-94.23828125,-383.7890625,-38.57421875,-59.08203125
-526.3671875,-598.14453125,-62.5,-605.46875
-156.25,279.296875,-53.7109375,-179.6875
270.99609375,401.85546875,-29.296875,289.55078125
228.02734375,122.55859375,-25.390625,267.578125
-57.6171875,-326.171875,-41.50390625,-19.53125
-505.859375,-648.92578125,-72.265625,-584.47265625
-229.98046875,164.55078125,-66.40625,-266.6015625
245.1171875,440.91796875,-33.69140625,273.92578125
241.2109375,132.32421875,-26.85546875,287.109375
1.953125,-275.390625,-34.66796875,53.22265625
-468.26171875,-668.45703125,-61.03515625,-535.15625
-304.6875,38.57421875,-66.40625,-350.09765625
212.890625,445.80078125,-45.41015625,247.0703125
251.953125,170.8984375,-37.59765625,291.9921875
51.26953125,-211.42578125,-34.66796875,103.515625
-430.17578125,-700.68359375,-63.4765625,-481.4453125
-384.765625,-78.61328125,-71.2890625,-441.40625
169.43359375,430.17578125,-36.1328125,187.98828125
255.37109375,190.4296875,-25.87890625,283.69140625
93.75,-104.00390625,-29.296875,148.4375
-374.51171875,-666.50390625,-55.6640625,-414.55078125
-442.87109375,-209.9609375,-71.77734375,-509.27734375
129.39453125,429.6875,-43.9453125,160.15625
251.953125,176.7578125,-31.73828125,293.9453125
117.67578125,-81.0546875,-32.71484375,175.29296875
-301.26953125,-597.65625,-52.734375,-323.73046875
-478.515625,-298.33984375,-69.82421875,-545.41015625
87.890625,445.80078125,-47.36328125,107.91015625
285.15625,256.34765625,-40.52734375,313.4765625
165.52734375,-0.9765625,-38.0859375,232.91015625
-239.74609375,-532.71484375,-51.7578125,-235.3515625
-514.16015625,-362.79296875,-78.125,-590.33203125
17.08984375,406.25,-57.6171875,27.83203125
283.203125,264.16015625,-37.59765625,307.6171875
203.61328125,52.734375,-36.62109375,250.0
-165.52734375,-469.7265625,-44.43359375,-155.76171875
-529.296875,-499.0234375,-63.4765625,-609.375
-47.8515625,374.0234375,-52.24609375,-49.31640625
296.875,351.5625,-37.109375,334.47265625
234.86328125,107.91015625,-30.2734375,293.9453125
-99.609375,-407.2265625,-37.109375,-73.73046875
-540.52734375,-606.93359375,-66.40625,-612.79296875
-155.76171875,311.03515625,-58.59375,-149.90234375
254.8828125,414.55078125,-29.296875,305.17578125
215.33203125,102.05078125,-17.578125,284.1796875
-90.8203125,-376.46484375,-26.85546875,-27.34375
-559.08203125,-655.2734375,-58.10546875,-602.05078125
-238.76953125,204.1015625,-59.5703125,-245.60546875
229.98046875,393.06640625,-36.1328125,273.92578125
214.35546875,107.421875,-30.76171875,274.4140625
-27.34375,-298.828125,-37.109375,34.1796875
-503.41796875,-692.3828125,-62.98828125,-554.6875
-303.7109375,81.54296875,-61.5234375,-329.58984375
214.35546875,429.19921875,-27.83203125,267.08984375
241.69921875,173.33984375,-20.99609375,306.15234375
25.87890625,-198.2421875,-25.390625,98.6328125
-462.40234375,-687.01171875,-53.7109375,-490.72265625
-376.953125,-45.8984375,-66.89453125,-402.83203125
183.10546875,441.40625,-30.2734375,228.515625
267.578125,190.4296875,-17.08984375,312.5
90.8203125,-161.1328125,-25.87890625,160.15625
-395.99609375,-668.45703125,-53.7109375,-414.0625
-421.875,-147.94921875,-62.01171875,-475.09765625
152.34375,431.15234375,-29.78515625,176.7578125
285.64453125,208.49609375,-21.97265625,310.05859375
145.01953125,-89.84375,-30.2734375,198.2421875
-312.01171875,-599.12109375,-52.734375,-330.56640625
-446.77734375,-205.56640625,-67.87109375,-518.06640625
116.2109375,444.82421875,-39.0625,132.8125
285.64453125,247.55859375,-27.83203125,313.4765625
166.9921875,-21.97265625,-35.64453125,233.3984375
-263.18359375,-586.9140625,-50.78125,-245.1171875
-517.08984375,-367.1875,-64.94140625,-572.75390625
38.57421875,427.24609375,-40.0390625,62.01171875
297.36328125,275.390625,-22.94921875,330.56640625
206.54296875,51.26953125,-27.83203125,268.5546875
-187.98828125,-471.19140625,-38.0859375,-153.80859375
-532.71484375,-453.61328125,-56.640625,-585.9375
-26.3671875,402.34375,-39.55078125,-20.99609375
297.36328125,338.37890625,-20.5078125,328.61328125
212.890625,79.58984375,-26.3671875,275.390625
-134.765625,-440.4296875,-38.57421875,-103.515625
-536.62109375,-557.12890625,-65.91796875,-607.91015625
-112.3046875,323.73046875,-59.08203125,-118.65234375
285.64453125,402.83203125,-35.15625,308.10546875
230.46875,113.76953125,-31.73828125,264.6484375
-90.33203125,-392.578125,-44.921875,-56.15234375
-536.62109375,-637.6953125,-74.21875,-605.95703125
-192.87109375,224.609375,-67.87109375,-222.16796875
270.5078125,419.921875,-39.0625,286.1328125
247.0703125,136.71875,-35.15625,276.3671875
-23.92578125,-282.2265625,-48.33984375,4.39453125
-495.1171875,-675.78125,-76.66015625,-570.3125
-265.13671875,87.890625,-64.94140625,-300.78125
231.93359375,425.29296875,-29.296875,263.18359375
240.234375,144.04296875,-31.73828125,274.90234375
14.6484375,-257.8125,-34.66796875,68.84765625
-472.16796875,-691.40625,-54.6875,-506.34765625
-332.03125,-6.34765625,-64.453125,-385.25390625
218.26171875,446.77734375,-47.36328125,226.5625
262.6953125,193.84765625,-37.59765625,289.55078125
62.98828125,-185.546875,-34.66796875,111.81640625
-415.0390625,-671.38671875,-55.6640625,-458.984375
-404.78515625,-101.07421875,-66.40625,-467.28515625
162.109375,424.8046875,-43.45703125,178.22265625
271.484375,180.17578125,-25.390625,301.26953125
122.0703125,-109.375,-30.76171875,174.31640625
-345.703125,-641.6015625,-60.05859375,-371.09375
-461.42578125,-219.7265625,-72.75390625,-526.85546875
115.72265625,440.91796875,-48.828125,131.34765625
286.62109375,230.46875,-32.71484375,308.10546875
160.64453125,-33.69140625,-32.71484375,209.47265625
-282.2265625,-585.9375,-50.29296875,-293.45703125
-495.60546875,-325.68359375,-73.73046875,-578.125
70.3125,461.9140625,-52.734375,59.08203125
289.0625,287.59765625,-35.64453125,295.41015625
176.26953125,7.32421875,-35.64453125,221.19140625
-217.7734375,-535.64453125,-54.6875,-216.30859375
-529.78515625,-452.1484375,-82.51953125,-605.46875
-19.04296875,391.6015625,-58.10546875,-6.8359375
280.2734375,310.546875,-35.15625,316.40625
197.75390625,78.61328125,-36.62109375,261.23046875
-158.69140625,-419.921875,-43.9453125,-126.46484375
-548.828125,-524.4140625,-69.82421875,-615.72265625
-92.7734375,352.5390625,-61.5234375,-91.30859375
285.64453125,359.375,-41.015625,318.84765625
232.421875,109.86328125,-39.0625,276.85546875
-93.26171875,-344.7265625,-47.8515625,-70.80078125
-516.6015625,-606.4453125,-69.82421875,-579.1015625
-139.6484375,274.90234375,-65.91796875,-153.3203125
264.6484375,408.203125,-45.8984375,288.57421875
232.421875,92.28515625,-32.71484375,276.3671875
-49.31640625,-329.1015625,-33.69140625,-7.32421875
-517.08984375,-650.390625,-58.59375,-571.77734375
-247.55859375,149.4140625,-62.01171875,-270.99609375
235.83984375,429.6875,-40.0390625,270.01953125
250.0,151.3671875,-35.15625,282.2265625
19.04296875,-263.18359375,-39.0625,57.6171875
-481.4453125,-687.5,-59.5703125,-529.78515625
-327.63671875,50.78125,-62.5,-359.86328125
219.7265625,426.26953125,-39.0625,243.1640625
257.8125,140.13671875,-37.109375,279.296875
42.96875,-212.40234375,-42.96875,92.28515625
-444.3359375,-685.546875,-62.5,-478.02734375
-397.4609375,-56.15234375,-62.5,-444.82421875
167.96875,459.47265625,-31.73828125,192.87109375
254.39453125,184.5703125,-34.66796875,294.921875
94.7265625,-130.37109375,-38.57421875,163.0859375
-365.72265625,-641.6015625,-51.26953125,-400.87890625
-449.21875,-203.125,-63.4765625,-519.04296875
124.51171875,449.21875,-43.9453125,140.13671875
277.34375,250.0,-41.50390625,297.36328125
134.765625,-77.63671875,-44.921875,192.87109375
-320.3125,-635.25390625,-50.78125,-316.89453125
-511.71875,-312.01171875,-62.5,-565.91796875
59.08203125,434.5703125,-49.8046875,72.265625
278.3203125,271.484375,-41.015625,300.78125
173.828125,13.18359375,-33.203125,222.65625
-232.91015625,-518.5546875,-52.734375,-232.421875
-523.92578125,-367.67578125,-85.9375,-596.6796875
5.37109375,430.6640625,-51.7578125,19.04296875
283.69140625,282.71484375,-28.3203125,326.66015625
195.3125,70.3125,-34.66796875,267.08984375
-176.7578125,-419.43359375,-47.8515625,-129.8828125
-550.78125,-520.99609375,-66.89453125,-596.19140625
-68.84765625,351.5625,-49.31640625,-53.22265625
289.0625,361.328125,-33.203125,336.9140625
221.19140625,99.12109375,-37.59765625,292.96875
-118.65234375,-394.04296875,-51.26953125,-65.4296875
-544.43359375,-579.58984375,-75.1953125,-597.65625
-151.85546875,300.29296875,-61.5234375,-145.5078125
271.484375,401.3671875,-39.55078125,314.453125
238.76953125,122.55859375,-43.9453125,283.203125
-57.6171875,-321.2890625,-56.15234375,-17.08984375
-527.34375,-625.0,-83.984375,-584.47265625
-228.02734375,220.21484375,-72.265625,-245.60546875
252.44140625,424.8046875,-44.921875,285.15625
240.72265625,104.00390625,-47.8515625,287.59765625
-5.859375,-300.78125,-52.734375,42.48046875
-488.28125,-662.109375,-73.73046875,-546.38671875
-305.6640625,77.1484375,-71.77734375,-340.8203125
214.35546875,411.62109375,-37.109375,248.53515625
246.58203125,144.53125,-32.2265625,283.203125
45.41015625,-228.02734375,-47.8515625,108.88671875
-434.08203125,-679.6875,-66.89453125,-452.63671875
-367.67578125,-26.85546875,-68.359375,-403.3203125
194.82421875,480.46875,-41.50390625,206.0546875
278.80859375,229.4921875,-34.66796875,285.15625
92.28515625,-160.64453125,-53.22265625,135.25390625
-385.7421875,-669.43359375,-80.078125,-430.17578125
-423.828125,-128.41796875,-81.0546875,-507.32421875
142.578125,474.12109375,-56.15234375,129.39453125
267.578125,264.6484375,-56.640625,258.7890625
139.6484375,-24.90234375,-59.5703125,151.3671875
-303.7109375,-582.03125,-77.1484375,-368.1640625
-465.33203125,-237.79296875,-105.46875,-592.28515625
108.3984375,498.046875,-83.984375,64.453125
301.7578125,311.03515625,-64.94140625,279.296875
184.08203125,57.12890625,-71.2890625,193.359375
-241.69921875,-485.83984375,-90.33203125,-297.36328125
-501.953125,-353.515625,-109.375,-625.48828125
38.57421875,436.03515625,-83.984375,18.5546875
299.8046875,328.125,-62.5,291.50390625
209.9609375,93.26171875,-57.12890625,231.93359375
-180.17578125,-425.78125,-69.82421875,-190.4296875
-529.78515625,-442.87109375,-94.23828125,-650.390625
-26.3671875,412.109375,-76.66015625,-75.1953125
296.38671875,352.5390625,-63.4765625,289.55078125
215.8203125,105.46875,-66.89453125,231.4453125
-124.0234375,-372.55859375,-79.58984375,-142.578125
-533.203125,-527.83203125,-101.5625,-667.48046875
-105.95703125,376.46484375,-78.61328125,-165.0390625
293.9453125,404.296875,-45.41015625,291.9921875
246.09375,108.3984375,-41.50390625,250.48828125
-64.94140625,-349.12109375,-53.22265625,-74.70703125
-521.484375,-626.953125,-70.80078125,-642.08984375
-184.08203125,256.34765625,-60.546875,-258.7890625
268.5546875,441.40625,-46.38671875,260.7421875
248.046875,137.20703125,-46.38671875,254.8828125
-16.6015625,-266.6015625,-44.921875,5.37109375
-503.90625,-656.73828125,-70.80078125,-600.5859375
-273.4375,97.65625,-74.21875,-367.67578125
242.67578125,431.640625,-39.0625,233.88671875
253.41796875,180.17578125,-31.25,293.45703125
37.109375,-224.609375,-49.31640625,70.3125
-453.61328125,-724.609375,-70.3125,-558.59375
-350.09765625,-10.7421875,-66.40625,-436.03515625
194.3359375,453.61328125,-41.9921875,223.6328125
249.51171875,187.5,-35.15625,292.96875
77.1484375,-176.26953125,-41.015625,131.34765625
-395.99609375,-694.82421875,-65.4296875,-450.68359375
-403.3203125,-110.83984375,-81.0546875,-496.58203125
161.1328125,449.70703125,-52.24609375,175.29296875
275.390625,181.640625,-29.78515625,298.828125
107.421875,-108.3984375,-31.25,161.1328125
-348.6328125,-650.390625,-54.19921875,-401.3671875
-472.65625,-274.90234375,-69.3359375,-564.94140625
76.66015625,425.29296875,-42.48046875,117.1875
262.6953125,246.58203125,-29.78515625,307.12890625
152.83203125,-19.04296875,-32.2265625,214.35546875
-276.85546875,-617.67578125,-47.36328125,-298.33984375
-498.046875,-377.9296875,-68.84765625,-602.05078125
50.78125,468.75,-57.12890625,58.59375
285.15625,294.43359375,-42.48046875,322.75390625
182.6171875,16.11328125,-39.55078125,255.37109375
-205.56640625,-542.48046875,-54.19921875,-203.125
-513.671875,-478.515625,-80.078125,-619.62890625
1.953125,471.19140625,-46.875,5.37109375
288.57421875,342.28515625,-7.32421875,344.7265625
191.40625,56.640625,-11.71875,271.97265625
-142.578125,-453.125,-32.71484375,-120.60546875
-541.015625,-600.09765625,-66.40625,-644.53125
-127.44140625,368.65234375,-55.17578125,-119.140625
266.6015625,408.203125,-31.25,337.890625
225.5859375,107.421875,-32.2265625,290.52734375
-103.02734375,-402.83203125,-42.96875,-59.08203125
-545.8984375,-672.36328125,-60.05859375,-633.30078125
-186.5234375,250.48828125,-55.6640625,-218.75
241.69921875,452.63671875,-34.1796875,311.5234375
194.82421875,171.875,-25.390625,313.96484375
-78.61328125,-354.4921875,-44.43359375,9.765625
-530.76171875,-735.83984375,-76.171875,-608.3984375
-271.484375,151.3671875,-70.80078125,-301.26953125
203.61328125,430.6640625,-49.8046875,288.0859375
205.078125,152.83203125,-41.9921875,297.8515625
-8.7890625,-256.8359375,-33.203125,66.89453125
-484.86328125,-748.53515625,-61.5234375,-548.33984375
-354.4921875,24.4140625,-68.84765625,-400.390625
173.33984375,461.9140625,-32.2265625,245.1171875
206.54296875,144.04296875,-22.4609375,310.546875
22.4609375,-226.5625,-34.66796875,127.9296875
-429.6875,-727.05078125,-63.96484375,-490.72265625
-413.57421875,-118.1640625,-66.89453125,-491.2109375
149.4140625,461.9140625,-33.203125,191.89453125
252.44140625,193.359375,-17.578125,309.5703125
74.21875,-168.9453125,-23.92578125,166.015625
-378.41796875,-716.30859375,-54.6875,-419.43359375
-449.70703125,-198.73046875,-67.87109375,-547.8515625
108.88671875,489.74609375,-29.296875,150.390625
260.25390625,276.3671875,-19.04296875,317.87109375
144.04296875,-26.85546875,-32.2265625,204.1015625
-299.8046875,-681.640625,-57.6171875,-343.75
-490.72265625,-329.1015625,-74.21875,-627.44140625
69.3359375,529.78515625,-42.96875,74.21875
273.4375,278.3203125,-28.3203125,335.44921875
177.734375,-9.27734375,-28.3203125,240.234375
-233.3984375,-569.3359375,-44.43359375,-258.30078125
-559.08203125,-456.54296875,-67.3828125,-666.50390625
-39.55078125,460.9375,-45.41015625,-20.01953125
244.140625,336.9140625,-32.71484375,311.03515625
148.92578125,57.12890625,-26.85546875,247.0703125
-200.68359375,-483.3984375,-40.0390625,-176.26953125
-563.4765625,-539.0625,-68.84765625,-673.828125
-106.4453125,378.90625,-47.8515625,-93.26171875
244.140625,372.55859375,-28.80859375,330.56640625
192.87109375,139.6484375,-36.1328125,279.78515625
-120.1171875,-407.2265625,-44.921875,-88.37890625
-551.7578125,-666.50390625,-60.05859375,-662.59765625
-179.6875,282.2265625,-55.17578125,-198.2421875
240.234375,447.75390625,-29.78515625,316.89453125
201.66015625,157.2265625,-17.578125,290.52734375
-74.21875,-354.00390625,-22.94921875,-13.18359375
-521.97265625,-704.1015625,-57.12890625,-619.62890625
-251.46484375,203.61328125,-52.24609375,-278.3203125
226.5625,462.890625,-20.99609375,303.22265625
225.5859375,152.83203125,-25.87890625,303.22265625
-12.6953125,-271.484375,-32.71484375,51.7578125
-473.6328125,-709.9609375,-61.03515625,-577.1484375
-319.82421875,62.01171875,-64.94140625,-377.9296875
190.91796875,488.28125,-28.80859375,267.08984375
234.86328125,197.75390625,-27.34375,307.6171875
30.2734375,-247.0703125,-47.8515625,92.7734375
-432.12890625,-748.53515625,-69.82421875,-513.18359375
-376.953125,-52.24609375,-65.4296875,-457.51953125
166.50390625,500.9765625,-35.15625,229.00390625
246.09375,217.7734375,-29.296875,339.35546875
77.1484375,-169.921875,-37.59765625,164.55078125
-375.9765625,-741.2109375,-60.05859375,-438.4765625
-425.29296875,-145.99609375,-81.0546875,-524.4140625
143.06640625,541.9921875,-56.640625,194.82421875
265.13671875,224.609375,-32.71484375,350.5859375
125.48828125,-114.74609375,-34.66796875,217.28515625
-312.98828125,-688.96484375,-66.89453125,-345.21484375
-463.8671875,-284.1796875,-79.1015625,-570.80078125
91.30859375,554.6875,-41.50390625,134.765625
274.90234375,287.59765625,-24.4140625,346.6796875
157.71484375,-38.57421875,-30.76171875,251.953125
-253.41796875,-633.7890625,-55.17578125,-243.65234375
-507.8125,-442.87109375,-79.1015625,-606.4453125
9.27734375,503.90625,-54.6875,47.36328125
242.1875,344.23828125,-36.62109375,329.58984375
172.36328125,88.37890625,-34.1796875,268.5546875
-160.15625,-550.78125,-38.0859375,-148.4375
-516.11328125,-598.14453125,-65.4296875,-635.25390625
-49.31640625,445.80078125,-58.59375,-45.41015625
280.76171875,402.34375,-36.1328125,360.83984375
207.51953125,106.93359375,-28.3203125,317.3828125
-120.1171875,-461.9140625,-40.52734375,-82.03125
-530.2734375,-652.34375,-76.66015625,-647.94921875
-129.8828125,393.5546875,-58.59375,-142.578125
272.4609375,475.09765625,-26.3671875,331.54296875
221.6796875,108.88671875,-34.1796875,300.78125
-79.1015625,-383.30078125,-48.33984375,-30.2734375
-525.87890625,-685.05859375,-61.03515625,-624.51171875
-213.37890625,241.69921875,-52.734375,-239.2578125
243.1640625,473.6328125,-35.15625,306.15234375
223.6328125,164.55078125,-30.2734375,301.7578125
-31.25,-332.03125,-36.62109375,28.3203125
-499.51171875,-762.20703125,-60.05859375,-591.30859375
-294.43359375,125.0,-59.08203125,-344.7265625
216.30859375,499.0234375,-31.73828125,278.3203125
240.72265625,176.7578125,-28.80859375,311.5234375
27.34375,-251.46484375,-38.57421875,83.984375
-452.1484375,-756.34765625,-64.453125,-541.9921875
-368.65234375,6.8359375,-69.82421875,-445.3125
180.6640625,529.78515625,-34.66796875,229.4921875
250.48828125,192.3828125,-24.90234375,319.82421875
76.66015625,-227.05078125,-37.109375,151.3671875
-387.6953125,-760.7421875,-53.22265625,-445.3125
-419.921875,-130.859375,-64.94140625,-501.46484375
150.390625,508.30078125,-45.8984375,193.84765625
272.4609375,249.51171875,-28.3203125,339.35546875
117.67578125,-83.984375,-31.73828125,208.984375
-329.1015625,-716.796875,-55.6640625,-363.28125
-470.21484375,-294.921875,-64.453125,-566.89453125
101.5625,496.09375,-33.203125,138.18359375
277.83203125,281.73828125,-20.5078125,336.42578125
160.15625,15.625,-31.25,242.67578125
-250.48828125,-634.765625,-62.98828125,-279.78515625
-496.09375,-405.2734375,-78.61328125,-625.0
41.9921875,499.0234375,-42.96875,58.10546875
282.2265625,308.59375,-21.97265625,344.7265625
192.3828125,62.98828125,-29.296875,274.90234375
-180.17578125,-512.20703125,-55.6640625,-183.59375
-508.30078125,-495.60546875,-74.21875,-640.13671875
-21.484375,426.26953125,-44.43359375,-19.04296875
290.52734375,366.69921875,-21.484375,350.5859375
214.84375,92.28515625,-27.34375,289.0625
-131.8359375,-461.42578125,-50.29296875,-111.81640625
-524.90234375,-562.01171875,-72.75390625,-642.578125
-108.3984375,391.6015625,-50.78125,-117.67578125
288.0859375,406.25,-22.4609375,335.9375
244.62890625,120.60546875,-21.484375,307.6171875
-68.359375,-392.08984375,-45.8984375,-41.50390625
-507.32421875,-646.484375,-79.1015625,-639.6484375
-178.22265625,293.45703125,-70.3125,-228.02734375
277.34375,437.01171875,-43.9453125,324.70703125
253.41796875,138.671875,-32.71484375,309.5703125
-38.0859375,-329.1015625,-39.0625,-4.39453125
-503.90625,-733.3984375,-63.96484375,-610.3515625
-268.5546875,122.0703125,-56.640625,-332.03125
222.16796875,484.375,-26.3671875,270.01953125
240.234375,151.3671875,-15.625,309.08203125
14.6484375,-314.453125,-25.390625,77.63671875
-465.8203125,-760.7421875,-62.98828125,-548.828125
-346.6796875,-2.44140625,-58.10546875,-416.50390625
188.96484375,451.66015625,-18.06640625,238.76953125
246.58203125,159.1796875,-8.30078125,312.5
52.24609375,-214.35546875,-16.11328125,128.41796875
-416.015625,-715.33203125,-50.78125,-482.421875
-398.92578125,-96.6796875,-61.5234375,-479.00390625
160.15625,474.609375,-28.3203125,206.0546875
271.97265625,235.83984375,-20.01953125,319.3359375
132.32421875,-101.5625,-19.04296875,198.2421875
-324.21875,-716.30859375,-40.0390625,-377.44140625
-443.84765625,-270.99609375,-60.546875,-546.875
112.79296875,479.98046875,-33.203125,151.3671875
275.87890625,257.32421875,-20.01953125,324.70703125
146.97265625,-33.203125,-24.90234375,222.65625
-284.66796875,-633.30078125,-43.9453125,-306.15234375
-488.76953125,-368.1640625,-68.84765625,-604.4921875
68.359375,467.7734375,-50.29296875,83.984375
285.15625,276.85546875,-32.2265625,343.26171875
175.29296875,24.4140625,-31.25,268.06640625
-221.19140625,-535.15625,-40.0390625,-203.125
-514.16015625,-451.171875,-50.29296875,-620.60546875
-5.37109375,443.359375,-32.71484375,3.41796875
276.3671875,299.8046875,-27.34375,330.078125
197.265625,57.6171875,-29.78515625,272.4609375
-155.76171875,-484.375,-40.52734375,-142.08984375
-545.41015625,-587.890625,-71.2890625,-667.96875
-93.75,395.01953125,-57.6171875,-110.3515625
277.34375,399.90234375,-26.3671875,336.9140625
214.84375,99.609375,-17.08984375,295.8984375
-92.7734375,-393.5546875,-35.15625,-71.77734375
-527.34375,-652.34375,-69.3359375,-655.2734375
-168.9453125,285.64453125,-57.12890625,-198.2421875
282.71484375,480.46875,-34.66796875,333.0078125
224.12109375,105.95703125,-32.2265625,275.87890625
-65.4296875,-408.69140625,-39.55078125,-41.9921875
-519.53125,-695.3125,-65.91796875,-616.2109375
-270.01953125,161.1328125,-59.08203125,-296.38671875
239.2578125,465.33203125,-36.1328125,278.3203125
221.19140625,176.26953125,-37.59765625,288.0859375
-39.55078125,-293.45703125,-46.875,31.25
-514.16015625,-750.9765625,-62.01171875,-584.47265625
-345.703125,49.8046875,-60.546875,-389.6484375
194.82421875,468.26171875,-41.9921875,237.79296875
218.26171875,163.0859375,-33.203125,281.73828125
20.5078125,-218.75,-36.1328125,99.609375
-440.4296875,-756.8359375,-70.3125,-517.08984375
-391.6015625,-108.3984375,-83.49609375,-485.3515625
180.6640625,485.83984375,-52.734375,207.03125
271.97265625,203.125,-38.57421875,312.98828125
99.12109375,-156.73828125,-39.55078125,168.45703125
-371.09375,-693.84765625,-63.4765625,-431.15234375
-453.125,-202.1484375,-80.078125,-553.22265625
116.2109375,500.48828125,-49.8046875,155.76171875
273.4375,266.11328125,-34.66796875,331.0546875
141.6015625,-80.078125,-47.36328125,231.93359375
-308.10546875,-664.0625,-72.265625,-335.44921875
-491.2109375,-294.921875,-69.3359375,-595.21484375
73.73046875,502.9296875,-35.15625,106.93359375
264.16015625,278.3203125,-27.34375,321.77734375
142.08984375,-0.48828125,-26.85546875,229.00390625
-245.1171875,-589.35546875,-44.921875,-269.53125
-539.55078125,-449.70703125,-75.1953125,-649.90234375
-19.04296875,457.51953125,-55.6640625,17.08984375
274.4140625,323.73046875,-32.71484375,328.125
193.359375,92.28515625,-33.69140625,259.765625
-166.50390625,-462.40234375,-55.17578125,-162.109375
-527.83203125,-576.171875,-85.9375,-643.5546875
-57.6171875,407.2265625,-64.94140625,-54.19921875
281.73828125,421.875,-27.34375,357.421875
199.70703125,102.05078125,-25.390625,289.0625
-128.41796875,-437.98828125,-39.55078125,-98.14453125
-545.8984375,-637.20703125,-68.359375,-660.15625
-166.015625,315.91796875,-56.640625,-162.109375
265.625,427.24609375,-25.390625,344.7265625
229.4921875,119.140625,-30.76171875,300.78125
-96.19140625,-395.5078125,-44.921875,-29.296875
-537.109375,-707.51953125,-75.68359375,-625.48828125
-229.00390625,237.3046875,-81.54296875,-260.7421875
247.55859375,450.1953125,-45.41015625,296.875
235.3515625,166.9921875,-32.71484375,303.7109375
-28.80859375,-245.1171875,-40.52734375,44.921875
-495.60546875,-730.95703125,-64.453125,-595.703125
-302.734375,69.82421875,-60.05859375,-373.53515625
220.703125,461.9140625,-29.78515625,270.5078125
246.09375,169.921875,-31.25,320.3125
31.25,-254.8828125,-31.73828125,103.02734375
-440.4296875,-775.390625,-52.24609375,-528.3203125
-366.2109375,-29.78515625,-69.3359375,-444.3359375
178.22265625,476.5625,-44.43359375,237.3046875
242.67578125,192.3828125,-37.109375,325.1953125
70.3125,-153.80859375,-41.015625,154.296875
-375.9765625,-701.171875,-61.5234375,-446.2890625
-417.96875,-119.62890625,-78.61328125,-518.5546875
129.8828125,482.421875,-54.19921875,178.22265625
279.296875,229.4921875,-37.109375,329.58984375
136.71875,-71.2890625,-28.80859375,208.0078125
-324.70703125,-691.89453125,-48.33984375,-370.1171875
-465.33203125,-283.69140625,-62.98828125,-582.03125
94.23828125,473.6328125,-35.64453125,123.046875
280.76171875,255.37109375,-27.83203125,334.9609375
163.57421875,-30.76171875,-37.109375,249.0234375
-249.0234375,-603.02734375,-54.6875,-271.484375
-504.39453125,-392.08984375,-69.82421875,-631.8359375
28.3203125,481.4453125,-44.921875,51.7578125
277.34375,367.67578125,-22.94921875,361.328125
174.8046875,23.4375,-25.87890625,290.52734375
-195.80078125,-562.01171875,-47.8515625,-187.5
-538.57421875,-489.2578125,-74.70703125,-661.62109375
-58.10546875,443.84765625,-58.59375,-45.8984375
271.484375,404.296875,-30.76171875,343.75
208.49609375,112.79296875,-37.109375,288.0859375
-126.46484375,-456.0546875,-52.24609375,-120.1171875
-540.0390625,-600.09765625,-59.08203125,-671.38671875
-126.953125,334.9609375,-36.62109375,-130.859375
248.53515625,387.6953125,-18.06640625,335.44921875
200.68359375,120.60546875,-25.390625,295.8984375
-72.75390625,-359.86328125,-38.0859375,-34.1796875
-535.15625,-693.359375,-65.91796875,-648.4375
-212.890625,222.16796875,-56.15234375,-242.67578125
250.48828125,438.4765625,-21.97265625,318.359375
221.19140625,123.046875,-17.08984375,307.6171875
-41.50390625,-330.56640625,-26.3671875,-1.46484375
-500.9765625,-694.3359375,-61.03515625,-626.953125
-267.08984375,120.60546875,-63.96484375,-331.54296875
234.375,455.56640625,-25.87890625,313.4765625
251.46484375,180.6640625,-25.390625,335.9375
20.01953125,-274.90234375,-33.69140625,90.33203125
-453.61328125,-730.95703125,-52.734375,-536.1328125
-341.30859375,26.3671875,-52.734375,-414.55078125
193.84765625,449.21875,-25.87890625,249.0234375
253.41796875,154.78515625,-22.94921875,314.453125
53.22265625,-208.984375,-35.15625,107.421875
-406.25,-713.37890625,-62.5,-507.8125
-404.296875,-98.14453125,-64.453125,-509.765625
146.484375,458.0078125,-40.0390625,177.24609375
265.625,194.82421875,-36.1328125,307.12890625
117.1875,-124.51171875,-31.25,184.08203125
-319.3359375,-663.57421875,-49.31640625,-414.0625
-432.6171875,-225.5859375,-70.3125,-584.9609375
108.3984375,488.76953125,-40.52734375,137.20703125
259.765625,274.90234375,-24.4140625,318.359375
138.671875,-56.640625,-29.296875,208.49609375
-264.6484375,-612.3046875,-46.38671875,-321.2890625
-475.09765625,-339.35546875,-68.84765625,-628.90625
63.4765625,455.078125,-48.828125,71.77734375
284.1796875,287.59765625,-24.4140625,349.609375
188.4765625,40.0390625,-25.87890625,260.25390625
-214.35546875,-513.671875,-41.015625,-226.07421875
-538.57421875,-449.21875,-60.05859375,-658.69140625
-29.78515625,430.17578125,-35.64453125,-22.94921875
277.34375,330.078125,-16.11328125,336.42578125
195.80078125,86.9140625,-26.3671875,281.73828125
-146.484375,-433.10546875,-45.8984375,-135.7421875
-518.06640625,-573.2421875,-71.2890625,-663.0859375
-89.84375,353.02734375,-56.15234375,-105.95703125
270.99609375,385.25390625,-28.80859375,344.7265625
219.7265625,87.40234375,-26.85546875,291.50390625
-97.65625,-387.20703125,-45.8984375,-72.265625
-529.296875,-632.32421875,-76.66015625,-652.34375
-168.9453125,277.34375,-57.12890625,-210.9375
259.27734375,410.64453125,-26.3671875,311.03515625
219.23828125,108.3984375,-26.3671875,302.24609375
-61.5234375,-361.81640625,-35.15625,-11.23046875
-475.5859375,-670.8984375,-61.5234375,-600.09765625
-203.61328125,238.76953125,-51.26953125,-251.46484375
244.62890625,452.1484375,-20.5078125,318.359375
239.74609375,96.19140625,-22.94921875,329.1015625
3.90625,-283.69140625,-30.76171875,70.3125
-438.4765625,-721.6796875,-49.8046875,-534.66796875
-289.0625,47.36328125,-46.38671875,-345.703125
208.49609375,463.8671875,-18.5546875,280.76171875
264.6484375,154.78515625,-15.625,335.44921875
72.265625,-208.0078125,-26.85546875,125.48828125
-403.3203125,-726.07421875,-63.96484375,-508.7890625
-371.09375,-71.77734375,-76.171875,-486.328125
178.7109375,468.26171875,-34.66796875,208.49609375
268.06640625,220.21484375,-18.06640625,318.84765625
103.515625,-135.7421875,-22.4609375,163.57421875
-357.91015625,-715.33203125,-46.875,-425.78125
-434.08203125,-202.63671875,-67.3828125,-546.38671875
135.7421875,477.05078125,-43.45703125,147.94921875
284.1796875,235.83984375,-30.76171875,310.546875
154.78515625,-62.01171875,-32.71484375,205.56640625
-279.296875,-623.046875,-46.875,-337.40234375
-458.49609375,-284.1796875,-61.5234375,-601.07421875
90.8203125,468.75,-41.9921875,90.8203125
287.59765625,235.83984375,-33.69140625,330.078125
182.6171875,15.13671875,-36.62109375,253.90625
-199.21875,-519.04296875,-56.640625,-238.28125
-480.46875,-427.24609375,-81.0546875,-634.27734375
27.34375,424.8046875,-54.19921875,21.484375
302.734375,324.70703125,-31.25,348.14453125
216.30859375,59.5703125,-29.296875,286.1328125
-126.953125,-469.23828125,-40.0390625,-138.671875
-475.5859375,-513.671875,-68.84765625,-632.8125
-18.5546875,387.20703125,-65.91796875,-54.19921875
325.68359375,371.09375,-47.8515625,355.95703125
247.0703125,106.4453125,-38.0859375,303.7109375
-79.58984375,-408.203125,-41.50390625,-85.9375
-487.3046875,-593.75,-65.4296875,-654.78515625
-107.421875,334.9609375,-50.78125,-161.1328125
305.6640625,414.0625,-34.1796875,329.58984375
254.39453125,94.7265625,-45.41015625,289.55078125
-36.62109375,-366.2109375,-49.8046875,-34.66796875
-474.12109375,-665.0390625,-74.70703125,-640.13671875
-187.98828125,200.1953125,-75.68359375,-283.69140625
277.83203125,449.70703125,-51.26953125,290.52734375
273.92578125,164.55078125,-43.45703125,306.640625
23.92578125,-295.8984375,-48.828125,33.69140625
