TP9,AF7,AF8,TP10
-92.28515625,-162.109375,-39.0625,-32.2265625
-94.7265625,-111.81640625,-40.0390625,-3.90625
-18.06640625,35.15625,-40.0390625,-31.73828125
29.296875,103.515625,-43.45703125,-78.125
-20.5078125,-47.8515625,-46.875,-74.70703125
-90.8203125,-145.5078125,-46.875,-35.15625
-112.3046875,-137.20703125,-47.36328125,-9.765625
-39.55078125,-40.0390625,-50.78125,-33.203125
16.6015625,233.88671875,-61.03515625,-79.58984375
-25.390625,203.125,-59.5703125,-85.44921875
-94.23828125,-139.16015625,-46.38671875,-44.921875
-115.72265625,-192.87109375,-36.62109375,-3.41796875
-51.7578125,-10.25390625,-39.55078125,-19.53125
10.25390625,90.8203125,-48.828125,-59.5703125
-12.20703125,-25.390625,-52.24609375,-77.1484375
-92.28515625,-172.8515625,-53.22265625,-55.17578125
-122.55859375,-193.84765625,-51.7578125,-15.13671875
-56.15234375,-16.11328125,-45.41015625,-22.94921875
9.765625,72.265625,-49.31640625,-61.03515625
1.46484375,49.31640625,-55.6640625,-79.58984375
-76.171875,-9.27734375,-52.734375,-52.24609375
-110.3515625,-177.734375,-46.875,-7.8125
-54.6875,-81.0546875,-48.828125,-15.625
4.39453125,155.2734375,-57.6171875,-62.5
4.8828125,103.02734375,-57.12890625,-84.9609375
-60.05859375,-159.66796875,-55.17578125,-58.59375
-104.98046875,-234.375,-51.26953125,-11.23046875
-60.546875,-81.54296875,-44.43359375,3.41796875
17.578125,64.94140625,-46.38671875,-37.109375
28.80859375,51.26953125,-41.9921875,-67.87109375
-49.31640625,-142.08984375,-36.62109375,-48.828125
-112.3046875,-121.58203125,-37.59765625,-3.41796875
-76.171875,26.85546875,-38.0859375,9.27734375
-0.9765625,39.55078125,-41.015625,-35.64453125
0.0,37.59765625,-50.29296875,-82.51953125
-68.84765625,-101.5625,-55.6640625,-81.54296875
-121.09375,-208.984375,-53.7109375,-41.015625
-104.4921875,-125.0,-52.24609375,-21.484375
-27.34375,47.8515625,-50.78125,-60.05859375
-8.7890625,61.03515625,-50.78125,-104.4921875
-72.75390625,-72.265625,-51.7578125,-105.46875
-142.08984375,-191.40625,-54.6875,-84.9609375
-159.66796875,-126.953125,-61.5234375,-71.2890625
-84.47265625,202.1484375,-61.03515625,-99.12109375
-47.8515625,189.94140625,-67.87109375,-143.5546875
-102.5390625,-92.28515625,-70.80078125,-141.11328125
-171.875,-192.3828125,-61.03515625,-106.4453125
-208.49609375,-188.96484375,-63.96484375,-107.421875
-138.18359375,-28.80859375,-64.453125,-143.5546875
-83.984375,56.15234375,-56.15234375,-178.22265625
-132.32421875,-62.98828125,-53.22265625,-178.7109375
-208.0078125,-199.21875,-52.24609375,-141.6015625
-237.79296875,-224.609375,-52.734375,-125.0
-151.85546875,-70.80078125,-45.8984375,-145.99609375
-85.44921875,171.875,-39.0625,-190.4296875
-116.69921875,130.37109375,-45.41015625,-207.03125
-186.03515625,-184.5703125,-56.640625,-167.96875
-221.6796875,-248.046875,-52.734375,-127.44140625
-160.15625,-75.68359375,-33.203125,-138.671875
-90.8203125,29.296875,-28.80859375,-173.33984375
-101.5625,-69.3359375,-45.41015625,-182.6171875
-169.921875,-229.00390625,-48.33984375,-148.4375
-197.75390625,-258.30078125,-31.25,-93.75
-125.0,-75.68359375,-40.0390625,-85.44921875
-54.19921875,38.0859375,-46.875,-127.9296875
-62.01171875,34.66796875,-35.64453125,-151.3671875
-125.0,-52.734375,-32.71484375,-108.88671875
-155.76171875,-185.546875,-33.203125,-49.31640625
-94.23828125,-96.19140625,-36.1328125,-29.296875
-10.7421875,110.83984375,-36.62109375,-53.22265625
8.30078125,141.6015625,-38.0859375,-72.265625
-56.640625,-124.51171875,-36.62109375,-41.9921875
-113.28125,-241.69921875,-32.71484375,6.8359375
-68.84765625,-77.63671875,-23.4375,22.4609375
21.97265625,78.125,-29.78515625,-22.4609375
45.41015625,41.50390625,-48.828125,-61.03515625
-11.71875,-135.25390625,-44.43359375,-42.48046875
-60.546875,-162.59765625,-37.109375,9.765625
-44.921875,-66.89453125,-39.55078125,20.01953125
31.73828125,15.625,-39.0625,-23.92578125
70.80078125,57.12890625,-39.0625,-53.7109375
14.16015625,-36.62109375,-43.45703125,-39.55078125
-45.41015625,-149.4140625,-41.9921875,6.34765625
-41.50390625,-141.11328125,-37.109375,39.55078125
43.45703125,29.296875,-39.55078125,14.16015625
91.796875,128.41796875,-42.48046875,-21.97265625
30.76171875,-37.109375,-43.45703125,-8.30078125
-33.69140625,-186.5234375,-39.55078125,34.1796875
-41.50390625,-132.32421875,-38.0859375,60.05859375
29.78515625,74.21875,-41.9921875,34.1796875
81.54296875,129.39453125,-46.875,-5.37109375
38.57421875,-82.03125,-49.31640625,0.0
-32.2265625,-123.53515625,-43.9453125,38.57421875
-58.59375,0.9765625,-44.921875,60.05859375
15.13671875,48.33984375,-40.52734375,27.83203125
70.80078125,87.40234375,-36.62109375,-31.25
25.390625,8.30078125,-41.50390625,-46.38671875
-49.8046875,-143.5546875,-44.921875,-12.20703125
-83.49609375,-192.3828125,-43.9453125,22.94921875
-8.7890625,-38.0859375,-46.875,11.23046875
63.96484375,128.41796875,-52.734375,-26.3671875
41.9921875,48.33984375,-58.10546875,-39.0625
-36.1328125,-177.734375,-61.03515625,-10.25390625
-80.56640625,-237.79296875,-55.6640625,25.390625
-18.5546875,73.73046875,-54.19921875,16.11328125
53.7109375,198.2421875,-52.24609375,-24.4140625
39.0625,7.32421875,-54.6875,-48.33984375
-31.73828125,-124.51171875,-62.98828125,-18.06640625
-76.171875,-199.70703125,-58.10546875,26.3671875
-32.71484375,-73.73046875,-45.8984375,22.94921875
42.48046875,55.17578125,-44.921875,-18.5546875
44.43359375,38.0859375,-49.8046875,-44.921875
-27.34375,-96.6796875,-47.8515625,-18.5546875
-83.984375,-165.0390625,-45.41015625,16.6015625
-59.5703125,-81.0546875,-50.78125,12.20703125
22.94921875,80.078125,-51.7578125,-19.04296875
43.9453125,240.234375,-49.8046875,-45.8984375
-31.25,6.34765625,-50.78125,-34.1796875
-94.7265625,-230.46875,-48.33984375,2.9296875
-67.3828125,-114.2578125,-46.38671875,20.99609375
21.484375,53.22265625,-52.24609375,-15.625
46.875,56.15234375,-55.17578125,-53.7109375
-21.97265625,-94.7265625,-45.41015625,-30.76171875
-87.40234375,-185.546875,-40.0390625,6.34765625
-73.73046875,-113.76953125,-37.59765625,22.94921875
11.23046875,67.87109375,-41.9921875,-22.94921875
49.8046875,63.96484375,-42.96875,-80.56640625
-12.20703125,33.69140625,-47.8515625,-75.68359375
-85.44921875,-46.875,-53.7109375,-45.41015625
-85.9375,-173.828125,-49.8046875,-19.04296875
-4.8828125,4.39453125,-48.33984375,-43.45703125
29.78515625,128.90625,-53.7109375,-87.40234375
-21.484375,-30.2734375,-55.6640625,-87.40234375
-90.33203125,-184.08203125,-54.6875,-46.38671875
-112.3046875,-166.9921875,-53.22265625,-16.6015625
-35.64453125,-0.48828125,-47.8515625,-40.52734375
27.83203125,92.28515625,-44.921875,-77.1484375
-8.7890625,-42.96875,-49.31640625,-78.125
-88.8671875,-124.0234375,-45.41015625,-44.921875
-119.62890625,-31.73828125,-38.0859375,-13.18359375
-44.921875,36.62109375,-37.109375,-22.94921875
18.06640625,46.38671875,-41.50390625,-55.17578125
-5.859375,-13.671875,-54.19921875,-69.3359375
-73.73046875,-136.23046875,-54.6875,-39.55078125
-104.00390625,-196.2890625,-46.38671875,8.7890625
-35.15625,-50.78125,-49.31640625,-7.8125
32.2265625,134.765625,-52.24609375,-51.7578125
10.7421875,80.56640625,-51.26953125,-64.94140625
-63.4765625,-126.953125,-42.48046875,-46.875
-103.515625,-215.33203125,-35.64453125,-6.34765625
-55.6640625,40.0390625,-50.29296875,-21.97265625
10.25390625,196.2890625,-62.5,-68.84765625
16.11328125,0.0,-60.546875,-73.73046875
-59.08203125,-126.953125,-59.08203125,-49.8046875
-112.3046875,-175.78125,-51.7578125,-17.08984375
-63.4765625,-72.265625,-46.38671875,-16.11328125
13.18359375,65.91796875,-49.8046875,-60.05859375
16.6015625,52.734375,-53.7109375,-91.796875
-54.6875,-104.00390625,-52.734375,-72.265625
-109.375,-208.0078125,-50.29296875,-25.87890625
-80.56640625,-121.58203125,-47.36328125,-8.30078125
-3.90625,87.40234375,-48.33984375,-47.8515625
15.625,163.57421875,-51.7578125,-83.0078125
-49.31640625,-62.01171875,-49.8046875,-62.5
-105.95703125,-218.26171875,-47.8515625,-20.01953125
-93.26171875,-77.1484375,-47.8515625,-1.953125
-17.578125,134.765625,-46.875,-32.71484375
19.53125,74.21875,-49.8046875,-69.3359375
-46.38671875,-74.21875,-55.17578125,-69.82421875
-109.375,-156.73828125,-50.78125,-35.64453125
-103.515625,-139.6484375,-48.33984375,-13.671875
-20.01953125,5.37109375,-56.640625,-47.36328125
30.76171875,62.01171875,-65.91796875,-89.84375
-27.83203125,-10.25390625,-62.5,-83.49609375
-100.5859375,-105.95703125,-52.24609375,-43.9453125
-108.88671875,-164.0625,-48.828125,-21.97265625
-31.25,-30.76171875,-53.7109375,-42.96875
20.5078125,76.66015625,-59.08203125,-88.8671875
-21.97265625,-26.3671875,-62.98828125,-93.75
-92.7734375,-160.64453125,-61.03515625,-49.8046875
-115.234375,-175.29296875,-55.6640625,-14.6484375
-48.828125,83.49609375,-58.10546875,-35.15625
18.06640625,169.921875,-57.12890625,-79.1015625
-2.9296875,-23.4375,-52.734375,-86.9140625
-79.1015625,-139.16015625,-49.31640625,-55.6640625
-116.69921875,-160.15625,-48.33984375,-24.90234375
-57.12890625,-40.52734375,-49.8046875,-34.66796875
14.6484375,22.94921875,-56.15234375,-69.82421875
0.9765625,23.4375,-65.4296875,-89.35546875
-81.54296875,52.734375,-59.5703125,-65.4296875
-118.1640625,-90.33203125,-45.41015625,-16.6015625
-57.12890625,-82.51953125,-41.50390625,-12.6953125
9.765625,37.59765625,-47.8515625,-52.24609375
11.71875,-9.765625,-49.31640625,-71.2890625
-59.5703125,-134.765625,-37.109375,-39.55078125
-104.98046875,-178.7109375,-29.78515625,-0.9765625
-59.08203125,-83.984375,-35.15625,-4.8828125
4.8828125,37.109375,-40.0390625,-42.48046875
12.6953125,21.97265625,-41.015625,-64.94140625
-56.640625,-153.80859375,-52.24609375,-39.55078125
-110.3515625,-71.2890625,-60.546875,-5.37109375
-76.66015625,61.03515625,-51.26953125,-7.32421875
6.34765625,20.01953125,-51.26953125,-56.640625
39.0625,23.4375,-58.59375,-89.84375
-27.83203125,-47.36328125,-49.31640625,-57.6171875
-104.98046875,-161.1328125,-35.15625,-23.4375
-107.421875,-149.90234375,-33.203125,-31.73828125
-22.4609375,2.9296875,-35.64453125,-62.98828125
19.04296875,49.31640625,-39.55078125,-90.8203125
-49.8046875,-70.80078125,-47.36328125,-81.0546875
-114.2578125,-205.078125,-48.33984375,-41.015625
-109.86328125,-80.56640625,-50.29296875,-21.484375
-25.87890625,176.7578125,-50.78125,-48.828125
21.97265625,78.61328125,-51.7578125,-86.9140625
-27.34375,-102.5390625,-43.9453125,-76.66015625
-92.7734375,-174.8046875,-36.62109375,-32.71484375
-109.375,-163.57421875,-36.1328125,-4.8828125
-28.80859375,-27.34375,-42.96875,-28.3203125
29.78515625,36.1328125,-46.875,-68.359375
-17.08984375,-9.765625,-42.48046875,-64.94140625
-90.33203125,-107.421875,-42.96875,-28.80859375
-108.3984375,-158.203125,-41.9921875,2.44140625
-32.2265625,-60.05859375,-45.41015625,-14.16015625
21.97265625,191.89453125,-53.7109375,-63.4765625
-19.53125,150.390625,-45.41015625,-79.1015625
-83.0078125,-179.6875,-40.52734375,-43.9453125
-101.07421875,-208.0078125,-44.43359375,-7.8125
-42.48046875,-54.6875,-43.45703125,-22.4609375
13.18359375,43.9453125,-43.45703125,-62.01171875
-5.37109375,-40.52734375,-47.8515625,-75.68359375
-74.70703125,-149.4140625,-51.26953125,-49.31640625
-111.81640625,-172.36328125,-43.45703125,-25.87890625
-53.7109375,-43.45703125,-40.0390625,-31.25
17.08984375,37.109375,-44.921875,-63.96484375
8.30078125,41.015625,-48.828125,-78.61328125
-62.98828125,151.85546875,-53.7109375,-48.828125
-102.5390625,-27.83203125,-47.8515625,-6.8359375
-59.08203125,-116.69921875,-46.38671875,-8.30078125
10.25390625,6.34765625,-51.26953125,-52.734375
18.06640625,-2.9296875,-48.828125,-76.171875
-53.22265625,-93.75,-47.36328125,-48.828125
-108.3984375,-195.3125,-46.38671875,-7.8125
-71.2890625,-104.4921875,-41.50390625,0.48828125
0.9765625,27.34375,-40.52734375,-30.76171875
14.6484375,4.39453125,-50.78125,-68.359375
-50.29296875,-106.4453125,-51.26953125,-64.453125
-115.234375,-191.89453125,-41.015625,-25.390625
-102.5390625,-112.79296875,-47.8515625,-14.16015625
-16.11328125,49.31640625,-53.7109375,-53.22265625
18.5546875,-12.6953125,-49.31640625,-84.47265625
-52.24609375,67.87109375,-47.36328125,-63.4765625
-111.328125,80.56640625,-46.875,-20.99609375
-98.6328125,-145.01953125,-41.9921875,-2.9296875
-16.11328125,-31.73828125,-43.9453125,-37.109375
23.92578125,45.41015625,-58.59375,-87.40234375
-42.48046875,-80.078125,-60.546875,-83.49609375
-106.93359375,-201.66015625,-54.19921875,-39.55078125
-103.02734375,-108.88671875,-54.19921875,-18.5546875
-25.87890625,149.4140625,-55.6640625,-50.78125
24.4140625,89.84375,-48.828125,-83.984375
-20.99609375,-102.5390625,-47.36328125,-80.078125
-84.47265625,-178.22265625,-53.22265625,-44.921875
-97.65625,-175.78125,-49.31640625,-10.25390625
-20.99609375,-17.578125,-46.38671875,-23.4375
39.55078125,51.26953125,-53.7109375,-59.5703125
-0.48828125,17.578125,-55.17578125,-66.89453125
-73.73046875,-88.8671875,-52.734375,-31.25
-100.5859375,-206.54296875,-49.8046875,1.46484375
-36.62109375,-28.3203125,-42.48046875,-17.08984375
20.99609375,110.83984375,-45.8984375,-67.87109375
-0.48828125,-7.32421875,-46.38671875,-83.49609375
-74.21875,-172.8515625,-40.52734375,-47.36328125
-122.0703125,-221.19140625,-42.96875,-10.7421875
-66.40625,63.4765625,-43.9453125,-18.5546875
1.46484375,181.640625,-52.24609375,-54.19921875
-12.6953125,-27.34375,-56.640625,-76.171875
-80.56640625,-144.53125,-47.36328125,-56.15234375
-123.046875,-174.31640625,-42.48046875,-25.390625
-81.54296875,-57.12890625,-46.875,-42.48046875
-2.44140625,0.0,-43.45703125,-81.0546875
7.8125,16.6015625,-37.109375,-104.00390625
-63.4765625,41.015625,-39.55078125,-77.1484375
-116.69921875,-122.55859375,-43.9453125,-34.66796875
-82.51953125,-147.4609375,-48.33984375,-33.203125
-4.8828125,73.2421875,-46.38671875,-64.453125
9.27734375,168.45703125,-49.8046875,-86.9140625
-55.17578125,-82.51953125,-52.24609375,-62.98828125
-109.86328125,-210.44921875,-56.640625,-24.90234375
-86.9140625,-107.421875,-54.19921875,-10.25390625
-5.37109375,10.7421875,-43.45703125,-41.50390625
19.53125,21.484375,-48.33984375,-74.21875
-46.875,-102.5390625,-52.734375,-56.640625
-104.4921875,-187.5,-50.29296875,-18.5546875
-98.14453125,-105.46875,-54.6875,-9.27734375
-16.6015625,33.203125,-60.05859375,-44.921875
25.390625,-3.41796875,-56.15234375,-83.0078125
-34.1796875,57.12890625,-52.24609375,-77.63671875
-101.07421875,97.65625,-55.6640625,-41.50390625
-100.09765625,-125.48828125,-54.19921875,-18.5546875
-23.4375,-32.2265625,-49.31640625,-49.8046875
20.01953125,67.87109375,-54.19921875,-83.0078125
-31.25,-73.73046875,-59.5703125,-73.73046875
-93.26171875,-182.6171875,-46.875,-36.62109375
-97.16796875,-164.0625,-40.0390625,-12.6953125
-21.484375,-19.04296875,-44.43359375,-38.0859375
28.80859375,65.91796875,-47.8515625,-75.68359375
-19.04296875,-62.98828125,-47.36328125,-75.68359375
-91.30859375,-132.32421875,-45.41015625,-36.62109375
-122.55859375,56.15234375,-61.03515625,-22.4609375
-37.59765625,88.8671875,-65.4296875,-37.109375
40.52734375,21.97265625,-48.33984375,-50.29296875
-12.6953125,-44.921875,-42.96875,-72.265625
-98.6328125,-176.7578125,-40.0390625,-55.17578125
-130.859375,-219.23828125,-38.0859375,-13.671875
-66.40625,-77.1484375,-36.1328125,-22.4609375
4.8828125,19.53125,-33.203125,-61.03515625
-4.8828125,-38.0859375,-38.57421875,-80.078125
-78.125,-143.5546875,-42.96875,-60.546875
-126.953125,-223.14453125,-35.15625,-25.87890625
-77.63671875,3.90625,-40.52734375,-31.25
-9.765625,142.578125,-45.8984375,-71.2890625
-11.71875,-30.2734375,-39.55078125,-90.8203125
-78.125,-154.296875,-37.109375,-61.5234375
-118.1640625,-176.26953125,-35.64453125,-10.7421875
-75.68359375,-83.984375,-33.69140625,-12.20703125
-8.30078125,7.8125,-37.109375,-60.05859375
4.39453125,39.55078125,-46.875,-77.63671875
-58.10546875,-71.77734375,-54.6875,-53.22265625
-106.93359375,-186.5234375,-48.33984375,-16.6015625
-69.82421875,-104.4921875,-40.0390625,-12.6953125
4.39453125,52.24609375,-46.875,-57.6171875
15.13671875,138.671875,-48.828125,-87.40234375
-43.45703125,-67.3828125,-43.45703125,-62.01171875
-97.65625,-211.9140625,-42.48046875,-22.4609375
-86.42578125,-113.76953125,-43.45703125,-16.11328125
-4.39453125,15.13671875,-46.875,-51.7578125
30.76171875,28.80859375,-47.8515625,-84.47265625
-29.296875,-105.46875,-44.43359375,-64.94140625
-95.21484375,-135.7421875,-46.38671875,-22.94921875
-86.9140625,-75.1953125,-47.36328125,2.44140625
-5.859375,7.8125,-47.36328125,-24.4140625
28.3203125,17.578125,-51.26953125,-69.3359375
-35.64453125,12.6953125,-49.31640625,-64.94140625
-100.5859375,-29.78515625,-44.43359375,-26.85546875
-98.14453125,-143.06640625,-43.45703125,-4.8828125
-23.92578125,-18.5546875,-50.29296875,-39.0625
23.92578125,57.12890625,-49.31640625,-78.125
-19.53125,-55.6640625,-40.0390625,-72.265625
-84.9609375,-178.7109375,-40.52734375,-38.57421875
-104.98046875,-177.734375,-40.52734375,-11.23046875
-36.62109375,-23.92578125,-39.0625,-28.80859375
17.578125,69.3359375,-42.96875,-66.89453125
-18.06640625,-30.2734375,-49.31640625,-75.1953125
-89.84375,-117.67578125,-44.921875,-36.62109375
-118.65234375,2.44140625,-39.55078125,-2.44140625
-45.8984375,57.6171875,-35.64453125,-13.671875
22.4609375,19.04296875,-38.0859375,-55.17578125
6.8359375,8.7890625,-40.0390625,-64.94140625
-61.03515625,-95.21484375,-33.203125,-35.15625
-101.5625,-190.4296875,-31.73828125,-3.90625
-48.33984375,-81.0546875,-30.2734375,-10.25390625
22.94921875,48.828125,-33.203125,-53.22265625
16.11328125,9.27734375,-49.31640625,-77.63671875
-58.59375,-137.6953125,-50.78125,-50.78125
-108.3984375,-186.5234375,-44.921875,-7.32421875
-57.6171875,-55.6640625,-46.875,-5.859375
14.6484375,30.76171875,-41.9921875,-41.50390625
15.13671875,-0.48828125,-41.9921875,-73.2421875
-47.36328125,-145.99609375,-44.43359375,-52.24609375
-105.95703125,-83.984375,-52.734375,-14.16015625
-79.58984375,78.125,-62.5,-21.97265625
0.48828125,25.390625,-51.26953125,-54.6875
7.8125,-6.8359375,-45.41015625,-81.0546875
-65.4296875,-114.2578125,-42.48046875,-60.05859375
-115.234375,-197.75390625,-38.0859375,-20.01953125
-93.26171875,-116.69921875,-41.50390625,-18.5546875
-18.5546875,39.55078125,-41.50390625,-52.734375
11.71875,67.87109375,-40.0390625,-79.58984375
-48.33984375,-79.1015625,-45.41015625,-73.73046875
-108.3984375,-202.63671875,-50.29296875,-38.57421875
-102.05078125,-80.56640625,-56.15234375,-19.53125
-24.90234375,160.64453125,-57.6171875,-46.38671875
12.20703125,84.47265625,-50.29296875,-71.2890625
-47.8515625,-83.984375,-45.41015625,-69.82421875
-103.02734375,-106.93359375,-45.8984375,-31.73828125
-107.421875,-90.8203125,-51.26953125,-3.90625
-33.69140625,-13.671875,-50.78125,-38.57421875
22.4609375,44.43359375,-49.31640625,-75.1953125
-28.80859375,-59.5703125,-49.31640625,-70.3125
-98.6328125,-142.578125,-38.0859375,-29.296875
-107.421875,-147.94921875,-31.73828125,0.9765625
-37.59765625,-55.6640625,-35.15625,-28.3203125
11.71875,175.29296875,-43.9453125,-71.77734375
-26.85546875,105.95703125,-43.9453125,-76.171875
-92.28515625,-179.6875,-34.1796875,-35.64453125
-118.1640625,-187.5,-38.57421875,3.90625
-48.33984375,-29.296875,-44.921875,-20.5078125
14.16015625,68.84765625,-53.22265625,-73.2421875
-14.16015625,-27.83203125,-59.5703125,-86.42578125
-81.54296875,-144.53125,-48.33984375,-52.734375
-113.28125,-106.4453125,-41.50390625,-15.625
-51.7578125,5.37109375,-41.9921875,-27.83203125
14.6484375,25.390625,-46.38671875,-65.4296875
0.0,1.46484375,-50.78125,-83.49609375
-71.2890625,-1.46484375,-47.36328125,-46.38671875
-108.3984375,-139.6484375,-39.0625,0.0
-56.640625,-95.703125,-37.109375,-11.71875
14.6484375,48.828125,-38.57421875,-56.15234375
21.97265625,15.13671875,-42.96875,-77.1484375
-51.26953125,-126.46484375,-46.875,-49.8046875
-101.5625,-189.453125,-35.15625,-7.8125
-63.4765625,-74.70703125,-36.62109375,-2.9296875
8.30078125,54.6875,-48.33984375,-38.0859375
23.92578125,48.33984375,-58.10546875,-74.21875
-38.0859375,-126.46484375,-53.7109375,-55.6640625
-102.05078125,-90.8203125,-46.38671875,-16.11328125
-84.9609375,82.51953125,-56.640625,-6.34765625
2.44140625,34.66796875,-54.6875,-35.64453125
34.1796875,0.9765625,-53.7109375,-72.75390625
-27.83203125,-100.09765625,-45.8984375,-53.22265625
-89.35546875,-182.12890625,-38.0859375,-7.8125
-83.0078125,-125.9765625,-40.0390625,-2.44140625
-11.23046875,20.99609375,-44.43359375,-43.45703125
22.4609375,63.4765625,-46.875,-77.63671875
-32.2265625,-70.3125,-47.8515625,-65.4296875
-94.23828125,-182.12890625,-46.38671875,-25.390625
-100.09765625,-106.93359375,-46.875,-9.765625
-22.94921875,127.9296875,-48.828125,-50.78125
21.484375,108.88671875,-49.8046875,-97.65625
-30.76171875,-89.35546875,-51.26953125,-85.9375
-99.609375,-178.22265625,-42.48046875,-42.96875
-116.2109375,-161.62109375,-38.0859375,-20.5078125
-40.0390625,-25.390625,-44.43359375,-51.26953125
19.53125,38.0859375,-52.24609375,-88.8671875
-18.5546875,9.765625,-55.6640625,-81.54296875
-93.26171875,-93.26171875,-50.29296875,-43.45703125
-114.74609375,-172.8515625,-48.33984375,-8.7890625
-36.62109375,-41.50390625,-46.875,-24.4140625
28.3203125,163.57421875,-48.33984375,-68.359375
-3.41796875,104.00390625,-49.8046875,-77.1484375
-77.63671875,-162.59765625,-42.48046875,-36.1328125
-109.86328125,-180.17578125,-42.96875,4.39453125
-41.50390625,-45.41015625,-49.8046875,-16.6015625
28.80859375,63.96484375,-43.45703125,-59.5703125
5.859375,-6.8359375,-44.921875,-71.77734375
-76.171875,-144.53125,-50.78125,-49.8046875
-111.81640625,-134.765625,-42.96875,-12.6953125
-55.6640625,-37.59765625,-44.921875,-24.4140625
17.08984375,17.08984375,-52.734375,-70.3125
24.4140625,37.109375,-49.8046875,-75.1953125
-61.5234375,-18.5546875,-43.9453125,-49.8046875
-127.44140625,-168.45703125,-40.0390625,-30.76171875
-88.8671875,-113.76953125,-43.9453125,-35.64453125
-14.16015625,41.015625,-45.41015625,-69.82421875
-1.953125,26.85546875,-43.45703125,-97.16796875
-72.265625,-138.671875,-44.921875,-71.2890625
-126.953125,-204.1015625,-43.9453125,-23.92578125
-93.26171875,-93.26171875,-42.96875,-21.484375
-11.71875,26.3671875,-47.36328125,-60.546875
2.9296875,31.25,-50.78125,-88.37890625
-64.453125,-114.74609375,-44.43359375,-63.96484375
-125.0,-113.76953125,-41.015625,-15.625
-116.69921875,20.01953125,-49.31640625,-6.8359375
-24.90234375,21.484375,-48.33984375,-42.96875
20.5078125,17.578125,-43.45703125,-81.54296875
-41.50390625,-84.47265625,-37.59765625,-80.56640625
-109.375,-177.24609375,-34.66796875,-37.109375
-104.00390625,-144.04296875,-42.96875,-9.27734375
-14.6484375,-4.8828125,-51.7578125,-46.875
24.90234375,64.94140625,-52.24609375,-89.35546875
-32.2265625,-45.41015625,-49.8046875,-71.77734375
-101.07421875,-171.38671875,-46.875,-31.73828125
-117.67578125,-146.97265625,-43.45703125,-11.23046875
-40.52734375,4.8828125,-39.55078125,-31.25
8.7890625,73.2421875,-41.015625,-69.3359375
-38.0859375,-70.3125,-42.48046875,-75.68359375
-104.4921875,-135.7421875,-51.26953125,-35.15625
-121.58203125,35.64453125,-50.29296875,4.39453125
-41.9921875,82.51953125,-32.71484375,-2.9296875
15.625,30.76171875,-36.62109375,-44.921875
-18.5546875,-35.64453125,-45.41015625,-60.546875
-95.703125,-145.99609375,-43.9453125,-35.64453125
-123.046875,-170.8984375,-44.921875,-11.23046875
-43.45703125,-49.8046875,-52.24609375,-12.6953125
18.06640625,53.22265625,-55.17578125,-53.7109375
-7.8125,7.32421875,-50.78125,-76.66015625
-83.984375,-133.30078125,-45.41015625,-46.38671875
-120.1171875,-219.7265625,-38.57421875,-16.6015625
-61.03515625,30.76171875,-42.48046875,-33.69140625
10.25390625,224.12109375,-46.38671875,-75.68359375
14.6484375,30.2734375,-42.48046875,-85.44921875
-57.12890625,-153.80859375,-41.50390625,-48.33984375
-106.93359375,-188.4765625,-40.52734375,-10.25390625
-56.15234375,-56.15234375,-45.41015625,-19.53125
15.13671875,36.1328125,-57.12890625,-61.03515625
15.13671875,3.90625,-61.5234375,-83.984375
-59.5703125,-114.2578125,-52.734375,-56.15234375
-119.140625,-189.453125,-48.33984375,-14.6484375
-88.37890625,-102.5390625,-56.640625,-6.34765625
-14.6484375,81.0546875,-61.5234375,-44.43359375
0.9765625,150.87890625,-54.19921875,-82.03125
-60.05859375,-60.546875,-44.43359375,-61.5234375
-111.328125,-202.1484375,-42.48046875,-19.53125
-83.984375,-50.78125,-43.9453125,-5.37109375
-7.32421875,88.8671875,-47.36328125,-39.55078125
13.18359375,19.53125,-49.8046875,-74.21875
-47.8515625,-110.3515625,-46.875,-61.03515625
-110.83984375,-186.03515625,-47.36328125,-31.25
-103.02734375,-130.37109375,-49.31640625,-20.01953125
-21.97265625,42.48046875,-48.33984375,-53.22265625
13.18359375,61.03515625,-53.22265625,-101.07421875
-42.48046875,22.4609375,-60.05859375,-93.75
-100.5859375,-34.1796875,-57.12890625,-48.33984375
-100.09765625,-164.0625,-45.41015625,-27.34375
-21.97265625,-39.0625,-44.921875,-59.5703125
24.90234375,45.41015625,-49.8046875,-91.796875
-15.13671875,-46.875,-45.41015625,-80.078125
-77.63671875,-156.25,-42.96875,-34.66796875
-90.33203125,-141.11328125,-45.41015625,0.0
-14.6484375,61.03515625,-48.828125,-23.4375
37.109375,94.7265625,-51.7578125,-62.98828125
-5.859375,-59.08203125,-46.875,-63.4765625
-83.0078125,-114.2578125,-47.36328125,-21.484375
-112.3046875,-25.390625,-52.734375,7.32421875
-42.96875,-3.41796875,-62.98828125,-25.390625
17.08984375,18.5546875,-70.3125,-75.68359375
-4.8828125,-3.90625,-57.12890625,-80.078125
-76.171875,-126.953125,-46.875,-41.50390625
-111.328125,-187.01171875,-42.48046875,-6.34765625
-49.31640625,-60.546875,-40.0390625,-18.06640625
25.87890625,63.4765625,-37.109375,-55.6640625
20.5078125,12.6953125,-42.96875,-71.2890625
-52.734375,-118.65234375,-46.875,-41.50390625
-100.5859375,-211.42578125,-39.55078125,0.0
-51.7578125,61.5234375,-45.41015625,-8.7890625
18.06640625,292.96875,-58.10546875,-54.6875
18.06640625,53.22265625,-55.17578125,-75.68359375
-51.7578125,-142.578125,-44.921875,-46.38671875
-102.05078125,-185.05859375,-41.50390625,0.48828125
-69.82421875,-89.35546875,-37.59765625,-4.39453125
-3.90625,11.71875,-41.9921875,-52.24609375
11.23046875,10.25390625,-51.7578125,-84.9609375
-59.08203125,-97.65625,-54.19921875,-73.73046875
-118.65234375,-153.3203125,-48.828125,-25.390625
-82.51953125,-93.75,-44.43359375,-3.90625
1.953125,56.640625,-46.38671875,-40.52734375
20.01953125,180.17578125,-51.7578125,-82.03125
-45.41015625,-15.13671875,-54.6875,-68.84765625
-101.5625,-197.75390625,-53.22265625,-26.85546875
-90.33203125,-68.84765625,-54.6875,-15.625
-17.578125,97.65625,-51.7578125,-50.78125
19.04296875,22.94921875,-44.43359375,-83.0078125
-39.0625,-107.91015625,-40.0390625,-72.265625
-102.05078125,-165.0390625,-35.15625,-29.78515625
-104.98046875,-138.671875,-36.1328125,-8.30078125
-25.390625,-12.20703125,-42.96875,-42.96875
25.87890625,53.7109375,-54.19921875,-83.984375
-24.4140625,6.34765625,-60.05859375,-80.56640625
-91.796875,-101.5625,-46.875,-40.0390625
-110.3515625,-176.26953125,-45.8984375,-15.13671875
-32.71484375,-27.34375,-45.41015625,-37.59765625
21.97265625,94.7265625,-47.8515625,-82.51953125
-20.01953125,-18.06640625,-54.6875,-88.8671875
-83.984375,-173.828125,-53.7109375,-53.7109375
-101.5625,-191.89453125,-57.12890625,-24.4140625
-27.34375,20.99609375,-63.96484375,-39.0625
34.66796875,93.26171875,-61.03515625,-75.68359375
5.37109375,-49.8046875,-60.546875,-77.63671875
-69.82421875,-153.80859375,-53.7109375,-34.1796875
-105.46875,-174.31640625,-39.55078125,-0.9765625
-43.9453125,-60.546875,-41.015625,-22.4609375
22.4609375,40.52734375,-51.26953125,-67.87109375
7.8125,-6.34765625,-50.29296875,-73.2421875
-69.3359375,-131.8359375,-41.015625,-37.59765625
-123.53515625,-176.7578125,-47.36328125,-9.765625
-72.75390625,-90.8203125,-58.10546875,-26.3671875
-7.32421875,113.76953125,-61.5234375,-72.75390625
-15.13671875,191.89453125,-59.5703125,-84.9609375
-80.56640625,-62.01171875,-50.78125,-52.734375
-124.51171875,-209.47265625,-49.31640625,-20.99609375
-77.63671875,-15.625,-53.22265625,-22.4609375
2.9296875,126.953125,-56.640625,-60.546875
15.625,14.6484375,-55.6640625,-87.40234375
-51.7578125,-157.2265625,-51.26953125,-66.89453125
-108.3984375,-91.796875,-51.7578125,-29.296875
-80.078125,46.38671875,-54.19921875,-20.5078125
0.0,16.6015625,-53.22265625,-49.8046875
20.5078125,16.6015625,-49.31640625,-77.63671875
-48.33984375,-90.33203125,-43.45703125,-57.12890625
-108.3984375,-188.4765625,-44.921875,-14.6484375
-92.28515625,-130.859375,-47.36328125,-10.25390625
-12.20703125,13.18359375,-45.41015625,-46.875
23.92578125,44.43359375,-45.8984375,-75.1953125
-33.69140625,-51.7578125,-37.109375,-56.15234375
-102.5390625,-150.87890625,-37.109375,-21.484375
-114.2578125,-113.28125,-49.8046875,-15.625
-45.41015625,186.03515625,-55.17578125,-55.6640625
-0.48828125,165.52734375,-51.26953125,-91.796875
-50.29296875,-89.35546875,-45.41015625,-75.68359375
-113.28125,-180.6640625,-44.43359375,-37.59765625
-120.1171875,-173.33984375,-45.41015625,-12.20703125
-42.48046875,-17.578125,-46.38671875,-36.1328125
14.6484375,51.7578125,-45.41015625,-80.078125
-28.80859375,-60.05859375,-45.41015625,-87.40234375
-96.6796875,-164.0625,-42.96875,-46.875
-102.5390625,-161.1328125,-38.57421875,-7.8125
-27.34375,-37.59765625,-49.31640625,-26.85546875
24.4140625,33.203125,-52.24609375,-61.5234375
-12.6953125,-36.1328125,-42.48046875,-67.87109375
-95.21484375,-156.73828125,-41.50390625,-46.875
-126.46484375,-215.33203125,-39.0625,-16.11328125
-63.4765625,72.265625,-43.45703125,-30.76171875
-4.8828125,229.4921875,-54.6875,-79.1015625
-17.08984375,8.30078125,-54.6875,-88.8671875
-79.1015625,-119.62890625,-48.828125,-46.875
-115.72265625,-178.22265625,-44.43359375,-13.18359375
-60.546875,-66.89453125,-44.921875,-29.296875
10.7421875,38.57421875,-45.8984375,-65.4296875
1.46484375,23.92578125,-48.828125,-88.8671875
-84.9609375,-30.2734375,-53.7109375,-72.265625
-126.953125,-150.390625,-50.29296875,-33.203125
-71.2890625,-85.44921875,-44.43359375,-36.1328125
-4.8828125,42.96875,-45.8984375,-77.63671875
-12.6953125,13.671875,-54.19921875,-104.4921875
-100.5859375,-128.41796875,-59.5703125,-90.8203125
-158.203125,-219.23828125,-52.734375,-59.08203125
-123.046875,-57.12890625,-57.12890625,-64.94140625
-53.7109375,95.21484375,-62.01171875,-113.76953125
-57.6171875,11.23046875,-55.17578125,-155.76171875
-149.4140625,-110.3515625,-58.10546875,-154.296875
-214.35546875,-200.68359375,-62.01171875,-120.60546875
-195.3125,-146.97265625,-58.10546875,-109.86328125
-117.67578125,-8.30078125,-57.12890625,-149.90234375
-88.8671875,-8.30078125,-61.5234375,-192.87109375
-161.1328125,-41.50390625,-67.3828125,-192.87109375
-228.515625,-124.0234375,-62.98828125,-157.71484375
-213.8671875,-183.59375,-46.875,-132.32421875
-140.13671875,-37.59765625,-38.57421875,-163.0859375
-98.14453125,41.015625,-37.59765625,-196.2890625
-141.11328125,-96.19140625,-44.43359375,-176.7578125
-202.63671875,-217.7734375,-41.9921875,-133.30078125
-202.1484375,-143.5546875,-27.34375,-105.95703125
-120.1171875,134.27734375,-31.73828125,-131.8359375
-69.3359375,130.37109375,-35.15625,-169.921875
-111.81640625,-95.703125,-29.296875,-157.2265625
-163.0859375,-183.10546875,-35.64453125,-104.00390625
-174.8046875,-181.15234375,-42.48046875,-68.84765625
-98.6328125,-55.17578125,-31.25,-91.796875
-28.3203125,20.99609375,-30.76171875,-124.51171875
-57.12890625,-59.5703125,-41.50390625,-119.62890625
-128.41796875,-166.015625,-41.015625,-76.66015625
-150.390625,-184.5703125,-37.109375,-29.296875
-68.84765625,-41.015625,-35.64453125,-39.0625
3.90625,82.03125,-36.1328125,-77.63671875
-16.11328125,-3.90625,-36.1328125,-81.0546875
-81.0546875,-146.484375,-37.109375,-39.55078125
-98.6328125,-193.84765625,-31.25,9.27734375
-33.69140625,41.50390625,-41.015625,-1.46484375
30.2734375,173.828125,-57.12890625,-51.26953125
32.2265625,-15.625,-51.26953125,-58.59375
-35.64453125,-136.71875,-45.41015625,-30.76171875
-74.70703125,-163.57421875,-42.96875,7.32421875
-19.53125,-64.453125,-39.55078125,13.18359375
55.17578125,44.921875,-40.52734375,-19.04296875
57.6171875,43.45703125,-43.9453125,-33.203125
-9.765625,-72.265625,-46.38671875,-7.32421875
-63.96484375,-164.55078125,-44.921875,30.76171875
-22.4609375,-95.21484375,-41.50390625,37.59765625
48.828125,74.70703125,-42.96875,-10.25390625
51.26953125,130.37109375,-41.50390625,-47.36328125
-14.6484375,-49.8046875,-42.96875,-25.390625
-69.3359375,-179.19921875,-42.48046875,17.08984375
-53.7109375,-3.90625,-40.0390625,26.3671875
16.11328125,187.5,-47.36328125,-11.23046875
47.36328125,53.22265625,-43.9453125,-41.9921875
-17.578125,-89.35546875,-45.8984375,-23.92578125
-72.265625,-155.76171875,-47.36328125,19.53125
-56.640625,-82.03125,-51.7578125,38.0859375
28.3203125,38.57421875,-55.6640625,9.27734375
71.2890625,9.27734375,-49.8046875,-26.85546875
-3.41796875,26.85546875,-63.4765625,-40.0390625
-69.3359375,-22.4609375,-64.94140625,-3.41796875
-55.17578125,-146.484375,-43.45703125,37.59765625
22.4609375,-12.6953125,-42.96875,6.8359375
64.453125,104.4921875,-50.78125,-41.9921875
6.8359375,-25.87890625,-52.734375,-45.41015625
-65.91796875,-178.7109375,-49.8046875,-7.8125
-79.58984375,-154.296875,-47.8515625,18.06640625
-3.41796875,-4.8828125,-49.31640625,-2.9296875
51.7578125,62.01171875,-46.875,-28.80859375
10.25390625,-44.43359375,-38.57421875,-26.3671875
-62.98828125,-162.59765625,-35.64453125,2.44140625
-83.49609375,-170.41015625,-34.1796875,35.15625
-7.8125,-20.99609375,-34.66796875,21.97265625
52.24609375,71.2890625,-48.828125,-20.5078125
10.25390625,-25.390625,-56.15234375,-36.1328125
-66.89453125,-144.53125,-47.36328125,-2.9296875
-94.7265625,-155.76171875,-41.50390625,32.71484375
-27.83203125,-51.7578125,-42.96875,11.71875
33.69140625,116.2109375,-50.78125,-40.52734375
15.13671875,87.890625,-46.38671875,-62.01171875
-58.59375,-114.74609375,-45.8984375,-32.71484375
-98.6328125,-189.453125,-42.96875,6.34765625
-52.24609375,41.9921875,-53.22265625,-7.32421875
-1.46484375,325.68359375,-79.1015625,-64.453125
9.765625,131.8359375,-65.4296875,-70.3125
-42.48046875,-138.671875,-49.31640625,-32.71484375
-98.6328125,-187.98828125,-45.41015625,-2.9296875
-61.03515625,-92.7734375,-36.62109375,-4.8828125
12.6953125,12.6953125,-39.0625,-43.9453125
21.484375,2.44140625,-49.8046875,-65.4296875
-45.8984375,-111.81640625,-46.875,-41.50390625
-99.609375,-175.78125,-38.0859375,-1.46484375
-59.5703125,-100.5859375,-38.57421875,8.30078125
30.2734375,32.71484375,-48.33984375,-25.87890625
38.57421875,200.1953125,-64.94140625,-63.96484375
-25.87890625,37.59765625,-62.01171875,-40.0390625
-71.2890625,-195.3125,-39.0625,10.25390625
-64.94140625,-112.79296875,-37.59765625,13.18359375
8.30078125,33.69140625,-49.31640625,-29.78515625
45.41015625,37.59765625,-43.9453125,-62.5
-20.01953125,-92.7734375,-42.48046875,-50.29296875
-83.0078125,-171.875,-46.38671875,-20.5078125
-80.078125,-133.30078125,-43.9453125,-13.18359375
-6.8359375,-1.953125,-45.41015625,-53.22265625
32.2265625,25.390625,-45.41015625,-93.75
-41.50390625,16.11328125,-59.08203125,-96.19140625
-111.328125,-30.76171875,-59.5703125,-56.640625
-104.98046875,-106.93359375,-45.8984375,-18.5546875
-20.99609375,6.34765625,-48.33984375,-37.109375
26.85546875,105.46875,-54.19921875,-74.21875
-20.99609375,-13.18359375,-59.08203125,-72.75390625
-90.33203125,-186.5234375,-49.8046875,-29.296875
-105.95703125,-187.01171875,-39.55078125,4.39453125
-30.2734375,-31.73828125,-44.43359375,-16.11328125
37.59765625,52.24609375,-42.96875,-41.50390625
15.625,-59.5703125,-39.0625,-36.62109375
-74.70703125,-134.765625,-41.015625,-26.3671875
-109.86328125,-41.015625,-44.43359375,-8.7890625
-30.76171875,36.1328125,-45.8984375,-14.16015625
31.25,58.59375,-52.734375,-55.6640625
5.859375,18.06640625,-57.6171875,-79.1015625
-61.5234375,-110.3515625,-55.6640625,-42.48046875
-102.05078125,-139.16015625,-64.453125,-2.44140625
-43.9453125,-28.3203125,-72.265625,-26.3671875
29.78515625,146.97265625,-74.70703125,-74.70703125
11.23046875,139.16015625,-73.2421875,-104.98046875
-67.3828125,-93.26171875,-69.82421875,-85.44921875
-107.421875,-165.0390625,-72.265625,-41.015625
-54.19921875,-11.23046875,-72.75390625,-41.9921875
19.53125,90.33203125,-71.2890625,-75.68359375
21.484375,18.5546875,-69.3359375,-94.23828125
-56.640625,-110.83984375,-68.84765625,-70.80078125
-115.234375,-101.07421875,-71.77734375,-37.59765625
-78.125,2.44140625,-63.96484375,-31.25
0.48828125,45.8984375,-54.19921875,-56.640625
11.23046875,38.0859375,-61.03515625,-89.84375
-57.12890625,-65.4296875,-62.5,-70.3125
-105.46875,-129.8828125,-57.6171875,-25.390625
-79.58984375,-90.8203125,-54.6875,-11.71875
-6.34765625,37.109375,-56.15234375,-51.26953125
16.6015625,141.11328125,-69.3359375,-92.7734375
-38.57421875,-30.76171875,-70.3125,-71.77734375
-92.28515625,-211.42578125,-53.7109375,-25.390625
-87.40234375,-83.0078125,-52.734375,-11.23046875
-4.8828125,143.5546875,-65.4296875,-38.57421875
35.64453125,86.9140625,-69.3359375,-72.265625
-30.2734375,-83.984375,-64.453125,-72.265625
-89.84375,-161.62109375,-53.22265625,-26.3671875
-91.796875,-145.99609375,-50.78125,0.48828125
-16.6015625,-10.25390625,-55.6640625,-38.57421875
34.1796875,73.73046875,-55.17578125,-82.03125
-9.765625,-28.80859375,-48.33984375,-71.77734375
-81.0546875,-134.27734375,-44.43359375,-39.55078125
-93.26171875,-134.765625,-38.57421875,-13.18359375
-7.32421875,-30.2734375,-31.73828125,-22.4609375
31.73828125,153.80859375,-48.33984375,-78.125
-19.04296875,120.60546875,-58.59375,-90.8203125
-72.75390625,-118.65234375,-47.8515625,-41.015625
-100.5859375,-168.45703125,-50.29296875,-6.8359375
-35.64453125,-27.83203125,-52.24609375,-26.3671875
28.80859375,62.5,-52.24609375,-66.40625
-1.46484375,-34.1796875,-53.22265625,-74.70703125
-79.1015625,-151.85546875,-55.6640625,-48.828125
-116.2109375,-174.8046875,-51.7578125,-11.71875
-55.6640625,-15.13671875,-48.33984375,-13.18359375
7.32421875,66.89453125,-51.7578125,-55.17578125
-4.8828125,17.578125,-47.36328125,-75.1953125
-74.21875,10.25390625,-46.875,-45.8984375
-111.328125,-119.62890625,-44.921875,0.9765625
-49.31640625,-97.16796875,-37.59765625,6.34765625
33.69140625,71.2890625,-41.015625,-30.2734375
30.76171875,59.5703125,-48.828125,-68.359375
-53.22265625,-113.76953125,-47.8515625,-70.3125
-104.98046875,-187.5,-43.45703125,-29.296875
-60.05859375,-67.3828125,-45.8984375,-15.13671875
16.6015625,65.91796875,-53.7109375,-49.31640625
20.99609375,51.7578125,-60.546875,-75.1953125
-55.17578125,-89.35546875,-58.59375,-59.5703125
-107.91015625,-191.89453125,-50.78125,-17.578125
-76.171875,-91.796875,-42.96875,-3.41796875
-0.48828125,55.17578125,-42.48046875,-39.0625
26.85546875,18.5546875,-50.29296875,-71.2890625
-44.43359375,62.5,-58.59375,-68.84765625
-106.93359375,34.1796875,-59.5703125,-26.3671875
-78.61328125,-113.28125,-50.29296875,5.859375
1.953125,13.671875,-52.24609375,-31.73828125
28.80859375,49.8046875,-55.6640625,-72.75390625
-29.78515625,-81.54296875,-52.24609375,-63.96484375
-90.8203125,-168.9453125,-40.0390625,-25.87890625
-96.6796875,-113.28125,-42.48046875,-6.34765625
-12.20703125,102.05078125,-58.10546875,-35.64453125
40.0390625,122.0703125,-53.7109375,-65.91796875
-15.13671875,-72.265625,-44.921875,-65.91796875
-81.54296875,-159.1796875,-44.43359375,-38.0859375
-88.37890625,-126.46484375,-39.0625,-6.8359375
-12.20703125,5.37109375,-38.57421875,-22.94921875
44.921875,60.05859375,-42.96875,-60.05859375
4.8828125,18.5546875,-45.41015625,-61.5234375
-65.91796875,-88.37890625,-42.96875,-24.4140625
-82.03125,-162.109375,-34.66796875,9.765625
-12.6953125,-36.1328125,-38.57421875,-9.27734375
31.25,171.38671875,-46.38671875,-56.15234375
-4.8828125,120.60546875,-39.55078125,-66.40625
-71.77734375,-154.296875,-40.0390625,-32.2265625
-106.93359375,-189.453125,-48.33984375,-8.30078125
-47.8515625,-46.875,-45.8984375,-28.80859375
20.5078125,46.38671875,-45.8984375,-66.40625
3.90625,7.32421875,-48.828125,-80.56640625
-73.2421875,-111.328125,-48.33984375,-53.7109375
-114.74609375,-182.12890625,-47.36328125,-17.08984375
-61.5234375,-64.453125,-40.52734375,-23.92578125
0.9765625,34.66796875,-39.55078125,-68.84765625
-5.37109375,15.13671875,-44.43359375,-83.0078125
-81.0546875,46.875,-52.734375,-57.6171875
-132.32421875,-79.58984375,-54.6875,-23.4375
-80.56640625,-117.67578125,-41.9921875,-11.71875
-5.37109375,29.78515625,-46.875,-62.98828125
2.44140625,14.16015625,-55.17578125,-97.16796875
-57.6171875,-121.58203125,-52.24609375,-60.546875
-102.05078125,-206.0546875,-47.8515625,-17.08984375
-79.58984375,-111.328125,-46.875,-14.16015625
-5.37109375,22.94921875,-47.8515625,-51.7578125
10.7421875,11.71875,-53.7109375,-82.51953125
-62.5,-106.93359375,-53.22265625,-67.3828125
-124.51171875,-157.71484375,-51.26953125,-35.15625
-104.98046875,-93.75,-47.36328125,-16.6015625
-19.04296875,20.5078125,-38.0859375,-39.55078125
10.7421875,3.41796875,-40.0390625,-80.078125
-64.453125,26.3671875,-60.546875,-83.984375
-127.9296875,-0.9765625,-61.03515625,-48.828125
-104.00390625,-135.7421875,-40.0390625,-9.765625
-20.01953125,-3.41796875,-47.8515625,-36.62109375
16.11328125,48.33984375,-56.15234375,-86.42578125
-37.59765625,-87.40234375,-54.6875,-77.63671875
-97.65625,-173.33984375,-48.33984375,-36.1328125
-102.05078125,-144.04296875,-46.38671875,-13.18359375
-23.4375,16.6015625,-46.875,-33.69140625
25.390625,72.265625,-45.8984375,-75.68359375
-13.671875,-73.2421875,-50.29296875,-76.66015625
-68.359375,-138.671875,-59.5703125,-28.3203125
-90.33203125,-53.22265625,-64.453125,-7.8125
-47.36328125,43.9453125,-54.6875,-44.921875
-1.46484375,46.875,-50.78125,-82.03125
-19.53125,-17.08984375,-56.640625,-86.9140625
-89.35546875,-119.62890625,-58.59375,-58.59375
-120.1171875,-210.9375,-54.19921875,-22.94921875
-59.5703125,-63.4765625,-47.8515625,-38.57421875
-0.48828125,59.08203125,-42.96875,-83.984375
-18.5546875,-4.8828125,-41.9921875,-96.6796875
-92.7734375,-153.3203125,-40.0390625,-60.05859375
-133.7890625,-241.69921875,-42.48046875,-17.578125
-74.70703125,10.25390625,-53.7109375,-30.2734375
-13.671875,176.7578125,-61.03515625,-77.63671875
-21.97265625,-16.11328125,-56.15234375,-88.8671875
-85.9375,-169.921875,-50.29296875,-50.29296875
-125.0,-194.3359375,-47.8515625,-9.765625
-73.2421875,-59.08203125,-43.9453125,-15.625
2.44140625,31.25,-42.48046875,-55.6640625
1.953125,17.578125,-53.22265625,-85.44921875
-65.91796875,-38.57421875,-55.17578125,-60.05859375
-106.93359375,-147.94921875,-43.9453125,-15.13671875
-61.03515625,-116.2109375,-33.203125,-1.46484375
11.23046875,59.5703125,-40.52734375,-36.1328125
12.6953125,127.9296875,-51.26953125,-70.80078125
-52.24609375,-96.6796875,-37.109375,-58.59375
-101.07421875,-224.609375,-29.296875,-19.53125
-85.44921875,-86.9140625,-35.64453125,-17.578125
-17.578125,46.875,-39.0625,-56.15234375
20.5078125,22.94921875,-39.0625,-79.58984375
-37.109375,-94.23828125,-41.9921875,-63.4765625
-102.05078125,-180.17578125,-47.36328125,-23.4375
-89.35546875,-133.30078125,-43.9453125,-7.8125
-7.8125,33.203125,-41.50390625,-37.109375
26.85546875,33.69140625,-45.41015625,-72.75390625
-46.38671875,30.2734375,-57.6171875,-79.58984375
-115.72265625,45.8984375,-61.5234375,-49.8046875
-97.16796875,-125.9765625,-38.57421875,-1.953125
-11.71875,-24.4140625,-43.9453125,-17.08984375
35.15625,69.82421875,-53.22265625,-61.5234375
-22.4609375,-60.546875,-42.96875,-67.3828125
-100.5859375,-167.96875,-41.015625,-35.64453125
-111.81640625,-138.18359375,-42.96875,-13.671875
-31.25,2.44140625,-47.8515625,-39.55078125
22.4609375,67.87109375,-59.08203125,-80.078125
-13.671875,-41.9921875,-58.10546875,-81.54296875
-91.30859375,-148.4375,-52.24609375,-45.8984375
-127.44140625,-75.1953125,-57.12890625,-25.87890625
-46.875,13.671875,-53.22265625,-36.62109375
23.92578125,15.13671875,-44.921875,-61.03515625
-5.37109375,9.765625,-52.734375,-80.078125
-83.49609375,-80.078125,-52.24609375,-50.29296875
-116.2109375,-172.8515625,-41.015625,-8.30078125
-55.6640625,-34.1796875,-38.0859375,-14.6484375
11.71875,45.41015625,-41.015625,-51.26953125
2.44140625,-28.3203125,-42.48046875,-67.3828125
-72.265625,-144.53125,-47.36328125,-35.15625
-115.72265625,-201.171875,-45.8984375,3.90625
-70.80078125,25.390625,-45.8984375,-14.6484375
-4.8828125,159.1796875,-53.22265625,-73.2421875
7.8125,4.39453125,-50.29296875,-93.26171875
-53.22265625,-129.39453125,-35.64453125,-56.640625
-102.5390625,-191.40625,-31.25,-17.578125
-69.82421875,-85.44921875,-41.9921875,-21.97265625
-0.48828125,28.3203125,-45.8984375,-61.5234375
4.39453125,19.53125,-55.17578125,-89.84375
-73.73046875,-66.89453125,-53.22265625,-73.2421875
-124.0234375,-160.15625,-45.41015625,-33.69140625
-84.9609375,-118.1640625,-45.8984375,-18.06640625
-5.37109375,58.10546875,-47.36328125,-54.6875
11.23046875,174.31640625,-59.5703125,-100.09765625
-54.19921875,-18.06640625,-57.12890625,-86.42578125
-105.95703125,-192.87109375,-47.36328125,-37.59765625
-92.7734375,-126.46484375,-48.33984375,-14.6484375
-14.6484375,16.6015625,-50.29296875,-44.43359375
23.4375,39.0625,-52.734375,-78.61328125
-36.1328125,-94.23828125,-53.22265625,-65.4296875
-96.19140625,-174.8046875,-51.26953125,-28.3203125
-85.9375,-135.25390625,-44.921875,1.46484375
-4.8828125,-2.9296875,-47.8515625,-22.94921875
31.73828125,52.24609375,-50.78125,-67.87109375
-22.94921875,-22.94921875,-51.26953125,-63.96484375
-89.35546875,-131.8359375,-60.05859375,-23.4375
-102.05078125,-153.80859375,-57.12890625,-0.9765625
-23.4375,-36.62109375,-45.8984375,-28.80859375
11.71875,200.1953125,-59.08203125,-81.0546875
-41.9921875,207.51953125,-69.3359375,-96.19140625
-94.23828125,-132.32421875,-50.29296875,-49.31640625
-107.421875,-201.171875,-36.62109375,-9.27734375
-32.71484375,-19.04296875,-33.69140625,-28.3203125
21.484375,61.03515625,-40.0390625,-76.171875
-20.99609375,-48.33984375,-50.78125,-90.33203125
-93.75,-162.59765625,-45.8984375,-50.78125
-119.62890625,-175.29296875,-42.48046875,-16.6015625
-62.01171875,-35.64453125,-44.921875,-31.25
4.8828125,45.8984375,-41.9921875,-69.82421875
-8.7890625,12.20703125,-46.38671875,-87.890625
-93.26171875,62.98828125,-54.6875,-62.98828125
-125.9765625,-75.68359375,-50.29296875,-24.90234375
-61.03515625,-82.03125,-51.26953125,-30.2734375
4.39453125,69.82421875,-55.6640625,-71.77734375
4.39453125,6.34765625,-47.36328125,-84.47265625
-64.453125,-136.23046875,-43.9453125,-49.31640625
-116.69921875,-204.1015625,-42.96875,-15.625
-69.82421875,-84.9609375,-40.52734375,-21.484375
7.8125,41.9921875,-45.8984375,-62.98828125
8.7890625,2.44140625,-48.828125,-89.84375
-59.08203125,-170.8984375,-43.9453125,-62.5
-113.76953125,-119.140625,-46.38671875,-26.3671875
-92.28515625,74.70703125,-52.24609375,-20.5078125
-6.8359375,53.7109375,-44.43359375,-51.26953125
19.04296875,12.20703125,-41.50390625,-81.0546875
-52.24609375,-106.93359375,-50.78125,-68.84765625
-109.375,-202.1484375,-49.31640625,-27.34375
-82.03125,-131.8359375,-41.50390625,-12.6953125
13.18359375,20.5078125,-39.55078125,-39.55078125
40.0390625,48.828125,-41.9921875,-65.4296875
-44.921875,-84.47265625,-44.921875,-65.4296875
-115.72265625,-200.1953125,-35.15625,-41.015625
-113.28125,-134.27734375,-34.66796875,-27.83203125
-33.203125,118.65234375,-40.0390625,-55.6640625
2.9296875,102.05078125,-36.62109375,-93.75
-51.26953125,-120.60546875,-34.1796875,-83.0078125
-113.76953125,-154.296875,-43.9453125,-45.8984375
-113.76953125,-106.93359375,-43.45703125,-26.85546875
-28.3203125,-22.4609375,-32.2265625,-45.8984375
16.11328125,33.203125,-33.203125,-83.984375
-29.296875,-72.75390625,-40.0390625,-77.63671875
-96.19140625,-171.38671875,-46.38671875,-36.62109375
-107.91015625,-178.7109375,-39.55078125,-0.48828125
-30.2734375,-56.15234375,-35.64453125,-12.20703125
25.87890625,134.765625,-43.9453125,-57.12890625
-11.23046875,81.54296875,-42.96875,-63.96484375
-81.0546875,-168.45703125,-38.57421875,-26.3671875
-106.4453125,-203.61328125,-41.015625,10.25390625
-42.96875,-56.15234375,-40.0390625,-2.44140625
20.5078125,55.6640625,-37.59765625,-41.015625
-1.46484375,-21.484375,-36.1328125,-56.640625
-81.54296875,-154.78515625,-39.55078125,-34.1796875
-113.76953125,-154.296875,-40.52734375,5.859375
-53.7109375,-43.45703125,-39.0625,-2.44140625
3.41796875,25.390625,-35.15625,-47.8515625
-5.859375,19.04296875,-38.57421875,-67.3828125
-78.125,-18.5546875,-46.875,-54.19921875
-119.62890625,-151.85546875,-41.9921875,-22.4609375
-66.89453125,-110.83984375,-38.0859375,-23.4375
7.8125,27.83203125,-40.52734375,-64.453125
12.20703125,8.30078125,-37.59765625,-80.078125
-60.546875,-134.27734375,-40.0390625,-55.6640625
-110.3515625,-208.0078125,-41.9921875,-18.06640625
-68.359375,-83.984375,-37.109375,-10.25390625
9.765625,44.921875,-43.45703125,-43.9453125
26.85546875,34.66796875,-48.828125,-78.61328125
-45.41015625,-123.046875,-45.8984375,-69.82421875
-106.4453125,-68.84765625,-37.59765625,-27.34375
-82.03125,85.44921875,-35.64453125,-15.13671875
-7.32421875,57.12890625,-46.38671875,-53.7109375
16.6015625,34.66796875,-54.19921875,-80.078125
-49.8046875,-96.19140625,-51.7578125,-63.96484375
-112.79296875,-194.3359375,-40.0390625,-30.76171875
-102.5390625,-146.484375,-37.59765625,-12.6953125
-20.5078125,-8.7890625,-41.9921875,-42.96875
14.16015625,36.62109375,-47.36328125,-73.2421875
-43.45703125,-68.84765625,-53.22265625,-61.03515625
-103.515625,-178.7109375,-56.640625,-23.92578125
-109.86328125,-119.140625,-52.24609375,-7.32421875
-37.109375,89.35546875,-47.8515625,-42.96875
11.71875,99.609375,-45.8984375,-75.68359375
-31.73828125,-69.3359375,-42.96875,-65.4296875
-98.6328125,-114.74609375,-49.31640625,-29.78515625
-118.1640625,-29.78515625,-54.19921875,-10.7421875
-33.69140625,10.25390625,-48.828125,-37.59765625
34.66796875,42.48046875,-47.8515625,-80.078125
-5.37109375,-25.390625,-51.26953125,-83.984375
-73.73046875,-149.90234375,-48.828125,-50.78125
-84.47265625,-180.17578125,-49.31640625,-11.71875
-13.671875,-69.82421875,-49.8046875,-22.4609375
35.64453125,177.734375,-46.38671875,-62.98828125
0.48828125,158.203125,-51.26953125,-78.125
-66.89453125,-137.6953125,-47.8515625,-44.921875
-98.6328125,-188.4765625,-47.8515625,-9.27734375
-43.45703125,-37.59765625,-57.6171875,-26.3671875
18.06640625,64.94140625,-55.6640625,-66.89453125
-0.9765625,-6.8359375,-51.7578125,-80.56640625
-74.21875,-144.53125,-45.8984375,-44.43359375
-117.67578125,-148.92578125,-41.015625,-7.8125
-65.4296875,-0.9765625,-42.48046875,-16.11328125
8.30078125,65.4296875,-39.55078125,-52.734375
-0.48828125,7.32421875,-45.8984375,-80.56640625
-72.75390625,-112.79296875,-47.8515625,-54.6875
-113.28125,-187.01171875,-43.9453125,-5.37109375
-69.82421875,-108.3984375,-51.7578125,-5.859375
0.0,63.4765625,-55.17578125,-50.78125
8.7890625,158.69140625,-58.10546875,-86.42578125
-52.24609375,-53.22265625,-53.22265625,-71.2890625
-99.609375,-208.0078125,-43.9453125,-30.2734375
-77.63671875,-101.5625,-44.921875,-19.53125
-5.37109375,39.0625,-45.41015625,-50.78125
24.4140625,46.38671875,-46.38671875,-78.125
-33.69140625,-110.3515625,-50.78125,-59.5703125
-94.23828125,-136.23046875,-48.828125,-16.6015625
-85.9375,-40.0390625,-45.41015625,-1.46484375
0.0,30.2734375,-40.0390625,-39.55078125
31.25,42.48046875,-42.48046875,-77.63671875
-44.43359375,16.6015625,-54.19921875,-70.3125
-104.00390625,-60.546875,-50.78125,-31.25
-100.5859375,-145.01953125,-43.45703125,-9.27734375
-26.3671875,-14.6484375,-45.8984375,-50.78125
15.625,48.828125,-52.734375,-90.33203125
-42.48046875,-80.56640625,-54.6875,-83.0078125
-106.93359375,-194.3359375,-48.33984375,-44.43359375
-114.74609375,-169.43359375,-44.921875,-15.13671875
-33.69140625,-10.7421875,-43.45703125,-48.33984375
22.94921875,73.73046875,-42.48046875,-94.7265625
-19.53125,-29.78515625,-42.96875,-92.7734375
-92.7734375,-135.7421875,-48.33984375,-56.15234375
-116.2109375,10.25390625,-56.640625,-27.34375
-36.62109375,108.88671875,-53.7109375,-37.109375
30.76171875,39.55078125,-50.78125,-66.40625
0.9765625,-25.87890625,-53.22265625,-71.2890625
-77.63671875,-130.37109375,-52.24609375,-47.36328125
-109.86328125,-176.7578125,-45.41015625,-14.6484375
-46.38671875,-62.01171875,-43.45703125,-22.4609375
22.94921875,48.33984375,-40.52734375,-50.78125
3.41796875,-8.7890625,-36.62109375,-60.546875
-81.54296875,-128.90625,-44.921875,-49.31640625
-124.0234375,-226.07421875,-39.55078125,-20.01953125
-73.2421875,49.8046875,-38.0859375,-33.203125
-5.37109375,233.88671875,-46.875,-70.80078125
-8.7890625,-12.20703125,-57.12890625,-88.8671875
-78.125,-171.875,-58.10546875,-62.5
-123.046875,-167.96875,-51.26953125,-20.99609375
-84.47265625,-49.8046875,-53.7109375,-19.53125
-7.8125,23.4375,-48.828125,-50.29296875
5.859375,16.6015625,-50.78125,-70.3125
-68.84765625,-106.93359375,-51.7578125,-41.50390625
-125.9765625,-207.03125,-42.48046875,-10.7421875
-88.37890625,-109.375,-40.0390625,-14.16015625
-11.23046875,50.29296875,-42.96875,-49.8046875
4.8828125,153.80859375,-49.31640625,-85.9375
-56.15234375,-38.0859375,-45.41015625,-63.96484375
-109.86328125,-224.609375,-37.109375,-14.16015625
-88.37890625,-126.46484375,-35.15625,-7.32421875
-11.71875,20.01953125,-42.96875,-43.9453125
17.08984375,21.97265625,-51.26953125,-68.84765625
-40.52734375,-115.72265625,-50.29296875,-56.15234375
-101.5625,-115.234375,-50.78125,-24.90234375
-97.65625,-63.96484375,-56.15234375,-6.8359375
-7.32421875,1.46484375,-52.24609375,-29.78515625
42.48046875,45.41015625,-34.66796875,-65.4296875
-22.94921875,46.38671875,-40.0390625,-66.89453125
-100.5859375,-14.6484375,-45.41015625,-31.73828125
-109.375,-146.97265625,-36.62109375,2.44140625
-33.203125,-4.8828125,-41.50390625,-24.4140625
19.04296875,76.171875,-43.9453125,-68.359375
-27.34375,-37.59765625,-42.96875,-69.3359375
-100.5859375,-185.546875,-51.7578125,-36.62109375
-124.0234375,-186.03515625,-59.5703125,-9.27734375
-54.6875,-0.48828125,-49.31640625,-32.2265625
4.39453125,74.21875,-42.96875,-72.265625
-27.83203125,-46.38671875,-45.8984375,-78.61328125
-103.515625,-140.625,-46.875,-49.31640625
-138.18359375,-28.80859375,-51.7578125,-28.3203125
-64.453125,42.48046875,-52.24609375,-41.015625
2.9296875,20.5078125,-48.33984375,-70.80078125
-17.578125,-26.85546875,-44.43359375,-83.49609375
-91.796875,-148.92578125,-41.50390625,-52.24609375
-128.41796875,-197.75390625,-40.0390625,-13.18359375
-63.4765625,-72.75390625,-39.55078125,-28.80859375
11.23046875,44.921875,-48.33984375,-70.80078125
15.625,12.20703125,-52.24609375,-75.1953125
-67.3828125,-111.328125,-49.8046875,-62.01171875
-125.9765625,-211.9140625,-42.96875,-29.78515625
-79.58984375,14.6484375,-43.9453125,-20.99609375
-11.23046875,188.4765625,-53.22265625,-62.98828125
6.8359375,-5.859375,-55.17578125,-79.58984375
-55.17578125,-158.203125,-52.734375,-56.15234375
-116.2109375,-172.8515625,-44.43359375,-19.53125
-82.51953125,-59.5703125,-45.41015625,-17.578125
-0.48828125,28.3203125,-47.36328125,-45.41015625
23.4375,9.27734375,-44.43359375,-57.6171875
-41.015625,-98.6328125,-46.38671875,-35.64453125
-91.30859375,-178.22265625,-36.62109375,11.71875
-67.3828125,-122.55859375,-32.2265625,21.484375
7.32421875,25.390625,-41.50390625,-25.87890625
36.62109375,62.01171875,-42.48046875,-60.05859375
-25.390625,-88.37890625,-35.64453125,-46.38671875
-82.51953125,-206.54296875,-32.71484375,-12.6953125
-82.51953125,-81.54296875,-40.0390625,-0.48828125
-21.484375,240.72265625,-49.31640625,-40.52734375
14.16015625,192.3828125,-40.52734375,-74.70703125
-39.55078125,-96.6796875,-36.1328125,-65.91796875
-102.05078125,-177.24609375,-44.43359375,-39.55078125
-108.3984375,-155.76171875,-44.43359375,-20.5078125
-33.69140625,-14.16015625,-50.78125,-49.8046875
9.27734375,50.29296875,-53.22265625,-95.703125
-45.41015625,-67.87109375,-53.22265625,-91.796875
-116.2109375,-170.41015625,-50.78125,-49.8046875
-131.34765625,-172.8515625,-43.45703125,-18.06640625
-53.22265625,-67.3828125,-44.921875,-45.41015625
-2.9296875,133.30078125,-52.24609375,-91.30859375
-45.8984375,83.0078125,-50.29296875,-81.0546875
-105.46875,-181.640625,-38.0859375,-30.2734375
-120.1171875,-202.63671875,-31.25,2.44140625
-51.7578125,19.04296875,-32.71484375,-26.85546875
7.8125,97.16796875,-35.15625,-71.2890625
-17.08984375,-50.29296875,-33.69140625,-78.125
-93.26171875,-160.64453125,-39.0625,-51.7578125
-121.09375,-181.640625,-37.59765625,-10.7421875
-51.26953125,-31.25,-29.296875,-19.04296875
16.11328125,37.59765625,-36.62109375,-57.12890625
0.0,16.11328125,-46.38671875,-73.73046875
-78.61328125,12.20703125,-50.78125,-59.5703125
-115.234375,-126.953125,-41.50390625,-16.6015625
-57.6171875,-91.30859375,-27.83203125,-6.8359375
11.71875,33.203125,-34.1796875,-45.8984375
9.27734375,2.44140625,-49.31640625,-68.359375
-66.40625,-126.46484375,-49.31640625,-45.41015625
-114.74609375,-194.82421875,-43.45703125,-14.16015625
-70.3125,-65.4296875,-50.29296875,-20.5078125
0.48828125,66.89453125,-59.08203125,-60.546875
14.16015625,61.5234375,-57.12890625,-82.03125
-45.8984375,-118.1640625,-46.875,-51.7578125
-118.1640625,-103.02734375,-55.6640625,-26.85546875
-104.98046875,66.40625,-62.98828125,-30.76171875
-15.13671875,37.59765625,-45.41015625,-55.6640625
14.16015625,13.671875,-44.43359375,-83.0078125
-47.8515625,-100.09765625,-43.45703125,-65.91796875
-108.3984375,-203.61328125,-36.1328125,-21.484375
-96.19140625,-141.11328125,-37.59765625,-7.32421875
-20.99609375,18.5546875,-44.921875,-51.26953125
13.18359375,46.875,-47.36328125,-91.30859375
-45.8984375,-84.47265625,-36.1328125,-75.68359375
-105.46875,-179.6875,-33.203125,-29.296875
-102.5390625,-139.16015625,-37.109375,-7.32421875
-31.25,166.9921875,-55.17578125,-49.8046875
31.25,189.94140625,-59.08203125,-75.1953125
-13.671875,-68.359375,-49.31640625,-65.4296875
-101.07421875,-149.90234375,-44.43359375,-48.828125
-110.3515625,-169.921875,-42.48046875,-17.08984375
-30.2734375,-43.9453125,-42.96875,-38.57421875
19.04296875,30.76171875,-40.0390625,-75.68359375
-20.01953125,-49.8046875,-43.45703125,-67.87109375
-88.37890625,-152.34375,-36.1328125,-25.87890625
-115.72265625,-176.26953125,-33.69140625,0.9765625
-46.875,-43.45703125,-36.62109375,-20.5078125
9.27734375,157.71484375,-43.9453125,-62.01171875
-26.3671875,94.23828125,-53.7109375,-77.63671875
-97.65625,-159.1796875,-47.36328125,-48.33984375
-120.60546875,-221.19140625,-38.57421875,-14.16015625
-54.19921875,23.4375,-42.96875,-21.484375
14.16015625,133.30078125,-54.6875,-62.98828125
9.27734375,-32.71484375,-44.921875,-70.80078125
-64.453125,-159.66796875,-35.64453125,-34.1796875
-104.4921875,-181.15234375,-33.69140625,-0.9765625
-51.26953125,-50.78125,-37.109375,-15.625
15.13671875,18.5546875,-43.9453125,-56.640625
15.625,30.2734375,-40.52734375,-76.171875
-64.94140625,15.625,-52.24609375,-66.89453125
-110.3515625,-131.34765625,-49.8046875,-30.2734375
-57.12890625,-109.86328125,-45.41015625,-17.08984375
12.20703125,26.85546875,-57.6171875,-53.22265625
20.01953125,22.94921875,-61.5234375,-80.078125
-50.78125,-114.2578125,-57.12890625,-53.7109375
-101.5625,-226.5625,-44.43359375,-10.7421875
-76.66015625,-63.96484375,-39.55078125,-10.7421875
-6.8359375,104.00390625,-45.41015625,-53.7109375
16.11328125,42.96875,-47.36328125,-82.03125
-53.7109375,-106.93359375,-47.8515625,-67.87109375
-120.1171875,-110.3515625,-58.59375,-40.52734375
-104.4921875,-39.55078125,-58.59375,-31.25
-19.04296875,7.8125,-57.12890625,-60.546875
13.18359375,25.390625,-58.10546875,-92.28515625
-53.7109375,-50.29296875,-53.7109375,-77.63671875
-115.72265625,-145.99609375,-53.7109375,-42.96875
-104.00390625,-156.73828125,-46.38671875,-23.92578125
-22.94921875,-0.9765625,-42.48046875,-47.8515625
20.99609375,49.31640625,-46.38671875,-81.0546875
-33.69140625,-63.4765625,-45.8984375,-77.1484375
-98.6328125,-190.4296875,-42.96875,-40.52734375
-104.00390625,-160.15625,-42.48046875,-15.13671875
-35.15625,86.9140625,-47.8515625,-42.48046875
16.11328125,116.69921875,-45.41015625,-72.265625
-27.34375,-82.03125,-41.9921875,-66.40625
-91.796875,-118.65234375,-46.875,-34.66796875
-104.4921875,-47.8515625,-49.8046875,-9.27734375
-31.25,15.13671875,-42.96875,-21.484375
27.83203125,61.03515625,-44.43359375,-57.6171875
-0.48828125,-7.8125,-42.96875,-65.4296875
-70.3125,-125.48828125,-42.48046875,-32.71484375
-105.46875,-198.73046875,-47.36328125,-3.90625
-33.203125,-52.734375,-41.9921875,-16.6015625
37.59765625,83.984375,-38.57421875,-52.734375
10.7421875,13.671875,-43.9453125,-67.3828125
-69.82421875,-135.25390625,-48.33984375,-43.9453125
-105.95703125,-229.4921875,-42.48046875,-8.30078125
-53.22265625,47.36328125,-45.8984375,-22.4609375
-0.48828125,269.53125,-52.24609375,-69.82421875
3.90625,28.3203125,-41.50390625,-76.171875
-50.29296875,-154.78515625,-44.921875,-41.015625
-97.16796875,-191.89453125,-37.109375,-3.41796875
-65.4296875,-85.44921875,-34.1796875,-19.04296875
-0.9765625,25.390625,-37.59765625,-73.73046875
-0.9765625,-2.44140625,-35.64453125,-102.5390625
-70.80078125,-100.09765625,-41.015625,-71.2890625
-113.28125,-164.55078125,-41.015625,-22.94921875
-80.56640625,-116.69921875,-41.50390625,-19.04296875
-8.30078125,49.8046875,-48.33984375,-52.24609375
-0.48828125,252.9296875,-59.08203125,-94.7265625
-65.4296875,62.98828125,-50.78125,-80.078125
-110.83984375,-226.07421875,-44.921875,-27.34375
-88.8671875,-111.328125,-47.36328125,-13.671875
-12.20703125,46.875,-36.62109375,-43.9453125
10.25390625,19.53125,-41.9921875,-79.58984375
-59.08203125,-117.1875,-50.29296875,-60.546875
-119.62890625,-188.96484375,-41.015625,-14.6484375
-107.91015625,-134.765625,-38.57421875,-9.765625
-25.390625,2.44140625,-44.921875,-41.50390625
15.625,6.34765625,-49.8046875,-72.75390625
-50.29296875,27.34375,-52.24609375,-68.84765625
-109.375,-5.859375,-51.7578125,-30.76171875
-97.65625,-155.76171875,-47.8515625,-12.6953125
-19.53125,3.90625,-41.50390625,-44.921875
21.97265625,72.265625,-41.9921875,-82.51953125
-25.87890625,-78.61328125,-49.8046875,-76.171875
-87.890625,-191.40625,-52.24609375,-31.25
-107.91015625,-186.03515625,-51.7578125,-7.32421875
-40.0390625,-12.6953125,-54.19921875,-36.62109375
14.6484375,66.89453125,-51.26953125,-75.1953125
-27.34375,-61.03515625,-44.921875,-78.61328125
-98.14453125,-155.76171875,-44.43359375,-42.96875
-125.9765625,-49.31640625,-56.15234375,-16.11328125
-59.5703125,20.99609375,-53.22265625,-33.203125
8.30078125,21.97265625,-42.48046875,-62.98828125
-15.13671875,-22.94921875,-44.921875,-71.2890625
-82.03125,-160.15625,-46.38671875,-38.0859375
-110.3515625,-200.1953125,-40.52734375,-3.41796875
-52.734375,-76.66015625,-37.109375,-12.20703125
8.30078125,128.41796875,-43.45703125,-42.96875
-7.32421875,90.8203125,-47.8515625,-61.03515625
-77.1484375,-142.08984375,-43.9453125,-36.62109375
-114.2578125,-206.54296875,-36.1328125,-2.9296875
-71.77734375,20.99609375,-43.45703125,-19.04296875
-4.39453125,169.921875,-51.7578125,-62.01171875
8.30078125,-7.32421875,-44.43359375,-77.1484375
-64.453125,-135.7421875,-43.9453125,-57.6171875
-114.74609375,-185.05859375,-41.50390625,-21.484375
-67.87109375,-100.09765625,-40.0390625,-11.71875
7.32421875,10.7421875,-39.55078125,-49.31640625
14.6484375,7.32421875,-39.55078125,-77.63671875
-55.17578125,-103.02734375,-42.48046875,-60.05859375
-108.3984375,-189.94140625,-45.41015625,-23.4375
-80.56640625,-108.88671875,-42.96875,-12.6953125
-7.8125,41.50390625,-45.8984375,-54.19921875
13.18359375,44.921875,-49.8046875,-87.890625
-44.43359375,-74.21875,-49.31640625,-61.03515625
-90.8203125,-195.3125,-48.33984375,-16.11328125
-87.40234375,-115.72265625,-47.36328125,-13.671875
-23.92578125,218.75,-56.640625,-61.03515625
13.671875,177.24609375,-54.6875,-93.26171875
-40.52734375,-103.515625,-48.33984375,-73.2421875
-97.65625,-172.8515625,-40.0390625,-27.34375
-102.05078125,-136.71875,-34.1796875,-3.41796875
-24.4140625,-17.578125,-42.48046875,-40.0390625
23.4375,28.3203125,-41.9921875,-81.0546875
-34.66796875,4.39453125,-42.96875,-74.70703125
-104.4921875,-98.6328125,-49.8046875,-35.15625
-108.88671875,-175.29296875,-45.8984375,-5.37109375
-23.4375,-44.921875,-41.9921875,-31.25
23.4375,157.71484375,-52.734375,-72.75390625
-24.90234375,90.33203125,-58.59375,-80.56640625
-85.44921875,-159.1796875,-52.734375,-40.0390625
-102.5390625,-168.9453125,-45.41015625,-3.90625
-35.64453125,-31.25,-42.96875,-21.484375
22.4609375,51.7578125,-44.43359375,-60.05859375
-6.8359375,-39.55078125,-42.96875,-72.265625
-77.1484375,-136.23046875,-45.41015625,-49.8046875
-107.91015625,-136.23046875,-45.41015625,-24.4140625
-45.8984375,-47.36328125,-48.828125,-37.109375
18.5546875,1.953125,-55.17578125,-69.82421875
-0.9765625,7.8125,-58.59375,-84.47265625
-79.58984375,-22.94921875,-51.7578125,-57.12890625
-124.51171875,-154.78515625,-45.41015625,-15.625
-68.359375,-91.30859375,-51.26953125,-20.01953125
1.46484375,90.33203125,-51.26953125,-58.59375
-6.8359375,78.125,-50.29296875,-81.54296875
-76.171875,-131.34765625,-47.8515625,-57.6171875
-115.234375,-203.61328125,-45.41015625,-24.4140625
-71.2890625,-69.3359375,-52.24609375,-31.73828125
-2.9296875,54.19921875,-55.17578125,-66.89453125
12.20703125,10.7421875,-54.6875,-80.078125
-55.17578125,-138.18359375,-56.15234375,-61.5234375
-121.58203125,-71.2890625,-56.640625,-40.52734375
-89.84375,56.640625,-56.640625,-36.1328125
-6.34765625,14.6484375,-59.08203125,-68.84765625
12.6953125,17.08984375,-59.08203125,-103.515625
-48.828125,-83.0078125,-60.546875,-81.54296875
-102.5390625,-152.83203125,-68.84765625,-35.64453125
-87.890625,-92.28515625,-67.87109375,-27.83203125
-18.5546875,34.1796875,-64.453125,-64.453125
2.9296875,127.44140625,-64.94140625,-101.5625
-46.38671875,21.484375,-63.96484375,-86.9140625
-99.609375,-143.06640625,-62.98828125,-44.43359375
-103.02734375,-110.3515625,-63.96484375,-29.78515625
-20.5078125,144.53125,-65.91796875,-54.6875
28.80859375,134.765625,-62.5,-83.984375
-26.85546875,-59.5703125,-65.4296875,-80.078125
-88.8671875,-141.6015625,-66.40625,-42.96875
-94.7265625,-131.34765625,-66.89453125,-15.13671875
-18.5546875,-9.765625,-67.3828125,-42.48046875
34.1796875,54.6875,-64.453125,-89.84375
-12.6953125,-43.45703125,-65.4296875,-85.9375
-81.0546875,-151.85546875,-64.453125,-43.9453125
-99.12109375,-140.625,-58.59375,-19.53125
-24.4140625,-35.15625,-53.22265625,-43.45703125
26.85546875,199.21875,-59.5703125,-85.9375
-9.27734375,215.33203125,-64.453125,-93.26171875
-71.2890625,-123.53515625,-58.10546875,-55.17578125
-98.14453125,-215.33203125,-54.6875,-20.01953125
-28.80859375,-5.859375,-50.78125,-26.3671875
36.1328125,98.14453125,-48.33984375,-61.5234375
16.6015625,-26.3671875,-54.6875,-77.63671875
-57.6171875,-135.7421875,-56.15234375,-44.43359375
-104.00390625,-151.85546875,-48.828125,-1.46484375
-51.7578125,-49.31640625,-44.43359375,-17.08984375
21.97265625,32.71484375,-41.015625,-59.5703125
9.765625,14.16015625,-47.8515625,-81.54296875
-77.1484375,18.06640625,-50.78125,-62.5
-122.0703125,-97.65625,-46.875,-24.90234375
-65.91796875,-133.30078125,-44.43359375,-23.4375
1.46484375,95.703125,-48.33984375,-67.87109375
-0.9765625,126.46484375,-52.24609375,-94.7265625
-62.5,-123.046875,-44.921875,-62.98828125
-105.46875,-196.2890625,-37.109375,-16.11328125
-77.1484375,-101.5625,-39.55078125,-9.27734375
-6.8359375,6.8359375,-45.8984375,-43.45703125
9.27734375,23.92578125,-46.38671875,-66.89453125
-60.546875,-126.953125,-50.29296875,-57.6171875
-123.046875,-54.19921875,-62.01171875,-31.73828125
-96.6796875,93.75,-59.08203125,-19.53125
-11.23046875,11.71875,-51.26953125,-49.8046875
17.578125,27.83203125,-62.5,-81.54296875
-40.52734375,-72.75390625,-59.5703125,-65.4296875
-94.23828125,-171.875,-43.45703125,-27.83203125
-87.40234375,-148.4375,-42.96875,-8.7890625
-9.765625,-24.4140625,-47.8515625,-41.50390625
27.83203125,88.8671875,-53.22265625,-77.63671875
-31.73828125,-26.3671875,-53.7109375,-69.82421875
-95.703125,-186.5234375,-50.78125,-34.1796875
-87.40234375,-132.32421875,-46.38671875,1.953125
-22.4609375,125.0,-52.24609375,-40.0390625
12.20703125,120.1171875,-58.10546875,-92.7734375
-26.3671875,-81.54296875,-54.6875,-82.51953125
-93.75,-152.34375,-54.6875,-46.38671875
-111.328125,-158.69140625,-49.8046875,-9.27734375
-32.2265625,-52.24609375,-43.9453125,-22.4609375
26.3671875,54.6875,-40.0390625,-63.4765625
-16.11328125,-1.46484375,-40.0390625,-70.80078125
-88.37890625,-122.55859375,-43.45703125,-41.015625
-114.74609375,-147.94921875,-44.921875,-12.20703125
-39.0625,-62.01171875,-42.96875,-28.80859375
19.04296875,168.9453125,-52.734375,-72.265625
-15.625,223.6328125,-64.94140625,-91.796875
-80.078125,-102.05078125,-57.12890625,-52.24609375
-115.234375,-218.26171875,-45.41015625,-8.7890625
-56.15234375,-80.078125,-42.48046875,-21.484375
7.8125,25.87890625,-43.45703125,-62.98828125
1.953125,3.90625,-38.57421875,-72.265625
-69.3359375,-128.41796875,-40.52734375,-45.8984375
-121.58203125,-191.40625,-44.43359375,-20.5078125
-72.75390625,-79.1015625,-44.43359375,-32.71484375
0.9765625,7.32421875,-46.875,-70.3125
3.41796875,32.2265625,-48.828125,-85.44921875
-66.89453125,-31.73828125,-48.33984375,-61.5234375
-116.69921875,-159.1796875,-45.8984375,-21.484375
-70.80078125,-124.51171875,-47.36328125,-12.20703125
2.44140625,31.25,-53.7109375,-46.38671875
8.30078125,200.68359375,-61.03515625,-82.03125
-53.22265625,0.0,-60.546875,-75.1953125
-104.00390625,-210.44921875,-48.828125,-38.0859375
-81.54296875,-112.79296875,-40.0390625,-25.390625
-1.953125,14.6484375,-41.9921875,-57.12890625
22.94921875,26.85546875,-44.921875,-86.9140625
-43.45703125,-101.5625,-50.29296875,-70.3125
-102.05078125,-180.6640625,-51.26953125,-24.4140625
-88.8671875,-107.421875,-46.875,0.0
-0.9765625,18.06640625,-42.96875,-23.92578125
37.59765625,19.04296875,-44.921875,-52.734375
-30.76171875,67.87109375,-52.24609375,-44.921875
-96.6796875,66.89453125,-44.921875,-10.7421875
-89.84375,-76.66015625,-35.15625,13.671875
-9.27734375,13.671875,-36.1328125,-13.671875
41.9921875,60.546875,-36.1328125,-47.8515625
-5.37109375,-60.05859375,-37.59765625,-44.43359375
-75.68359375,-173.33984375,-42.48046875,-19.53125
-92.7734375,-173.33984375,-43.9453125,1.46484375
-17.08984375,-14.6484375,-44.921875,-22.4609375
38.57421875,83.0078125,-44.921875,-64.94140625
-6.34765625,-54.19921875,-43.45703125,-67.3828125
-85.9375,-151.85546875,-43.9453125,-38.57421875
-119.62890625,-32.71484375,-49.31640625,-15.625
-52.734375,43.45703125,-44.921875,-33.203125
10.7421875,42.48046875,-39.55078125,-71.2890625
-13.18359375,31.25,-44.43359375,-79.58984375
-80.078125,-69.82421875,-46.38671875,-43.9453125
-110.83984375,-191.40625,-45.8984375,-9.27734375
-48.828125,-50.29296875,-41.9921875,-20.99609375
15.625,78.61328125,-47.36328125,-66.89453125
4.39453125,3.41796875,-56.15234375,-83.49609375
-68.359375,-122.55859375,-60.546875,-57.12890625
-115.72265625,-215.8203125,-49.31640625,-28.3203125
-67.87109375,2.9296875,-40.52734375,-34.1796875
0.9765625,194.3359375,-44.921875,-66.89453125
-5.859375,24.90234375,-43.9453125,-82.51953125
-74.70703125,-130.37109375,-41.015625,-54.19921875
-115.234375,-210.9375,-38.0859375,-12.20703125
-76.171875,-93.26171875,-40.0390625,-17.08984375
-1.953125,42.48046875,-32.2265625,-57.12890625
7.8125,16.11328125,-29.78515625,-82.51953125
-66.40625,-67.87109375,-44.43359375,-69.82421875
-116.2109375,-160.15625,-44.43359375,-28.80859375
-82.03125,-122.55859375,-34.66796875,-17.578125
-10.25390625,45.41015625,-34.1796875,-53.22265625
7.32421875,154.78515625,-43.45703125,-83.49609375
-54.19921875,-49.8046875,-46.38671875,-62.01171875
-112.3046875,-229.4921875,-44.43359375,-19.53125
-100.5859375,-143.06640625,-40.0390625,-5.859375
-20.5078125,-4.8828125,-37.59765625,-35.15625
11.23046875,20.01953125,-40.0390625,-67.87109375
-48.33984375,-98.14453125,-36.62109375,-59.5703125
-109.375,-183.10546875,-47.8515625,-25.390625
-110.83984375,-149.90234375,-52.734375,-17.08984375
-30.76171875,1.953125,-44.921875,-46.875
12.20703125,45.41015625,-40.52734375,-79.1015625
-47.36328125,33.203125,-47.8515625,-75.1953125
-115.72265625,15.13671875,-51.26953125,-39.0625
-113.28125,-130.37109375,-46.38671875,-8.7890625
-20.5078125,-28.3203125,-44.43359375,-13.18359375
30.76171875,56.15234375,-40.52734375,-52.24609375
-24.4140625,-53.22265625,-47.36328125,-75.68359375
-98.6328125,-164.0625,-49.31640625,-45.8984375
-117.67578125,-195.80078125,-45.41015625,-19.04296875
-40.52734375,-29.78515625,-44.921875,-34.66796875
13.671875,68.84765625,-47.8515625,-74.70703125
-23.4375,-52.734375,-46.875,-93.75
-97.65625,-138.671875,-52.24609375,-68.359375
-129.39453125,-67.3828125,-62.5,-40.52734375
-64.453125,9.765625,-61.5234375,-51.7578125
-1.46484375,18.5546875,-56.15234375,-82.03125
-25.87890625,-3.90625,-54.6875,-93.26171875
-102.05078125,-83.984375,-53.7109375,-65.4296875
-136.71875,-203.125,-47.8515625,-26.85546875
-79.58984375,-90.8203125,-41.9921875,-37.109375
-11.23046875,44.921875,-45.41015625,-80.56640625
-15.13671875,-0.48828125,-52.24609375,-96.6796875
-83.984375,-144.04296875,-46.875,-61.5234375
-120.60546875,-225.09765625,-41.015625,-17.578125
-69.82421875,8.30078125,-47.8515625,-19.04296875
5.37109375,144.53125,-48.33984375,-50.29296875
17.08984375,6.34765625,-48.828125,-70.80078125
-48.828125,-142.578125,-50.29296875,-48.33984375
-95.703125,-177.734375,-53.7109375,-9.27734375
-65.4296875,-51.7578125,-54.6875,-9.765625
9.27734375,29.296875,-47.36328125,-46.875
25.390625,16.6015625,-47.36328125,-72.265625
-54.6875,-53.7109375,-51.26953125,-57.12890625
-111.328125,-147.4609375,-46.875,-11.23046875
-77.63671875,-125.0,-42.96875,2.44140625
-0.48828125,39.0625,-43.9453125,-39.55078125
21.97265625,103.515625,-45.41015625,-70.80078125
-43.45703125,-69.3359375,-47.8515625,-60.05859375
-106.93359375,-211.9140625,-50.78125,-24.4140625
-103.02734375,-105.46875,-53.7109375,-11.71875
-23.4375,153.3203125,-54.6875,-38.57421875
35.64453125,128.90625,-41.50390625,-67.87109375
-10.7421875,-90.33203125,-36.62109375,-61.03515625
-79.58984375,-180.6640625,-41.9921875,-20.5078125
-88.8671875,-141.11328125,-41.9921875,3.41796875
-11.71875,6.8359375,-39.55078125,-25.390625
33.69140625,37.109375,-38.0859375,-67.87109375
-26.3671875,13.18359375,-45.41015625,-65.91796875
-92.7734375,-57.6171875,-43.45703125,-28.80859375
-100.09765625,-160.15625,-37.59765625,-2.44140625
-21.484375,-68.359375,-39.55078125,-20.5078125
28.80859375,170.41015625,-46.875,-67.3828125
-13.18359375,142.08984375,-48.33984375,-80.078125
-80.078125,-170.41015625,-39.0625,-42.96875
-113.28125,-209.9609375,-35.64453125,-10.25390625
-48.33984375,-31.25,-37.109375,-22.94921875
20.01953125,76.66015625,-48.33984375,-62.01171875
-0.9765625,-5.859375,-51.26953125,-75.68359375
-71.77734375,-125.9765625,-46.875,-40.52734375
-110.83984375,-181.15234375,-41.9921875,-2.44140625
-53.7109375,-49.31640625,-35.15625,-16.11328125
18.5546875,36.1328125,-34.66796875,-58.10546875
2.44140625,-23.4375,-39.55078125,-81.54296875
-83.984375,82.51953125,-53.22265625,-62.98828125
-122.0703125,-15.13671875,-53.22265625,-18.5546875
-65.91796875,-98.14453125,-42.96875,-12.6953125
2.44140625,48.33984375,-48.828125,-60.546875
7.32421875,5.859375,-52.734375,-83.984375
-61.5234375,-151.3671875,-54.19921875,-48.828125
-108.3984375,-224.12109375,-54.19921875,-9.27734375
-65.91796875,-86.42578125,-45.8984375,-5.37109375
5.37109375,56.15234375,-45.8984375,-41.50390625
17.578125,44.43359375,-50.29296875,-75.1953125
-49.31640625,-128.90625,-48.33984375,-59.08203125
-110.83984375,-64.453125,-46.38671875,-24.90234375
-88.37890625,131.34765625,-46.875,-17.578125
-6.8359375,49.31640625,-45.41015625,-47.36328125
19.53125,0.48828125,-41.50390625,-74.70703125
-47.8515625,-102.5390625,-47.8515625,-65.91796875
-106.4453125,-207.03125,-49.8046875,-35.15625
-91.30859375,-160.15625,-43.9453125,-19.53125
-15.13671875,-7.32421875,-47.8515625,-53.22265625
14.16015625,40.0390625,-56.640625,-97.65625
-42.48046875,-77.63671875,-55.17578125,-86.9140625
-97.16796875,-174.8046875,-48.33984375,-39.55078125
-95.21484375,-137.20703125,-46.875,-15.625
-20.01953125,119.62890625,-43.45703125,-39.0625
23.92578125,130.37109375,-39.0625,-70.3125
-29.296875,-95.21484375,-41.015625,-64.94140625
-91.30859375,-174.8046875,-41.50390625,-26.85546875
-102.5390625,-135.25390625,-36.62109375,-3.90625
-29.296875,-2.9296875,-41.015625,-27.34375
27.34375,32.2265625,-52.24609375,-64.453125
-14.6484375,15.13671875,-55.17578125,-61.5234375
-83.49609375,-67.87109375,-43.45703125,-22.94921875
-111.81640625,-184.08203125,-37.109375,-0.48828125
-47.36328125,-79.1015625,-47.8515625,-35.15625
17.08984375,143.5546875,-51.7578125,-82.51953125
-9.765625,147.4609375,-48.828125,-92.28515625
-74.70703125,-125.48828125,-50.78125,-62.01171875
-107.91015625,-215.8203125,-51.26953125,-20.5078125
-47.36328125,-83.984375,-50.29296875,-23.4375
28.80859375,34.1796875,-52.24609375,-57.6171875
14.6484375,-24.4140625,-47.8515625,-71.2890625
-80.078125,-146.97265625,-42.96875,-56.640625
-144.04296875,-175.78125,-41.9921875,-34.1796875
-94.7265625,-70.80078125,-40.0390625,-36.62109375
-14.6484375,28.80859375,-35.64453125,-68.359375
-13.18359375,5.859375,-33.203125,-83.984375
-86.9140625,18.06640625,-39.0625,-58.59375
-137.20703125,-93.75,-43.9453125,-24.90234375
-92.28515625,-133.7890625,-41.9921875,-21.97265625
-6.8359375,17.08984375,-38.57421875,-48.33984375
1.953125,14.16015625,-41.50390625,-72.265625
-66.89453125,-133.7890625,-45.41015625,-56.15234375
-116.2109375,-218.75,-38.57421875,-13.671875
-85.44921875,-121.09375,-40.0390625,-0.9765625
-3.41796875,17.578125,-44.43359375,-42.48046875
10.7421875,17.08984375,-44.921875,-82.03125
-56.15234375,-133.7890625,-43.9453125,-61.03515625
-104.98046875,-105.95703125,-43.45703125,-25.87890625
-90.8203125,-9.27734375,-40.0390625,-21.484375
-6.8359375,5.37109375,-31.25,-45.41015625
25.390625,17.08984375,-31.25,-78.61328125
-43.45703125,14.6484375,-41.9921875,-78.125
-105.95703125,-72.265625,-40.0390625,-34.1796875
-98.6328125,-160.64453125,-32.71484375,-11.71875
-18.5546875,-2.9296875,-41.50390625,-40.0390625
25.87890625,60.546875,-49.8046875,-72.75390625
-22.4609375,-69.3359375,-48.828125,-70.3125
-88.37890625,-180.17578125,-46.38671875,-33.203125
-103.02734375,-160.64453125,-43.9453125,-8.7890625
-26.85546875,-3.41796875,-43.45703125,-34.66796875
20.5078125,62.01171875,-45.8984375,-67.3828125
-28.3203125,-81.54296875,-48.33984375,-64.94140625
-101.5625,-171.875,-50.29296875,-38.57421875
-131.34765625,-5.859375,-54.19921875,-22.94921875
-62.98828125,84.47265625,-58.59375,-56.15234375
1.46484375,26.3671875,-56.640625,-91.796875
-25.87890625,-39.0625,-53.22265625,-95.703125
-94.23828125,-145.01953125,-51.7578125,-63.4765625
-127.44140625,-181.640625,-60.05859375,-25.87890625
-62.98828125,-72.265625,-65.91796875,-41.50390625
7.32421875,44.921875,-59.5703125,-75.68359375
-10.7421875,2.9296875,-53.7109375,-83.984375
-83.984375,-146.97265625,-48.33984375,-57.6171875
-119.140625,-252.9296875,-41.015625,-16.6015625
-60.546875,-2.44140625,-47.8515625,-23.4375
5.859375,173.33984375,-52.24609375,-62.01171875
8.30078125,3.90625,-46.38671875,-73.73046875
-62.5,-137.6953125,-48.33984375,-47.8515625
-118.65234375,-148.92578125,-58.10546875,-15.625
-68.359375,-42.48046875,-60.05859375,-14.6484375
19.53125,23.92578125,-51.7578125,-44.921875
19.53125,7.8125,-60.05859375,-80.56640625
-68.84765625,-119.140625,-67.3828125,-75.1953125
-110.3515625,-158.203125,-49.8046875,-27.83203125
-70.3125,-94.7265625,-38.0859375,-20.99609375
-4.8828125,52.734375,-55.17578125,-64.453125
12.6953125,197.265625,-63.4765625,-85.9375
-44.921875,-6.8359375,-54.6875,-67.3828125
-96.19140625,-183.59375,-49.8046875,-23.92578125
-79.1015625,-110.83984375,-47.36328125,-16.6015625
-11.23046875,0.9765625,-54.19921875,-62.01171875
10.7421875,26.85546875,-57.6171875,-89.84375
-42.48046875,-100.09765625,-55.17578125,-69.3359375
-104.4921875,-109.86328125,-60.05859375,-34.66796875
-94.7265625,-40.52734375,-58.10546875,-19.53125
-2.9296875,20.5078125,-44.921875,-38.57421875
37.109375,30.2734375,-41.9921875,-68.84765625
-25.390625,37.59765625,-57.12890625,-67.3828125
-98.6328125,-7.32421875,-64.94140625,-37.59765625
-101.07421875,-155.76171875,-49.31640625,-15.13671875
-20.5078125,-22.4609375,-38.57421875,-38.0859375
31.73828125,82.03125,-42.48046875,-73.2421875
-19.53125,-34.1796875,-45.8984375,-73.2421875
-92.28515625,-165.52734375,-44.43359375,-38.57421875
-109.375,-172.36328125,-44.43359375,-11.23046875
-37.59765625,-32.71484375,-47.36328125,-36.62109375
16.11328125,52.24609375,-53.22265625,-76.171875
-23.92578125,-31.25,-50.78125,-79.1015625
-87.40234375,-141.6015625,-42.96875,-40.52734375
-105.95703125,-178.7109375,-37.59765625,1.953125
-37.109375,-43.9453125,-32.2265625,-11.23046875
18.06640625,57.12890625,-41.50390625,-58.10546875
-12.6953125,-19.53125,-50.78125,-72.75390625
-78.61328125,-137.20703125,-47.8515625,-42.48046875
-111.328125,-162.109375,-38.57421875,-2.44140625
-46.875,-71.2890625,-28.3203125,-8.30078125
18.5546875,110.3515625,-41.9921875,-56.15234375
-0.48828125,234.375,-60.05859375,-75.68359375
-65.91796875,-12.6953125,-54.19921875,-46.38671875
-104.98046875,-189.453125,-50.78125,-14.6484375
-61.03515625,26.3671875,-49.8046875,-18.06640625
0.0,172.8515625,-49.31640625,-54.6875
-0.48828125,15.625,-46.38671875,-79.58984375
-65.91796875,-141.11328125,-41.015625,-60.546875
-109.86328125,-146.484375,-36.1328125,-22.4609375
-70.3125,-53.7109375,-37.109375,-18.06640625
2.44140625,3.41796875,-39.55078125,-50.29296875
14.16015625,1.46484375,-44.921875,-72.265625
-57.12890625,-111.328125,-56.640625,-60.05859375
-109.375,-193.84765625,-61.03515625,-23.4375
-79.58984375,-132.32421875,-50.29296875,-8.30078125
-5.37109375,26.85546875,-44.921875,-42.96875
9.765625,162.59765625,-56.640625,-83.49609375
-53.7109375,-27.83203125,-55.17578125,-69.82421875
-109.375,-208.984375,-45.41015625,-30.2734375
-98.6328125,-102.5390625,-43.9453125,-15.13671875
-20.99609375,27.34375,-41.9921875,-46.875
10.25390625,40.0390625,-49.8046875,-92.7734375
-50.78125,-107.421875,-52.734375,-86.42578125
-108.88671875,-135.7421875,-49.31640625,-43.9453125
-108.88671875,-54.6875,-59.5703125,-23.4375
-33.203125,13.18359375,-57.6171875,-49.31640625
12.20703125,23.92578125,-48.33984375,-88.37890625
-38.0859375,0.48828125,-45.41015625,-83.49609375
-99.609375,-87.40234375,-42.96875,-38.57421875
-104.4921875,-178.22265625,-41.50390625,-10.25390625
-31.73828125,-34.66796875,-45.8984375,-32.2265625
15.13671875,107.91015625,-52.734375,-83.0078125
-27.83203125,-0.48828125,-51.7578125,-93.75
-91.30859375,-190.91796875,-50.78125,-57.12890625
-111.328125,-193.84765625,-51.26953125,-23.92578125
-41.015625,-10.25390625,-47.8515625,-32.2265625
20.5078125,98.6328125,-40.52734375,-65.4296875
-10.7421875,-35.15625,-41.50390625,-79.58984375
-82.51953125,-166.015625,-45.8984375,-48.828125
-120.1171875,-12.20703125,-59.08203125,-15.13671875
-58.59375,99.12109375,-57.6171875,-22.94921875
9.765625,12.6953125,-38.0859375,-61.03515625
-4.39453125,2.44140625,-36.62109375,-84.9609375
-80.078125,-96.19140625,-44.43359375,-63.96484375
-120.1171875,-199.70703125,-45.8984375,-24.90234375
-62.5,-88.8671875,-40.0390625,-15.13671875
4.8828125,36.62109375,-40.0390625,-54.19921875
0.9765625,-7.8125,-49.8046875,-83.0078125
-72.265625,-146.484375,-57.12890625,-60.546875
-117.67578125,-205.078125,-50.29296875,-34.1796875
-70.80078125,-78.125,-41.50390625,-34.1796875
0.0,54.6875,-41.50390625,-62.5
10.25390625,53.22265625,-50.29296875,-89.35546875
-47.36328125,-107.421875,-49.8046875,-62.98828125
-104.98046875,-84.47265625,-45.8984375,-22.4609375
-81.0546875,97.65625,-52.734375,-16.6015625
0.48828125,55.6640625,-48.33984375,-48.828125
13.18359375,13.18359375,-48.33984375,-89.84375
-56.15234375,-104.00390625,-55.17578125,-75.1953125
-105.95703125,-195.3125,-48.33984375,-25.87890625
-91.796875,-122.55859375,-44.921875,-14.16015625
-14.6484375,14.6484375,-48.828125,-53.7109375
16.6015625,48.33984375,-49.8046875,-91.30859375
-52.734375,-87.40234375,-51.7578125,-84.47265625
-106.93359375,-208.0078125,-50.29296875,-38.0859375
-96.6796875,-157.71484375,-48.33984375,-14.6484375
-19.04296875,9.27734375,-43.45703125,-39.0625
21.97265625,65.91796875,-47.36328125,-78.61328125
-36.1328125,-85.9375,-48.33984375,-77.63671875
-102.05078125,-121.09375,-47.8515625,-36.62109375
-114.74609375,70.3125,-51.26953125,-17.578125
-29.78515625,97.16796875,-40.0390625,-37.59765625
31.73828125,27.34375,-37.109375,-67.3828125
-16.6015625,-59.5703125,-44.43359375,-73.2421875
-86.9140625,-161.1328125,-44.43359375,-40.0390625
-97.65625,-163.0859375,-41.50390625,-1.953125
-27.83203125,-62.98828125,-41.50390625,-21.97265625
17.08984375,128.41796875,-49.31640625,-73.73046875
-19.53125,102.5390625,-58.10546875,-90.33203125
-86.9140625,-166.50390625,-48.828125,-52.734375
-106.93359375,-201.66015625,-39.0625,-7.32421875
-43.45703125,4.8828125,-46.38671875,-14.16015625
14.6484375,103.02734375,-54.6875,-57.12890625
0.0,-26.85546875,-52.734375,-74.70703125
-75.1953125,-165.0390625,-47.8515625,-47.36328125
-112.79296875,-164.55078125,-37.59765625,-14.16015625
-54.6875,-22.94921875,-34.1796875,-20.99609375
8.7890625,35.15625,-39.55078125,-61.5234375
-8.7890625,-20.01953125,-50.29296875,-90.8203125
-91.796875,-50.78125,-58.10546875,-76.66015625
-128.90625,-140.625,-48.828125,-32.2265625
-78.61328125,-116.69921875,-42.96875,-28.3203125
-8.7890625,15.625,-44.43359375,-68.359375
-5.37109375,0.9765625,-51.7578125,-91.796875
-70.3125,-130.859375,-58.10546875,-67.3828125
-112.3046875,-210.9375,-49.8046875,-23.4375
-78.61328125,-49.31640625,-49.8046875,-9.765625
-0.9765625,97.65625,-55.17578125,-42.96875
14.16015625,20.5078125,-46.875,-70.80078125
-48.33984375,-131.8359375,-42.96875,-45.41015625
-104.4921875,-100.5859375,-51.7578125,-11.71875
-80.56640625,28.3203125,-46.38671875,7.8125
-2.9296875,24.4140625,-38.0859375,-26.3671875
13.671875,38.0859375,-48.828125,-79.58984375
-50.29296875,-91.30859375,-48.33984375,-66.89453125
-110.3515625,-197.265625,-41.50390625,-28.3203125
-97.65625,-152.83203125,-38.0859375,-2.44140625
-16.6015625,-6.8359375,-43.9453125,-26.3671875
22.4609375,51.26953125,-46.875,-68.359375
-32.2265625,-73.73046875,-41.9921875,-73.73046875
-96.19140625,-171.38671875,-43.45703125,-34.1796875
-98.6328125,-112.3046875,-44.921875,-2.44140625
-13.671875,23.4375,-40.0390625,-32.71484375
34.1796875,61.03515625,-40.0390625,-74.21875
-14.6484375,-78.125,-42.48046875,-74.70703125
-87.890625,-133.7890625,-47.8515625,-48.828125
-109.375,-28.80859375,-49.31640625,-21.484375
-36.62109375,20.5078125,-47.36328125,-32.2265625
21.484375,31.25,-50.29296875,-67.87109375
-19.53125,81.0546875,-56.15234375,-74.70703125
-94.7265625,64.94140625,-48.828125,-38.0859375
-109.375,-128.41796875,-30.2734375,0.48828125
-40.52734375,-98.6328125,-30.2734375,-15.13671875
8.7890625,125.0,-43.9453125,-61.5234375
-20.99609375,97.16796875,-54.19921875,-74.70703125
-78.125,-159.66796875,-45.41015625,-31.73828125
-105.95703125,-215.8203125,-34.66796875,7.8125
-57.6171875,24.90234375,-43.45703125,-18.06640625
9.27734375,141.6015625,-55.17578125,-75.68359375
8.7890625,-21.484375,-50.29296875,-93.26171875
-60.546875,-143.5546875,-49.31640625,-61.5234375
-103.02734375,-197.75390625,-54.6875,-19.53125
-60.546875,-82.03125,-49.31640625,-15.13671875
9.27734375,18.06640625,-45.41015625,-57.6171875
1.953125,-3.41796875,-52.734375,-93.75
-77.1484375,-82.03125,-56.640625,-74.21875
-111.328125,-149.4140625,-49.8046875,-31.25
-69.82421875,-103.515625,-39.0625,-19.04296875
-1.953125,46.875,-42.48046875,-56.15234375
3.41796875,161.1328125,-52.734375,-92.7734375
-60.05859375,-20.5078125,-53.22265625,-68.359375
-108.88671875,-215.8203125,-46.875,-18.06640625
-87.890625,-72.265625,-38.0859375,-4.8828125
-18.06640625,105.46875,-41.50390625,-42.96875
5.859375,21.484375,-47.8515625,-75.1953125
-54.19921875,-108.3984375,-51.7578125,-60.05859375
-115.234375,-175.29296875,-46.875,-19.53125
-106.93359375,-96.19140625,-41.9921875,-0.9765625
-20.5078125,31.25,-45.41015625,-25.87890625
21.97265625,-4.39453125,-44.43359375,-57.6171875
-47.36328125,31.73828125,-56.15234375,-71.77734375
-109.86328125,4.39453125,-62.98828125,-45.41015625
-89.35546875,-139.16015625,-50.29296875,-11.23046875
-9.765625,-18.06640625,-47.8515625,-45.41015625
29.296875,37.59765625,-58.10546875,-91.30859375
-25.87890625,-62.98828125,-65.91796875,-85.9375
-93.75,-160.15625,-56.640625,-47.8515625
-95.703125,-153.80859375,-50.29296875,-11.23046875
-13.18359375,41.50390625,-47.36328125,-28.80859375
30.76171875,102.05078125,-44.921875,-78.125
-22.94921875,-79.58984375,-43.9453125,-86.42578125
-106.4453125,-176.26953125,-41.015625,-62.98828125
-127.9296875,-55.17578125,-48.33984375,-33.69140625
-42.96875,22.94921875,-41.9921875,-31.25
0.0,3.41796875,-36.1328125,-72.75390625
-37.109375,-53.7109375,-45.41015625,-86.42578125
-94.23828125,-169.43359375,-40.0390625,-48.33984375
-114.2578125,-224.12109375,-27.83203125,-8.7890625
-56.640625,-96.6796875,-33.203125,-20.01953125
-0.48828125,53.22265625,-41.9921875,-66.89453125
-13.18359375,3.41796875,-34.66796875,-82.03125
-88.37890625,-140.13671875,-34.1796875,-45.41015625
-134.27734375,-234.86328125,-39.0625,-5.37109375
-79.1015625,8.7890625,-42.96875,-24.4140625
-9.765625,245.60546875,-50.29296875,-77.1484375
-7.8125,34.1796875,-45.8984375,-90.33203125
-71.77734375,-166.015625,-41.50390625,-62.01171875
-113.28125,-221.19140625,-46.875,-24.4140625
-74.21875,-120.60546875,-47.8515625,-13.671875
-1.953125,-2.9296875,-43.45703125,-58.10546875
11.71875,-16.11328125,-42.96875,-90.33203125
-59.5703125,-132.32421875,-41.015625,-62.98828125
-112.3046875,-203.61328125,-36.62109375,-18.5546875
-83.0078125,-124.0234375,-33.203125,-10.25390625
-16.6015625,11.23046875,-40.0390625,-52.24609375
-2.44140625,114.2578125,-48.828125,-84.9609375
-62.5,-22.94921875,-42.96875,-64.453125
-111.81640625,-215.8203125,-40.0390625,-18.5546875
-96.19140625,-91.30859375,-48.33984375,-4.39453125
-17.08984375,128.41796875,-47.36328125,-39.0625
20.5078125,61.03515625,-38.0859375,-71.2890625
-39.55078125,-94.23828125,-37.59765625,-62.98828125
-99.609375,-177.24609375,-41.015625,-35.64453125
-97.65625,-155.76171875,-35.64453125,-13.18359375
-23.92578125,-1.46484375,-34.66796875,-43.9453125
11.23046875,23.92578125,-41.9921875,-92.7734375
-45.41015625,15.13671875,-46.38671875,-85.44921875
-103.02734375,19.53125,-49.31640625,-39.0625
-108.3984375,-129.8828125,-48.828125,-6.34765625
-34.1796875,-47.36328125,-52.24609375,-34.1796875
20.99609375,50.29296875,-63.96484375,-77.63671875
-20.01953125,-55.6640625,-62.5,-76.171875
-91.30859375,-166.9921875,-52.734375,-40.52734375
-117.67578125,-172.8515625,-46.875,-14.16015625
-46.875,6.34765625,-45.41015625,-27.34375
15.625,89.84375,-50.29296875,-65.4296875
-18.06640625,-56.15234375,-52.24609375,-76.171875
-87.40234375,-158.69140625,-41.50390625,-39.0625
-123.53515625,-64.94140625,-46.38671875,0.48828125
-69.82421875,20.5078125,-61.5234375,-22.4609375
-1.953125,9.765625,-51.26953125,-65.91796875
-8.7890625,-20.5078125,-45.8984375,-67.3828125
-75.68359375,-145.01953125,-50.78125,-44.43359375
-112.3046875,-215.33203125,-53.22265625,-19.04296875
-55.17578125,-90.33203125,-52.734375,-25.87890625
14.16015625,38.0859375,-44.921875,-63.96484375
2.44140625,-3.41796875,-49.31640625,-89.84375
-74.21875,-135.7421875,-51.26953125,-66.40625
-111.81640625,-217.28515625,-38.57421875,-14.6484375
-72.265625,19.53125,-43.9453125,-14.16015625
-11.23046875,259.27734375,-61.5234375,-60.546875
2.44140625,68.84765625,-57.6171875,-83.49609375
-53.7109375,-141.6015625,-48.33984375,-61.5234375
-96.6796875,-203.61328125,-47.36328125,-17.578125
-63.4765625,-113.28125,-46.875,-3.90625
13.18359375,6.8359375,-50.29296875,-44.43359375
30.76171875,30.2734375,-50.29296875,-75.1953125
-41.50390625,-89.35546875,-49.8046875,-56.15234375
-98.14453125,-188.4765625,-44.921875,-16.11328125
-81.54296875,-140.13671875,-43.45703125,-4.39453125
-2.44140625,13.671875,-45.41015625,-33.69140625
23.92578125,115.234375,-45.8984375,-75.1953125
-44.921875,-43.45703125,-46.875,-76.66015625
-104.00390625,-214.84375,-46.875,-35.15625
-102.5390625,-141.6015625,-46.875,-16.11328125
-25.390625,143.06640625,-51.26953125,-47.36328125
14.16015625,116.69921875,-55.6640625,-91.796875
-47.8515625,-96.6796875,-56.15234375,-95.21484375
-106.93359375,-165.52734375,-46.875,-52.24609375
-105.46875,-162.109375,-39.55078125,-19.53125
-32.2265625,-25.87890625,-42.96875,-38.0859375
13.671875,36.62109375,-47.8515625,-75.1953125
-29.296875,-60.546875,-42.96875,-76.171875
-96.19140625,-150.390625,-37.59765625,-33.69140625
-118.65234375,-172.8515625,-39.55078125,-12.20703125
-42.96875,-67.87109375,-42.96875,-41.015625
14.6484375,191.40625,-52.734375,-79.58984375
-14.16015625,220.703125,-50.78125,-78.61328125
-72.75390625,-111.81640625,-31.25,-28.3203125
-101.5625,-209.47265625,-30.2734375,19.04296875
-32.2265625,-44.921875,-35.15625,2.9296875
28.3203125,36.62109375,-31.73828125,-51.26953125
0.0,-40.0390625,-33.203125,-75.1953125
-73.73046875,-150.390625,-35.15625,-44.43359375
-110.3515625,-169.43359375,-37.59765625,-9.765625
-51.7578125,-33.203125,-43.9453125,-17.08984375
10.25390625,23.4375,-46.875,-57.12890625
-1.46484375,-10.7421875,-51.26953125,-85.9375
-75.68359375,-12.20703125,-57.12890625,-70.80078125
-114.74609375,-113.76953125,-48.828125,-31.25
-58.10546875,-108.88671875,-40.0390625,-23.4375
4.8828125,72.265625,-44.43359375,-62.01171875
1.953125,93.26171875,-51.26953125,-87.40234375
-62.01171875,-131.8359375,-45.8984375,-59.5703125
-114.2578125,-225.09765625,-42.96875,-19.53125
-82.51953125,-101.5625,-48.33984375,-16.6015625
-3.90625,22.94921875,-50.29296875,-48.828125
15.625,36.1328125,-45.41015625,-78.61328125
-46.875,-131.34765625,-47.36328125,-60.05859375
-111.81640625,-91.30859375,-63.4765625,-24.4140625
-94.23828125,94.23828125,-61.03515625,-21.484375
-2.9296875,55.6640625,-42.96875,-43.9453125
23.92578125,14.6484375,-40.0390625,-71.77734375
-44.921875,-104.00390625,-39.0625,-66.89453125
-95.703125,-192.3828125,-38.57421875,-24.4140625
-81.0546875,-147.94921875,-40.0390625,-1.46484375
-6.34765625,-0.48828125,-39.0625,-38.57421875
21.484375,97.65625,-44.921875,-81.0546875
-39.55078125,-34.1796875,-53.22265625,-70.80078125
-95.21484375,-181.15234375,-56.15234375,-26.85546875
-92.7734375,-142.08984375,-50.29296875,0.48828125
-19.04296875,119.62890625,-54.19921875,-39.55078125
25.87890625,132.32421875,-57.6171875,-91.30859375
-20.5078125,-74.21875,-47.36328125,-85.9375
-89.35546875,-139.16015625,-44.43359375,-41.50390625
-102.05078125,-168.45703125,-42.96875,-14.6484375
-26.85546875,-22.94921875,-43.45703125,-37.59765625
23.4375,79.1015625,-47.36328125,-73.73046875
-19.04296875,-39.55078125,-51.26953125,-74.70703125
-88.37890625,-169.43359375,-54.6875,-42.48046875
-112.79296875,-187.01171875,-48.828125,-13.18359375
-41.50390625,-49.31640625,-41.50390625,-30.76171875
18.5546875,149.4140625,-48.33984375,-73.73046875
-19.53125,149.90234375,-64.453125,-89.84375
-89.84375,-137.6953125,-55.6640625,-50.29296875
-121.09375,-223.14453125,-44.921875,-7.8125
-64.453125,-52.24609375,-48.828125,-20.5078125
1.953125,42.48046875,-48.828125,-62.98828125
-6.8359375,-25.390625,-44.921875,-77.1484375
-75.68359375,-161.1328125,-44.921875,-53.22265625
-116.69921875,-208.984375,-39.0625,-14.6484375
-62.5,-63.96484375,-34.66796875,-13.18359375
13.18359375,45.8984375,-41.9921875,-56.640625
16.11328125,33.203125,-43.45703125,-80.078125
-62.5,6.34765625,-48.828125,-59.08203125
-110.3515625,-105.95703125,-47.8515625,-18.5546875
-60.546875,-99.12109375,-39.0625,-9.765625
12.20703125,73.73046875,-41.50390625,-55.6640625
12.6953125,114.74609375,-50.29296875,-102.5390625
-53.22265625,-103.02734375,-47.8515625,-75.68359375
-101.07421875,-227.5390625,-41.50390625,-24.4140625
-83.984375,-90.33203125,-52.24609375,-23.92578125
-15.13671875,66.89453125,-56.15234375,-60.546875
8.30078125,32.2265625,-49.8046875,-85.9375
-52.24609375,-102.5390625,-43.9453125,-71.77734375
-111.328125,-177.24609375,-40.0390625,-35.15625
-97.16796875,-126.46484375,-38.57421875,-15.13671875
-14.16015625,15.625,-35.64453125,-41.50390625
33.203125,28.3203125,-31.25,-66.89453125
-32.71484375,-1.46484375,-46.875,-67.3828125
-110.83984375,-41.015625,-54.19921875,-50.29296875
-93.75,-122.0703125,-33.69140625,-21.484375
-8.7890625,13.671875,-38.0859375,-39.55078125
28.80859375,65.4296875,-46.38671875,-74.70703125
-23.92578125,-80.078125,-48.33984375,-71.77734375
-85.44921875,-185.546875,-52.734375,-36.1328125
-92.7734375,-156.25,-49.31640625,-8.7890625
-22.94921875,133.30078125,-55.17578125,-38.0859375
33.203125,181.15234375,-57.6171875,-79.58984375
-0.9765625,-71.2890625,-47.8515625,-78.61328125
-75.1953125,-130.859375,-41.9921875,-45.8984375
-102.05078125,-64.94140625,-40.52734375,-6.8359375
-35.64453125,3.41796875,-46.38671875,-21.484375
24.4140625,48.33984375,-52.24609375,-65.4296875
-7.8125,-19.53125,-54.6875,-72.75390625
-88.8671875,-154.296875,-50.78125,-40.0390625
-119.140625,-192.3828125,-44.921875,-12.6953125
-54.19921875,-57.12890625,-44.921875,-22.94921875
0.48828125,123.53515625,-57.12890625,-62.98828125
-16.6015625,84.47265625,-58.10546875,-78.125
-82.03125,-146.484375,-47.8515625,-41.015625
-118.1640625,-234.375,-41.9921875,-0.9765625
-66.89453125,26.85546875,-43.45703125,-13.18359375
-0.9765625,201.66015625,-48.33984375,-58.10546875
2.9296875,13.671875,-45.41015625,-77.63671875
-66.89453125,-150.390625,-46.875,-56.640625
-106.4453125,-200.68359375,-42.96875,-12.20703125
-63.4765625,-83.0078125,-42.96875,-11.71875
5.37109375,26.85546875,-51.26953125,-53.7109375
16.11328125,9.27734375,-55.6640625,-79.1015625
-50.29296875,-107.421875,-47.36328125,-67.3828125
-104.4921875,-171.38671875,-49.31640625,-34.66796875
-75.68359375,-102.05078125,-59.08203125,-18.5546875
-0.48828125,27.83203125,-58.10546875,-52.734375
2.9296875,226.5625,-70.80078125,-103.02734375
-65.4296875,67.3828125,-66.40625,-85.9375
-111.328125,-198.2421875,-44.921875,-26.3671875
-95.703125,-123.53515625,-40.52734375,-11.23046875
-20.99609375,25.87890625,-45.41015625,-41.50390625
12.6953125,35.15625,-47.36328125,-71.2890625
-46.875,-106.4453125,-45.41015625,-64.453125
-108.3984375,-187.98828125,-42.48046875,-22.94921875
-97.65625,-129.8828125,-35.15625,2.9296875
-18.06640625,31.25,-37.109375,-37.109375
20.99609375,24.90234375,-41.015625,-72.75390625
-37.109375,7.32421875,-49.8046875,-69.82421875
-105.95703125,43.9453125,-53.7109375,-35.15625
-102.05078125,-102.5390625,-47.8515625,0.48828125
-22.4609375,-31.25,-50.29296875,-28.80859375
20.99609375,51.7578125,-50.78125,-77.63671875
-22.94921875,-58.59375,-55.17578125,-83.49609375
-92.28515625,-158.69140625,-59.5703125,-42.96875
-115.72265625,-170.41015625,-52.734375,-8.7890625
-43.45703125,-34.66796875,-41.015625,-24.90234375
13.671875,68.359375,-41.015625,-60.546875
-17.08984375,-37.109375,-43.9453125,-68.84765625
-82.51953125,-164.55078125,-42.48046875,-40.0390625
-114.74609375,-78.125,-46.38671875,-13.671875
-41.50390625,33.69140625,-40.52734375,-17.08984375
27.34375,25.87890625,-36.1328125,-48.828125
-4.39453125,8.30078125,-43.9453125,-81.54296875
-78.61328125,-100.09765625,-46.875,-60.546875
-103.515625,-205.078125,-37.109375,-10.25390625
-43.9453125,-89.35546875,-37.109375,-19.53125
15.13671875,66.40625,-50.29296875,-67.3828125
4.39453125,29.78515625,-57.12890625,-80.078125
-71.77734375,-137.20703125,-52.734375,-50.29296875
-114.74609375,-204.58984375,-43.45703125,-16.11328125
-67.87109375,47.8515625,-45.41015625,-22.94921875
0.0,226.07421875,-47.8515625,-62.5
3.41796875,17.08984375,-43.45703125,-84.9609375
-61.03515625,-152.83203125,-44.43359375,-59.08203125
-106.93359375,-214.84375,-47.36328125,-16.11328125
-72.75390625,-99.12109375,-45.41015625,-19.53125
0.9765625,20.99609375,-45.8984375,-57.12890625
16.6015625,19.04296875,-54.6875,-74.21875
-54.19921875,-66.89453125,-56.15234375,-56.15234375
-108.88671875,-180.6640625,-51.7578125,-15.625
-82.51953125,-130.859375,-45.41015625,-1.953125
-0.48828125,60.05859375,-42.48046875,-42.48046875
19.04296875,214.84375,-48.828125,-75.68359375
-45.41015625,24.4140625,-45.41015625,-57.12890625
-88.37890625,-218.26171875,-37.59765625,-20.99609375
-78.61328125,-129.39453125,-39.0625,-5.37109375
-1.46484375,63.4765625,-40.52734375,-37.109375
36.1328125,80.078125,-43.9453125,-76.171875
-26.85546875,-99.609375,-44.43359375,-72.265625
-93.75,-192.3828125,-38.57421875,-35.64453125
-107.91015625,-148.92578125,-37.109375,-8.30078125
-40.52734375,0.48828125,-39.0625,-36.1328125
8.30078125,38.0859375,-41.50390625,-77.63671875
-47.36328125,40.0390625,-56.15234375,-85.44921875
-122.0703125,15.625,-63.96484375,-60.546875
-129.39453125,-164.55078125,-55.6640625,-28.80859375
-55.17578125,-62.5,-54.19921875,-43.9453125
-1.953125,113.76953125,-56.15234375,-85.44921875
-36.62109375,4.8828125,-57.12890625,-102.05078125
-99.12109375,-186.5234375,-56.15234375,-63.4765625
-117.67578125,-193.84765625,-56.15234375,-26.3671875
-55.6640625,-48.33984375,-58.59375,-49.31640625
3.41796875,59.5703125,-61.03515625,-89.84375
-9.765625,-4.8828125,-56.15234375,-88.8671875
-79.1015625,-152.83203125,-54.6875,-57.12890625
-122.0703125,-166.50390625,-58.10546875,-24.4140625
-59.08203125,-40.0390625,-49.8046875,-20.01953125
16.6015625,38.57421875,-46.875,-47.8515625
3.41796875,16.6015625,-50.29296875,-70.3125
-74.70703125,88.8671875,-56.640625,-46.38671875
-113.76953125,-31.25,-51.7578125,-9.27734375
-56.15234375,-108.88671875,-45.41015625,-9.765625
16.6015625,33.69140625,-49.8046875,-44.921875
17.08984375,12.20703125,-49.8046875,-74.21875
-55.17578125,-130.859375,-44.921875,-47.36328125
-104.98046875,-201.66015625,-38.0859375,-0.9765625
-70.80078125,-86.42578125,-38.0859375,3.90625
0.48828125,51.26953125,-42.96875,-38.57421875
17.08984375,27.83203125,-49.31640625,-74.70703125
-45.8984375,-120.60546875,-46.875,-51.26953125
-109.375,-32.2265625,-49.31640625,-20.99609375
-93.75,84.9609375,-60.546875,-28.80859375
-3.90625,22.94921875,-54.6875,-53.22265625
21.97265625,18.5546875,-49.8046875,-83.984375
-47.8515625,-36.62109375,-56.640625,-80.56640625
-112.79296875,-130.859375,-58.10546875,-45.41015625
-101.5625,-150.390625,-56.640625,-27.83203125
-16.11328125,1.953125,-53.7109375,-55.17578125
11.23046875,58.59375,-49.8046875,-96.6796875
-56.15234375,-66.89453125,-51.26953125,-90.33203125
-118.65234375,-192.3828125,-47.36328125,-49.31640625
-124.51171875,-159.66796875,-47.8515625,-27.83203125
-47.36328125,116.69921875,-53.7109375,-50.78125
6.34765625,134.765625,-50.78125,-79.58984375
-39.0625,-88.8671875,-49.8046875,-74.21875
-97.16796875,-163.57421875,-48.33984375,-40.52734375
-104.98046875,-146.97265625,-43.9453125,-19.04296875
-25.390625,-14.6484375,-39.0625,-31.25
32.71484375,51.26953125,-41.9921875,-61.5234375
-14.6484375,-40.0390625,-48.33984375,-69.3359375
-85.44921875,-134.765625,-48.33984375,-35.64453125
-104.98046875,-151.3671875,-43.45703125,0.0
-33.203125,-69.82421875,-34.66796875,-15.13671875
18.06640625,151.3671875,-41.9921875,-68.359375
-16.11328125,212.890625,-53.22265625,-85.44921875
-88.37890625,-107.91015625,-50.78125,-53.7109375
-121.58203125,-216.30859375,-50.29296875,-28.80859375
-60.05859375,-67.87109375,-48.33984375,-43.45703125
3.90625,28.80859375,-51.26953125,-81.0546875
-3.41796875,-23.4375,-51.7578125,-90.8203125
-73.2421875,-150.87890625,-53.22265625,-64.94140625
-101.5625,-194.82421875,-51.26953125,-19.53125
-43.9453125,-67.3828125,-39.55078125,-12.20703125
7.8125,50.29296875,-35.64453125,-61.03515625
1.46484375,-11.71875,-41.015625,-79.1015625
-80.56640625,33.203125,-48.33984375,-57.12890625
-134.27734375,-30.2734375,-41.50390625,-26.3671875
-81.54296875,-137.6953125,-32.71484375,-20.5078125
-4.8828125,-2.9296875,-29.296875,-50.78125
5.859375,-1.953125,-24.90234375,-73.2421875
-64.94140625,-152.83203125,-24.90234375,-61.5234375
-123.53515625,-239.74609375,-27.83203125,-29.78515625
-101.07421875,-137.20703125,-35.15625,-22.4609375
-26.85546875,1.46484375,-41.50390625,-49.8046875
-1.46484375,7.8125,-41.50390625,-77.1484375
-61.5234375,-96.19140625,-41.50390625,-71.77734375
-114.2578125,-190.91796875,-39.0625,-42.48046875
-101.07421875,-140.13671875,-40.0390625,-27.83203125
-21.97265625,9.765625,-44.921875,-62.98828125
20.99609375,-6.34765625,-45.8984375,-95.703125
-39.55078125,36.62109375,-46.875,-82.03125
-105.95703125,53.7109375,-49.31640625,-51.26953125
-102.05078125,-120.60546875,-42.96875,-22.4609375
-20.01953125,-29.78515625,-43.9453125,-39.55078125
29.78515625,39.0625,-46.38671875,-71.77734375
-20.5078125,-88.37890625,-44.921875,-63.4765625
-86.9140625,-189.453125,-43.45703125,-30.2734375
-97.65625,-167.96875,-39.0625,0.9765625
-24.90234375,100.09765625,-43.9453125,-14.16015625
27.83203125,139.16015625,-51.26953125,-55.17578125
-7.8125,-89.35546875,-46.38671875,-53.7109375
-78.61328125,-185.546875,-43.9453125,-22.4609375
-104.4921875,-182.6171875,-40.0390625,-5.37109375
-39.55078125,-42.48046875,-35.15625,-30.2734375
20.5078125,14.6484375,-35.15625,-69.3359375
-9.765625,14.16015625,-33.69140625,-65.91796875
-85.9375,-54.6875,-41.015625,-35.15625
-116.69921875,-159.1796875,-37.59765625,-9.27734375
-54.6875,-39.55078125,-25.87890625,-16.6015625
5.37109375,128.41796875,-30.76171875,-56.640625
-14.6484375,76.66015625,-41.9921875,-69.3359375
-86.9140625,-167.48046875,-41.9921875,-44.43359375
-125.0,-229.4921875,-36.62109375,-18.06640625
-68.359375,-22.94921875,-37.109375,-29.296875
0.0,102.5390625,-38.0859375,-62.5
-9.27734375,-1.953125,-43.45703125,-78.125
-77.1484375,-112.79296875,-47.8515625,-48.828125
-116.2109375,-178.22265625,-45.8984375,-12.20703125
-71.2890625,-81.54296875,-46.875,-19.53125
4.8828125,18.5546875,-44.43359375,-60.05859375
17.08984375,-17.578125,-41.015625,-88.37890625
-54.6875,25.87890625,-44.921875,-67.87109375
-113.76953125,-56.640625,-45.8984375,-28.80859375
-81.54296875,-122.55859375,-43.45703125,-14.6484375
-3.41796875,33.203125,-51.7578125,-46.875
13.18359375,41.50390625,-59.08203125,-73.73046875
-42.96875,-116.69921875,-53.22265625,-53.22265625
-96.6796875,-219.23828125,-48.828125,-17.578125
-83.49609375,-127.9296875,-50.29296875,-9.27734375
-0.48828125,30.2734375,-54.6875,-47.36328125
33.203125,42.48046875,-55.17578125,-85.44921875
-25.390625,-93.26171875,-55.6640625,-77.1484375
-82.03125,-161.1328125,-51.7578125,-34.66796875
-73.2421875,-92.7734375,-41.015625,-8.7890625
1.46484375,40.0390625,-43.9453125,-40.52734375
36.1328125,21.97265625,-49.31640625,-70.3125
-21.97265625,13.671875,-54.19921875,-58.59375
-88.37890625,46.38671875,-52.24609375,-20.01953125
-91.30859375,-113.76953125,-38.57421875,14.6484375
-6.34765625,-41.50390625,-40.0390625,-17.578125
42.48046875,59.5703125,-55.17578125,-71.77734375
-6.8359375,-41.015625,-53.22265625,-72.265625
-77.1484375,-131.8359375,-46.38671875,-35.64453125
-103.515625,-146.97265625,-45.41015625,-8.7890625
-27.34375,-12.6953125,-44.921875,-21.97265625
30.76171875,81.0546875,-47.8515625,-56.640625
-4.8828125,-40.52734375,-46.38671875,-62.98828125
-67.87109375,-169.921875,-42.96875,-38.0859375
-117.1875,37.109375,-52.734375,-28.80859375
-56.640625,147.94921875,-55.17578125,-49.8046875
24.90234375,7.8125,-44.43359375,-77.63671875
-0.9765625,-37.109375,-48.828125,-84.9609375
-71.77734375,-149.90234375,-47.36328125,-49.8046875
-109.375,-215.33203125,-42.96875,-12.20703125
-56.15234375,-103.515625,-44.921875,-23.92578125
10.25390625,37.109375,-46.875,-62.98828125
-2.9296875,8.7890625,-52.24609375,-76.171875
-76.66015625,-99.609375,-53.22265625,-59.08203125
-115.72265625,-214.84375,-48.828125,-23.92578125
-71.2890625,31.73828125,-52.734375,-24.90234375
-5.859375,260.25390625,-51.26953125,-71.2890625
4.8828125,17.08984375,-40.52734375,-87.890625
-65.91796875,-156.73828125,-39.55078125,-63.96484375
-129.8828125,-152.34375,-48.828125,-36.62109375
-93.75,-65.4296875,-49.8046875,-28.3203125
-15.625,-7.32421875,-51.26953125,-56.15234375
-3.41796875,-4.39453125,-52.24609375,-83.0078125
-69.82421875,-114.2578125,-45.8984375,-61.03515625
-129.39453125,-197.75390625,-46.38671875,-20.99609375
-110.83984375,-130.859375,-46.875,-12.6953125
-31.73828125,2.44140625,-46.875,-46.38671875
-6.8359375,158.69140625,-54.6875,-76.66015625
-63.4765625,7.32421875,-51.26953125,-55.6640625
-109.86328125,-214.35546875,-43.45703125,-16.6015625
-89.84375,-105.46875,-42.48046875,-11.71875
-11.71875,29.78515625,-45.41015625,-50.78125
13.671875,25.390625,-46.38671875,-87.890625
-44.921875,-106.93359375,-48.828125,-76.66015625
-108.88671875,-115.234375,-50.29296875,-41.9921875
-112.79296875,-57.12890625,-50.78125,-20.99609375
-29.296875,-1.953125,-50.29296875,-47.8515625
17.578125,24.4140625,-48.828125,-93.26171875
-39.55078125,37.109375,-55.6640625,-93.26171875
-106.93359375,16.11328125,-53.7109375,-49.31640625
-118.65234375,-164.55078125,-48.828125,-17.08984375
-41.015625,-55.6640625,-46.38671875,-36.1328125
22.94921875,65.91796875,-40.0390625,-69.3359375
-16.11328125,-45.8984375,-41.015625,-69.82421875
-81.54296875,-169.43359375,-41.50390625,-32.2265625
-104.98046875,-188.4765625,-41.50390625,2.44140625
-34.66796875,-19.04296875,-42.48046875,-5.859375
27.34375,86.9140625,-46.875,-45.8984375
0.0,-23.4375,-45.8984375,-62.01171875
-72.75390625,-164.55078125,-44.43359375,-26.85546875
-119.140625,-53.7109375,-52.734375,0.0
-59.5703125,102.5390625,-49.8046875,-27.83203125
20.5078125,40.52734375,-34.66796875,-69.82421875
6.8359375,-13.671875,-35.64453125,-83.984375
-75.68359375,-145.99609375,-41.50390625,-63.4765625
-115.72265625,-215.33203125,-41.50390625,-32.2265625
-61.5234375,-88.37890625,-47.36328125,-32.71484375
0.0,38.0859375,-51.7578125,-61.5234375
2.9296875,24.4140625,-43.45703125,-75.68359375
-63.4765625,-127.9296875,-45.41015625,-59.08203125
-110.3515625,-234.86328125,-50.29296875,-25.87890625
-75.1953125,-7.32421875,-55.6640625,-26.3671875
-5.37109375,152.34375,-59.08203125,-60.546875
13.18359375,34.1796875,-52.734375,-74.21875
-54.19921875,-117.1875,-51.26953125,-46.38671875
-113.28125,-126.953125,-56.640625,-15.625
-90.8203125,-6.8359375,-62.5,-10.7421875
-9.765625,22.94921875,-57.12890625,-33.69140625
16.6015625,21.97265625,-51.26953125,-63.96484375
-50.29296875,-99.12109375,-48.33984375,-56.15234375
-107.421875,-186.5234375,-48.33984375,-19.04296875
-87.40234375,-131.8359375,-53.22265625,-2.44140625
-13.671875,5.859375,-56.15234375,-44.921875
21.484375,81.0546875,-48.33984375,-77.63671875
-33.203125,-56.15234375,-45.8984375,-63.4765625
-95.21484375,-200.1953125,-45.41015625,-29.78515625
-94.7265625,-140.13671875,-43.9453125,-12.6953125
-17.578125,129.39453125,-49.8046875,-40.0390625
23.4375,144.04296875,-53.7109375,-75.68359375
-26.3671875,-83.984375,-50.29296875,-71.77734375
-94.7265625,-147.4609375,-49.31640625,-33.203125
-109.86328125,-113.76953125,-47.36328125,-5.859375
-23.92578125,-1.953125,-38.0859375,-26.85546875
32.71484375,53.22265625,-40.52734375,-66.40625
-16.11328125,4.8828125,-49.31640625,-74.70703125
-84.9609375,-87.40234375,-55.17578125,-36.62109375
-89.84375,-171.875,-50.78125,10.25390625
-15.13671875,-49.31640625,-34.66796875,1.953125
13.18359375,134.765625,-41.015625,-66.89453125
-28.80859375,90.8203125,-47.8515625,-86.42578125
-86.42578125,-160.64453125,-36.62109375,-37.109375
-120.1171875,-221.19140625,-35.64453125,-8.7890625
-53.22265625,-79.58984375,-27.34375,-24.4140625
6.8359375,38.0859375,-25.87890625,-66.40625
-11.23046875,-22.94921875,-32.71484375,-83.0078125
-73.2421875,-177.24609375,-34.1796875,-54.6875
-122.55859375,-194.3359375,-33.203125,-27.34375
-66.89453125,-29.78515625,-30.2734375,-33.69140625
8.30078125,48.33984375,-38.0859375,-69.82421875
-0.9765625,-16.6015625,-46.38671875,-88.37890625
-84.9609375,-77.1484375,-47.8515625,-61.5234375
-133.30078125,-166.9921875,-41.9921875,-18.5546875
-75.68359375,-105.95703125,-33.69140625,-4.39453125
-2.44140625,30.2734375,-40.0390625,-32.2265625
3.90625,19.04296875,-40.0390625,-58.59375
-68.84765625,-122.0703125,-32.2265625,-47.36328125
-130.37109375,-208.984375,-36.1328125,-21.484375
-99.12109375,-114.74609375,-41.015625,-33.69140625
-17.08984375,35.64453125,-38.0859375,-74.70703125
3.41796875,50.78125,-44.43359375,-98.14453125
-66.40625,-101.5625,-51.7578125,-79.1015625
-121.09375,-197.75390625,-47.36328125,-31.25
-100.5859375,-120.1171875,-40.52734375,-9.765625
-18.06640625,25.390625,-42.48046875,-40.0390625
15.625,58.10546875,-51.7578125,-81.0546875
-55.17578125,-34.1796875,-62.01171875,-84.47265625
-118.1640625,-130.37109375,-51.7578125,-45.8984375
-104.98046875,-135.7421875,-42.96875,-24.90234375
-22.4609375,-8.30078125,-49.8046875,-57.6171875
15.13671875,180.17578125,-61.5234375,-92.7734375
-43.45703125,103.515625,-65.4296875,-82.51953125
-99.609375,-142.08984375,-46.875,-31.25
-100.5859375,-162.109375,-36.62109375,0.9765625
-24.90234375,78.61328125,-45.8984375,-38.0859375
26.85546875,140.625,-51.7578125,-83.0078125
-16.11328125,-88.8671875,-45.41015625,-77.1484375
-92.7734375,-161.62109375,-43.9453125,-43.45703125
-127.44140625,-116.69921875,-52.734375,-18.5546875
-48.828125,-28.3203125,-49.31640625,-27.83203125
21.484375,36.62109375,-43.9453125,-54.19921875
-15.625,-40.52734375,-45.8984375,-60.546875
-94.7265625,-146.97265625,-43.9453125,-24.4140625
-124.0234375,-177.734375,-41.50390625,1.953125
-51.7578125,-71.2890625,-38.57421875,-23.92578125
14.16015625,119.140625,-46.38671875,-67.3828125
-4.8828125,109.86328125,-55.17578125,-77.63671875
-73.73046875,-141.6015625,-50.78125,-41.50390625
-117.1875,-206.54296875,-48.33984375,-10.7421875
-58.10546875,-51.26953125,-42.96875,-23.92578125
8.30078125,51.26953125,-45.41015625,-67.3828125
-2.44140625,-22.4609375,-47.8515625,-87.40234375
-72.265625,-165.0390625,-45.8984375,-60.546875
-121.58203125,-158.203125,-44.921875,-24.4140625
-74.70703125,-30.2734375,-42.96875,-20.99609375
-3.41796875,44.43359375,-48.33984375,-54.6875
3.90625,23.4375,-49.8046875,-78.125
-69.3359375,-8.30078125,-50.78125,-64.453125
-124.0234375,-89.35546875,-47.36328125,-22.94921875
-85.44921875,-107.91015625,-34.66796875,-16.6015625
-7.32421875,14.6484375,-39.0625,-70.3125
13.671875,21.97265625,-52.734375,-102.05078125
-52.734375,-116.69921875,-54.6875,-74.70703125
-106.93359375,-222.16796875,-46.875,-30.2734375
-85.44921875,-98.14453125,-43.9453125,-15.13671875
-3.90625,68.84765625,-44.921875,-54.19921875
25.87890625,54.6875,-45.8984375,-90.8203125
-33.69140625,-95.703125,-44.43359375,-75.68359375
-99.609375,-98.14453125,-49.8046875,-41.9921875
-101.5625,40.52734375,-58.59375,-24.4140625
-14.6484375,36.62109375,-47.8515625,-41.015625
30.2734375,27.34375,-44.921875,-64.94140625
-28.80859375,-81.0546875,-55.6640625,-59.08203125
-91.30859375,-189.94140625,-59.08203125,-32.2265625
-90.8203125,-163.0859375,-52.734375,-10.25390625
-12.6953125,-6.8359375,-52.734375,-37.109375
36.62109375,79.58984375,-59.08203125,-78.61328125
-11.71875,-38.0859375,-54.6875,-65.91796875
-78.125,-171.38671875,-52.734375,-18.06640625
-95.21484375,-155.76171875,-52.734375,13.18359375
-24.90234375,25.87890625,-53.22265625,-15.13671875
29.78515625,93.26171875,-52.24609375,-59.5703125
-14.6484375,-53.22265625,-51.26953125,-69.82421875
-96.6796875,-163.0859375,-46.875,-43.9453125
-131.8359375,-23.92578125,-42.48046875,-17.08984375
-64.453125,59.08203125,-43.45703125,-35.64453125
6.34765625,18.5546875,-47.36328125,-77.63671875
-16.11328125,-14.6484375,-47.36328125,-89.84375
-95.21484375,-143.5546875,-41.015625,-58.59375
-117.1875,-202.63671875,-40.52734375,-5.859375
-39.55078125,-72.265625,-47.8515625,-7.32421875
19.04296875,57.12890625,-53.22265625,-69.82421875
-0.9765625,41.015625,-48.33984375,-92.7734375
-76.66015625,-108.3984375,-49.31640625,-64.453125
-116.69921875,-213.8671875,-47.36328125,-33.69140625
-68.359375,41.015625,-57.12890625,-48.33984375
-7.32421875,284.1796875,-73.2421875,-88.8671875
-0.9765625,74.70703125,-70.80078125,-97.16796875
-69.3359375,-129.8828125,-63.96484375,-70.80078125
-121.09375,-177.24609375,-57.12890625,-25.87890625
-81.54296875,-84.9609375,-53.7109375,-26.3671875
-6.34765625,19.04296875,-57.12890625,-75.68359375
12.20703125,20.5078125,-68.359375,-101.5625
-60.05859375,-87.890625,-69.82421875,-87.40234375
-119.140625,-161.1328125,-64.453125,-52.24609375
-83.0078125,-101.07421875,-63.4765625,-31.73828125
-1.953125,23.92578125,-70.3125,-58.59375
10.25390625,144.53125,-74.21875,-96.6796875
-55.6640625,13.18359375,-58.10546875,-69.3359375
-110.3515625,-167.48046875,-46.38671875,-19.53125
-97.16796875,-78.125,-54.19921875,-6.8359375
-14.16015625,107.91015625,-56.15234375,-35.15625
24.4140625,89.35546875,-57.6171875,-77.1484375
-36.62109375,-61.5234375,-58.59375,-75.68359375
-93.75,-165.52734375,-52.24609375,-43.9453125
-91.30859375,-131.34765625,-53.22265625,-33.203125
-8.7890625,29.296875,-54.6875,-61.5234375
38.0859375,51.26953125,-59.08203125,-102.5390625
-27.34375,19.04296875,-69.82421875,-101.5625
-103.515625,-1.953125,-71.2890625,-57.6171875
-106.93359375,-142.08984375,-55.6640625,-18.06640625
-20.5078125,-26.85546875,-50.78125,-33.69140625
35.15625,74.70703125,-52.24609375,-67.87109375
-10.25390625,-54.19921875,-53.22265625,-63.4765625
-86.42578125,-168.45703125,-49.8046875,-28.80859375
-108.3984375,-136.71875,-46.38671875,0.0
-38.0859375,45.41015625,-50.78125,-22.4609375
27.34375,114.74609375,-45.8984375,-61.03515625
2.44140625,-34.66796875,-41.015625,-61.5234375
-76.66015625,-176.7578125,-44.43359375,-22.94921875
-125.9765625,-94.23828125,-55.17578125,0.0
-62.98828125,36.62109375,-53.7109375,-23.92578125
8.7890625,46.875,-41.50390625,-63.4765625
-18.5546875,-9.765625,-45.41015625,-85.44921875
-91.796875,-156.73828125,-47.36328125,-56.15234375
-127.9296875,-207.03125,-41.9921875,-17.578125
-83.49609375,-66.40625,-50.29296875,-43.45703125
-7.8125,58.59375,-49.8046875,-92.28515625
4.39453125,21.97265625,-45.41015625,-97.65625
-75.1953125,-122.55859375,-47.8515625,-68.84765625
-125.48828125,-212.890625,-40.52734375,-29.78515625
-83.49609375,5.859375,-38.0859375,-25.390625
-18.5546875,241.69921875,-51.7578125,-68.84765625
7.32421875,89.35546875,-49.8046875,-90.8203125
-53.22265625,-127.44140625,-40.0390625,-75.1953125
-111.328125,-196.2890625,-51.7578125,-42.96875
-79.1015625,-106.4453125,-59.5703125,-35.64453125
3.90625,8.7890625,-57.12890625,-67.3828125
24.90234375,20.99609375,-55.6640625,-90.33203125
-44.43359375,-94.7265625,-55.6640625,-75.68359375
-106.93359375,-195.3125,-56.640625,-31.25
-90.8203125,-125.48828125,-47.36328125,-5.859375
-1.46484375,25.390625,-44.43359375,-40.52734375
23.4375,121.09375,-56.640625,-86.42578125
-39.0625,-14.16015625,-58.10546875,-72.75390625
-93.26171875,-201.66015625,-49.31640625,-27.34375
-91.796875,-126.953125,-43.9453125,-5.859375
-8.7890625,84.9609375,-49.31640625,-36.62109375
34.66796875,83.0078125,-57.6171875,-74.70703125
-27.34375,-74.70703125,-59.08203125,-70.80078125
-96.19140625,-172.8515625,-57.12890625,-38.57421875
-109.375,-161.1328125,-53.7109375,-16.6015625
-28.3203125,-11.71875,-53.22265625,-39.55078125
34.1796875,63.4765625,-52.24609375,-79.1015625
-18.5546875,14.6484375,-60.05859375,-80.56640625
-93.26171875,-87.40234375,-68.84765625,-43.45703125
-105.95703125,-184.5703125,-59.5703125,-14.6484375
-27.83203125,-31.25,-47.36328125,-30.2734375
34.1796875,72.75390625,-46.875,-68.359375
-1.953125,-31.25,-47.36328125,-69.82421875
-79.58984375,-129.39453125,-47.36328125,-33.203125
-113.28125,-177.24609375,-49.31640625,-5.859375
-53.7109375,46.875,-56.640625,-31.73828125
7.32421875,179.19921875,-61.03515625,-83.49609375
-10.25390625,-20.99609375,-48.33984375,-88.8671875
-94.23828125,-156.25,-45.8984375,-55.17578125
-140.13671875,-147.94921875,-47.8515625,-11.71875
-77.1484375,-24.90234375,-44.43359375,-11.71875
-1.953125,27.83203125,-46.38671875,-55.17578125
-1.953125,-7.32421875,-55.17578125,-81.0546875
-77.1484375,-86.9140625,-60.05859375,-54.19921875
-123.046875,-178.22265625,-50.29296875,-9.765625
-69.3359375,-89.84375,-46.38671875,-9.765625
8.30078125,43.45703125,-51.7578125,-47.36328125
16.11328125,29.78515625,-50.29296875,-80.078125
-56.15234375,-106.4453125,-44.43359375,-53.7109375
-106.4453125,-210.44921875,-42.96875,-10.25390625
-74.21875,-41.50390625,-47.8515625,-24.4140625
-0.48828125,136.71875,-51.7578125,-68.359375
17.08984375,57.6171875,-51.26953125,-87.890625
-55.17578125,-139.16015625,-50.78125,-63.96484375
-121.09375,-134.765625,-55.17578125,-28.3203125
-103.515625,47.36328125,-55.6640625,-22.94921875
-10.25390625,74.70703125,-41.50390625,-50.78125
23.4375,37.109375,-35.15625,-82.03125
-52.24609375,-89.35546875,-40.52734375,-78.61328125
-116.2109375,-181.640625,-43.9453125,-41.015625
-102.5390625,-136.23046875,-39.0625,-20.5078125
-21.97265625,1.953125,-44.43359375,-56.15234375
18.5546875,76.171875,-48.33984375,-86.9140625
-33.69140625,-46.38671875,-41.50390625,-68.359375
-94.23828125,-174.31640625,-43.9453125,-25.87890625
