TP9,AF7,AF8,TP10
-30.2734375,-63.4765625,-45.8984375,-5.859375
-0.9765625,-68.359375,-37.59765625,9.765625
9.27734375,-77.63671875,-55.17578125,14.16015625
9.765625,-85.9375,-52.24609375,22.4609375
-15.13671875,-101.5625,-39.0625,17.578125
-32.2265625,-89.35546875,-29.296875,12.6953125
-4.39453125,-84.9609375,-28.80859375,24.4140625
20.01953125,-93.75,-40.0390625,28.80859375
45.41015625,-73.73046875,-30.2734375,53.22265625
24.4140625,-80.56640625,-33.69140625,58.59375
-18.5546875,-96.6796875,-46.38671875,20.01953125
3.41796875,-83.49609375,-30.2734375,20.99609375
32.2265625,-82.03125,-25.390625,37.59765625
35.15625,-94.23828125,-37.59765625,38.57421875
3.90625,-101.5625,-44.43359375,41.9921875
-16.11328125,-99.12109375,-38.57421875,43.45703125
10.7421875,-87.40234375,-38.57421875,47.36328125
47.36328125,-70.3125,-42.48046875,58.10546875
62.01171875,-73.2421875,-49.31640625,59.08203125
50.29296875,-82.51953125,-46.875,55.6640625
34.1796875,-73.2421875,-41.015625,55.6640625
30.76171875,-66.40625,-47.36328125,39.55078125
49.8046875,-59.08203125,-45.8984375,28.80859375
69.3359375,-45.8984375,-35.15625,44.921875
41.9921875,-56.640625,-44.921875,41.015625
-3.90625,-72.75390625,-57.12890625,12.6953125
9.27734375,-63.4765625,-40.0390625,20.01953125
42.48046875,-53.22265625,-35.64453125,33.203125
49.8046875,-59.5703125,-42.96875,24.4140625
27.83203125,-65.4296875,-45.8984375,17.578125
-11.23046875,-72.265625,-56.640625,2.9296875
1.953125,-51.7578125,-39.0625,12.6953125
32.71484375,-34.1796875,-28.80859375,26.85546875
24.90234375,-53.22265625,-55.17578125,13.671875
1.953125,-67.3828125,-61.5234375,4.8828125
-28.80859375,-84.47265625,-51.26953125,3.41796875
-31.25,-77.1484375,-45.41015625,3.90625
-5.37109375,-53.7109375,-51.7578125,7.8125
21.484375,-50.78125,-50.78125,22.4609375
19.53125,-68.359375,-43.45703125,26.85546875
-18.5546875,-75.68359375,-45.41015625,13.18359375
-26.3671875,-49.8046875,-41.015625,1.46484375
15.13671875,-33.69140625,-32.71484375,7.32421875
43.45703125,-36.1328125,-26.85546875,17.08984375
16.6015625,-56.640625,-42.96875,-4.39453125
-26.85546875,-72.265625,-51.7578125,-17.578125
-35.15625,-63.4765625,-41.9921875,-15.13671875
-8.7890625,-52.734375,-39.0625,-9.765625
11.23046875,-46.38671875,-44.43359375,-4.8828125
4.8828125,-57.6171875,-47.36328125,-5.37109375
-31.25,-72.265625,-50.78125,-17.08984375
-53.22265625,-58.59375,-46.875,-27.34375
-32.2265625,-41.015625,-39.0625,-22.4609375
-12.6953125,-33.203125,-50.29296875,-21.97265625
3.90625,-27.83203125,-35.15625,-3.90625
-15.13671875,-43.9453125,-23.92578125,-3.41796875
-66.89453125,-62.98828125,-49.8046875,-41.50390625
-51.26953125,-63.4765625,-47.36328125,-41.9921875
-27.83203125,-61.5234375,-46.38671875,-33.203125
-31.25,-62.98828125,-54.6875,-37.109375
-51.7578125,-71.77734375,-60.05859375,-41.50390625
-76.171875,-69.3359375,-62.98828125,-51.7578125
-54.19921875,-52.24609375,-61.03515625,-53.7109375
-13.671875,-45.8984375,-56.15234375,-37.59765625
-17.08984375,-54.19921875,-52.24609375,-38.0859375
-50.78125,-54.19921875,-44.921875,-50.78125
-68.84765625,-55.6640625,-31.25,-43.45703125
-64.94140625,-67.3828125,-36.1328125,-41.9921875
-43.9453125,-63.96484375,-43.45703125,-43.9453125
-25.390625,-59.08203125,-33.203125,-34.66796875
-49.8046875,-70.3125,-34.1796875,-34.66796875
-88.37890625,-79.1015625,-46.875,-51.7578125
-70.80078125,-66.89453125,-43.9453125,-56.15234375
-32.71484375,-57.6171875,-43.9453125,-54.6875
-15.625,-55.17578125,-49.31640625,-50.29296875
-34.1796875,-65.91796875,-52.734375,-51.7578125
-60.546875,-80.078125,-51.26953125,-53.22265625
-51.7578125,-63.4765625,-40.52734375,-41.50390625
-30.2734375,-99.609375,-32.2265625,-33.69140625
-22.4609375,-210.9375,-39.55078125,-32.2265625
-34.66796875,-281.25,-51.7578125,-28.80859375
-55.6640625,-308.10546875,-51.26953125,-29.296875
-54.19921875,-315.4296875,-46.38671875,-30.76171875
-27.83203125,-312.01171875,-46.38671875,-32.71484375
-3.41796875,-317.3828125,-45.8984375,-23.4375
-11.23046875,-321.77734375,-45.41015625,-13.671875
-47.36328125,-320.80078125,-48.33984375,-20.5078125
-59.5703125,-316.40625,-42.96875,-34.66796875
-32.71484375,-299.31640625,-35.15625,-37.59765625
-13.18359375,-280.2734375,-33.69140625,-30.76171875
-21.484375,-291.9921875,-36.1328125,-32.2265625
-53.22265625,-302.24609375,-47.36328125,-46.38671875
-64.453125,-278.3203125,-42.96875,-53.7109375
-31.73828125,-250.9765625,-25.87890625,-34.66796875
-14.16015625,-235.83984375,-37.109375,-32.2265625
-27.83203125,-238.28125,-52.734375,-41.015625
-59.5703125,-251.953125,-60.05859375,-46.38671875
-75.1953125,-250.0,-61.5234375,-54.6875
-43.45703125,-225.09765625,-47.8515625,-44.43359375
-19.04296875,-213.37890625,-47.8515625,-40.52734375
-20.99609375,-213.8671875,-47.8515625,-36.1328125
-44.43359375,-207.51953125,-37.59765625,-34.1796875
-73.2421875,-204.1015625,-36.62109375,-50.29296875
-62.98828125,-191.89453125,-34.66796875,-55.17578125
-28.80859375,-166.9921875,-27.83203125,-35.64453125
-23.4375,-167.96875,-33.69140625,-29.78515625
-59.08203125,-182.12890625,-48.33984375,-50.29296875
-90.8203125,-176.7578125,-48.33984375,-62.5
-76.171875,-163.0859375,-44.43359375,-60.546875
-43.45703125,-152.34375,-49.8046875,-57.6171875
-35.64453125,-153.3203125,-55.17578125,-57.6171875
-60.05859375,-160.15625,-52.24609375,-58.59375
-92.7734375,-161.1328125,-52.734375,-70.80078125
-80.078125,-140.625,-48.33984375,-72.75390625
-48.33984375,-125.9765625,-42.96875,-63.96484375
-32.71484375,-137.6953125,-49.8046875,-58.10546875
-34.1796875,-141.11328125,-43.45703125,-36.62109375
-59.08203125,-127.44140625,-46.875,-34.66796875
-64.94140625,-112.3046875,-55.6640625,-53.22265625
-36.1328125,-102.5390625,-49.31640625,-51.7578125
-15.13671875,-109.375,-51.26953125,-46.38671875
-33.69140625,-118.1640625,-56.15234375,-51.26953125
-64.94140625,-120.60546875,-58.59375,-52.734375
-65.4296875,-113.76953125,-55.17578125,-51.26953125
-40.0390625,-97.16796875,-50.29296875,-49.31640625
-25.87890625,-90.33203125,-46.875,-41.50390625
-49.31640625,-111.328125,-55.6640625,-42.48046875
-71.2890625,-119.140625,-49.31640625,-38.57421875
-59.5703125,-87.890625,-35.15625,-39.55078125
-38.0859375,-82.51953125,-51.26953125,-51.26953125
-20.01953125,-89.84375,-55.6640625,-45.41015625
-23.92578125,-94.23828125,-48.828125,-39.55078125
-59.08203125,-103.02734375,-54.6875,-48.828125
-78.61328125,-92.7734375,-54.6875,-58.10546875
-49.8046875,-74.70703125,-50.78125,-51.7578125
-21.484375,-73.2421875,-58.59375,-44.43359375
-15.13671875,-86.42578125,-57.6171875,-35.64453125
-43.45703125,-97.16796875,-54.19921875,-41.9921875
-64.94140625,-91.30859375,-49.8046875,-53.7109375
-35.15625,-74.70703125,-42.96875,-42.48046875
-21.484375,-70.3125,-48.33984375,-47.8515625
-27.83203125,-81.0546875,-57.12890625,-46.38671875
-54.6875,-89.35546875,-59.5703125,-41.50390625
-83.984375,-79.1015625,-51.7578125,-56.15234375
-63.96484375,-64.94140625,-46.875,-48.33984375
-43.9453125,-63.4765625,-52.734375,-52.734375
-38.57421875,-63.4765625,-48.33984375,-55.17578125
-61.03515625,-72.265625,-50.29296875,-55.17578125
-95.703125,-73.73046875,-58.59375,-71.2890625
-78.125,-55.17578125,-50.29296875,-76.66015625
-28.80859375,-46.38671875,-24.90234375,-55.17578125
-19.53125,-54.6875,-21.97265625,-42.48046875
-60.546875,-74.21875,-43.45703125,-62.5
-83.0078125,-78.125,-47.36328125,-67.87109375
-68.359375,-65.4296875,-47.8515625,-62.01171875
-33.203125,-55.6640625,-41.50390625,-49.31640625
-17.578125,-57.6171875,-38.57421875,-41.9921875
-41.015625,-59.5703125,-44.921875,-40.52734375
-69.3359375,-54.6875,-45.8984375,-42.48046875
-56.640625,-45.41015625,-34.66796875,-39.0625
-27.83203125,-39.55078125,-39.55078125,-34.66796875
-5.859375,-34.1796875,-40.0390625,-28.3203125
-0.48828125,-34.1796875,-20.5078125,-4.39453125
-43.45703125,-55.6640625,-34.66796875,-18.06640625
-68.359375,-60.05859375,-47.8515625,-46.38671875
-52.24609375,-45.41015625,-43.45703125,-44.43359375
-46.38671875,-49.8046875,-50.29296875,-47.36328125
-60.546875,-60.546875,-53.22265625,-52.24609375
-86.9140625,-68.84765625,-51.7578125,-63.4765625
-86.42578125,-67.3828125,-50.78125,-75.1953125
-51.26953125,-51.7578125,-55.6640625,-66.40625
-26.3671875,-42.96875,-52.734375,-50.29296875
-34.66796875,-53.7109375,-57.12890625,-48.33984375
-61.03515625,-56.15234375,-61.03515625,-49.8046875
-67.3828125,-50.29296875,-49.31640625,-51.26953125
-41.50390625,-47.8515625,-50.29296875,-55.17578125
-24.90234375,-53.22265625,-56.15234375,-57.6171875
-27.34375,-54.19921875,-48.33984375,-40.0390625
-57.6171875,-58.59375,-42.48046875,-37.109375
-81.54296875,-59.5703125,-50.78125,-56.15234375
-54.19921875,-54.6875,-52.734375,-46.38671875
-34.66796875,-59.5703125,-45.8984375,-39.0625
-36.62109375,-57.12890625,-45.41015625,-35.64453125
-67.87109375,-60.546875,-48.33984375,-36.1328125
-89.84375,-57.12890625,-39.55078125,-44.43359375
-59.5703125,-43.9453125,-37.59765625,-45.8984375
-35.64453125,-44.43359375,-53.22265625,-41.015625
-39.55078125,-52.734375,-64.453125,-42.48046875
-59.5703125,-58.10546875,-55.17578125,-52.734375
-62.98828125,-50.78125,-29.296875,-42.48046875
-50.29296875,-41.015625,-24.4140625,-40.0390625
-43.45703125,-45.8984375,-37.59765625,-46.38671875
-35.64453125,-59.08203125,-47.8515625,-43.45703125
-59.08203125,-69.3359375,-51.26953125,-48.33984375
-82.51953125,-58.59375,-45.41015625,-51.26953125
-63.96484375,-42.48046875,-41.50390625,-51.7578125
-41.9921875,-41.015625,-40.0390625,-52.734375
-38.0859375,-43.9453125,-42.96875,-49.31640625
-62.98828125,-58.59375,-46.875,-50.78125
-91.30859375,-73.73046875,-41.9921875,-57.12890625
-81.0546875,-58.59375,-37.59765625,-58.10546875
-52.734375,-43.9453125,-43.9453125,-53.7109375
-29.78515625,-47.8515625,-45.41015625,-44.43359375
-52.24609375,-59.08203125,-48.828125,-46.875
-67.87109375,-49.8046875,-34.66796875,-35.64453125
-41.50390625,-30.76171875,-28.3203125,-30.76171875
-20.01953125,-40.0390625,-46.38671875,-32.2265625
-19.04296875,-35.15625,-44.921875,-29.78515625
-59.5703125,-41.015625,-54.6875,-57.12890625
-101.5625,-55.17578125,-59.5703125,-71.2890625
-91.30859375,-47.8515625,-49.8046875,-65.4296875
-43.9453125,-39.0625,-36.62109375,-49.31640625
-28.80859375,-38.57421875,-36.1328125,-38.57421875
-54.19921875,-51.7578125,-50.29296875,-48.828125
-84.9609375,-60.546875,-51.7578125,-62.5
-87.40234375,-52.24609375,-46.875,-63.96484375
-51.26953125,-33.203125,-42.96875,-58.59375
-29.296875,-27.83203125,-42.48046875,-54.19921875
-41.015625,-39.55078125,-57.12890625,-54.19921875
-59.08203125,-40.52734375,-56.640625,-46.38671875
-64.453125,-33.69140625,-42.96875,-45.8984375
-46.38671875,-22.4609375,-42.96875,-47.36328125
-25.390625,-23.92578125,-49.31640625,-42.96875
-17.08984375,-25.390625,-46.38671875,-26.85546875
-43.9453125,-33.203125,-46.875,-26.85546875
-74.70703125,-38.57421875,-51.26953125,-55.6640625
-55.6640625,-27.34375,-45.41015625,-55.17578125
-34.1796875,-33.203125,-46.38671875,-47.36328125
-35.64453125,-49.31640625,-51.7578125,-49.8046875
-64.453125,-62.98828125,-58.59375,-55.6640625
-83.49609375,-57.12890625,-54.19921875,-61.5234375
-66.40625,-42.48046875,-45.41015625,-54.6875
-40.52734375,-32.71484375,-46.38671875,-45.41015625
-36.62109375,-41.015625,-57.6171875,-49.31640625
-62.98828125,-58.10546875,-59.08203125,-55.6640625
-60.05859375,-50.29296875,-39.0625,-43.45703125
-42.96875,-45.8984375,-44.43359375,-45.8984375
-31.73828125,-47.36328125,-54.6875,-51.26953125
-19.04296875,-51.7578125,-53.22265625,-46.875
-38.0859375,-63.4765625,-55.17578125,-44.921875
-67.3828125,-67.3828125,-54.19921875,-51.26953125
-52.734375,-58.10546875,-50.78125,-57.6171875
-26.3671875,-56.15234375,-48.828125,-54.6875
-25.390625,-64.453125,-53.22265625,-53.22265625
-45.41015625,-60.05859375,-49.8046875,-49.31640625
-67.87109375,-52.24609375,-49.31640625,-55.6640625
-47.36328125,-40.0390625,-36.1328125,-41.50390625
-18.5546875,-33.69140625,-17.08984375,-30.76171875
-16.11328125,-46.38671875,-31.25,-41.9921875
-29.78515625,-64.453125,-44.921875,-39.0625
-50.29296875,-69.82421875,-48.828125,-31.25
-47.8515625,-58.10546875,-47.8515625,-33.69140625
-24.4140625,-44.43359375,-38.0859375,-40.52734375
-10.7421875,-45.8984375,-31.25,-30.2734375
-28.3203125,-57.12890625,-36.1328125,-26.3671875
-65.4296875,-66.40625,-43.9453125,-41.50390625
-76.171875,-59.5703125,-43.45703125,-57.12890625
-43.9453125,-40.52734375,-41.015625,-49.31640625
-4.8828125,-33.69140625,-29.78515625,-27.34375
-24.90234375,-58.59375,-37.59765625,-46.38671875
-74.21875,-72.265625,-58.10546875,-67.87109375
-82.03125,-58.59375,-63.96484375,-69.82421875
-41.50390625,-46.875,-62.01171875,-58.59375
-12.6953125,-37.109375,-54.19921875,-38.57421875
-52.24609375,-61.03515625,-53.22265625,-56.640625
-77.1484375,-74.70703125,-41.015625,-56.640625
-82.51953125,-66.40625,-40.52734375,-54.6875
-74.70703125,-59.08203125,-50.78125,-67.3828125
-49.31640625,-53.7109375,-44.43359375,-59.5703125
-47.8515625,-54.6875,-45.8984375,-49.8046875
-67.3828125,-58.59375,-49.8046875,-46.38671875
-85.9375,-60.05859375,-49.31640625,-56.15234375
-64.94140625,-51.7578125,-47.36328125,-52.734375
-17.578125,-37.109375,-33.69140625,-32.2265625
-6.8359375,-42.96875,-35.15625,-32.71484375
-46.875,-64.94140625,-53.7109375,-44.921875
-71.2890625,-65.4296875,-57.12890625,-50.78125
-50.29296875,-50.29296875,-52.734375,-51.7578125
-24.90234375,-37.109375,-45.41015625,-39.55078125
-24.4140625,-48.33984375,-51.7578125,-33.69140625
-44.43359375,-59.5703125,-59.08203125,-44.43359375
-59.5703125,-48.828125,-49.31640625,-53.22265625
-57.6171875,-49.31640625,-46.38671875,-56.15234375
-41.50390625,-47.36328125,-46.38671875,-61.5234375
-27.83203125,-42.96875,-43.45703125,-54.19921875
-51.26953125,-53.7109375,-38.0859375,-49.8046875
-86.42578125,-59.08203125,-45.41015625,-66.40625
-68.84765625,-46.38671875,-42.48046875,-63.96484375
-31.25,-41.015625,-39.55078125,-52.24609375
-20.5078125,-46.38671875,-52.24609375,-44.43359375
-44.43359375,-51.7578125,-55.6640625,-43.9453125
-77.1484375,-54.19921875,-60.546875,-54.6875
-70.80078125,-53.22265625,-56.640625,-65.91796875
-41.015625,-39.55078125,-40.52734375,-58.59375
-30.76171875,-38.0859375,-38.57421875,-48.33984375
-53.22265625,-68.84765625,-51.7578125,-52.24609375
-58.10546875,-66.40625,-33.203125,-35.15625
-41.015625,-35.15625,-17.578125,-30.2734375
-37.59765625,-38.0859375,-39.55078125,-56.640625
-26.3671875,-42.96875,-51.26953125,-52.734375
-36.62109375,-52.24609375,-56.15234375,-48.33984375
-64.453125,-61.5234375,-61.5234375,-50.78125
-81.0546875,-60.05859375,-62.98828125,-67.3828125
-60.05859375,-50.78125,-54.6875,-72.75390625
-25.87890625,-43.9453125,-42.48046875,-53.22265625
-31.73828125,-43.9453125,-40.0390625,-43.45703125
-67.87109375,-63.4765625,-54.19921875,-55.17578125
-80.078125,-61.03515625,-51.7578125,-57.12890625
-32.2265625,-20.01953125,-17.08984375,-17.08984375
-15.625,-25.390625,-25.87890625,-20.99609375
-35.64453125,-57.12890625,-52.24609375,-43.45703125
-54.6875,-67.3828125,-46.38671875,-39.55078125
-67.87109375,-56.640625,-40.0390625,-49.8046875
-45.41015625,-46.38671875,-41.015625,-50.78125
-15.13671875,-41.015625,-40.0390625,-36.62109375
-19.53125,-50.78125,-46.38671875,-35.15625
-48.828125,-62.01171875,-47.8515625,-37.59765625
-62.98828125,-49.31640625,-38.0859375,-43.45703125
-42.48046875,-41.50390625,-41.015625,-52.24609375
0.48828125,-27.34375,-24.4140625,-22.94921875
2.9296875,-30.2734375,-29.296875,-17.578125
-51.7578125,-58.59375,-67.87109375,-48.828125
-81.54296875,-52.734375,-70.3125,-62.98828125
-52.24609375,-29.78515625,-53.7109375,-58.10546875
-29.296875,-38.57421875,-45.41015625,-51.26953125
-45.41015625,-56.15234375,-48.828125,-64.94140625
-68.359375,-66.40625,-52.24609375,-61.5234375
-96.6796875,-72.265625,-45.8984375,-61.03515625
-87.40234375,-57.12890625,-39.0625,-62.01171875
-51.26953125,-36.62109375,-41.015625,-52.734375
-29.296875,-34.1796875,-39.55078125,-41.9921875
-39.0625,-47.36328125,-35.64453125,-27.83203125
-78.61328125,-61.03515625,-47.36328125,-46.38671875
-83.0078125,-56.15234375,-47.8515625,-59.08203125
-52.734375,-43.9453125,-46.875,-49.8046875
-27.83203125,-40.52734375,-49.8046875,-40.52734375
-32.2265625,-52.24609375,-44.43359375,-33.203125
-64.94140625,-62.98828125,-49.31640625,-39.55078125
-60.05859375,-46.38671875,-42.48046875,-40.52734375
-25.390625,-34.66796875,-28.3203125,-32.71484375
-16.6015625,-47.8515625,-38.57421875,-41.9921875
-34.66796875,-54.19921875,-41.50390625,-47.8515625
-59.5703125,-50.29296875,-37.109375,-41.015625
-63.96484375,-44.43359375,-41.015625,-47.8515625
-47.8515625,-41.015625,-49.8046875,-59.5703125
-24.90234375,-31.73828125,-51.26953125,-49.31640625
-38.57421875,-43.45703125,-54.19921875,-47.8515625
-67.3828125,-57.6171875,-54.19921875,-53.22265625
-74.21875,-46.875,-48.33984375,-57.12890625
-49.31640625,-37.109375,-43.9453125,-48.33984375
-21.97265625,-36.1328125,-46.38671875,-38.57421875
-20.01953125,-41.015625,-49.31640625,-43.45703125
-54.6875,-59.5703125,-51.7578125,-54.19921875
-73.2421875,-54.6875,-44.921875,-59.08203125
-33.203125,-22.94921875,-29.78515625,-39.55078125
-16.11328125,-31.73828125,-39.55078125,-42.96875
-35.15625,-57.12890625,-56.15234375,-58.59375
-57.12890625,-51.26953125,-53.22265625,-50.29296875
-76.66015625,-49.31640625,-49.8046875,-60.05859375
-59.5703125,-43.9453125,-54.6875,-62.5
-31.25,-36.1328125,-58.10546875,-55.6640625
-25.390625,-43.45703125,-52.734375,-55.17578125
-57.6171875,-56.15234375,-48.828125,-59.08203125
-83.984375,-61.03515625,-51.7578125,-68.84765625
-56.15234375,-42.96875,-49.8046875,-62.98828125
-18.06640625,-21.97265625,-34.1796875,-41.015625
-20.5078125,-41.9921875,-36.62109375,-36.62109375
-63.96484375,-68.359375,-53.7109375,-60.05859375
-88.8671875,-60.546875,-59.08203125,-75.1953125
-63.96484375,-44.43359375,-50.78125,-62.98828125
-35.64453125,-40.52734375,-44.921875,-52.24609375
-40.52734375,-51.26953125,-50.78125,-58.59375
-64.453125,-65.91796875,-49.31640625,-58.10546875
-87.40234375,-73.2421875,-47.36328125,-60.546875
-74.21875,-55.6640625,-41.9921875,-60.546875
-41.9921875,-39.55078125,-43.9453125,-54.6875
-24.4140625,-40.52734375,-40.52734375,-43.9453125
-37.59765625,-44.43359375,-42.48046875,-40.0390625
-71.77734375,-67.87109375,-62.98828125,-58.10546875
-69.3359375,-70.80078125,-56.640625,-66.89453125
-32.71484375,-49.8046875,-40.0390625,-50.78125
-12.20703125,-44.921875,-35.15625,-33.203125
-37.109375,-46.875,-46.38671875,-43.9453125
-73.2421875,-43.45703125,-52.734375,-51.26953125
-71.77734375,-39.55078125,-45.41015625,-48.33984375
-42.48046875,-39.55078125,-40.0390625,-41.50390625
-23.92578125,-44.43359375,-43.45703125,-28.3203125
-43.9453125,-41.50390625,-54.6875,-41.50390625
-86.9140625,-42.48046875,-64.94140625,-71.2890625
-90.8203125,-30.76171875,-58.10546875,-79.1015625
-57.12890625,-21.97265625,-55.17578125,-70.3125
-31.73828125,-26.85546875,-62.01171875,-67.87109375
-25.87890625,-22.4609375,-55.17578125,-55.6640625
-52.734375,-26.3671875,-59.08203125,-55.17578125
-72.75390625,-27.34375,-73.2421875,-74.70703125
-42.48046875,-16.11328125,-66.40625,-68.359375
-26.85546875,-17.578125,-64.94140625,-67.3828125
-36.1328125,-25.390625,-70.80078125,-70.80078125
-58.59375,-31.25,-73.2421875,-65.91796875
-70.80078125,-32.71484375,-67.87109375,-69.82421875
-54.19921875,-23.4375,-59.5703125,-76.171875
-38.0859375,-9.27734375,-61.03515625,-78.125
-35.15625,-25.390625,-71.2890625,-71.77734375
-56.15234375,-44.43359375,-64.453125,-62.98828125
-63.4765625,-34.1796875,-48.828125,-50.29296875
-42.48046875,-26.85546875,-55.17578125,-52.734375
-17.08984375,-17.578125,-63.4765625,-45.8984375
-15.13671875,-23.92578125,-62.98828125,-34.1796875
-46.875,-43.45703125,-59.08203125,-38.0859375
-69.82421875,-44.43359375,-58.10546875,-41.9921875
-50.29296875,-35.15625,-51.26953125,-39.55078125
-29.296875,-30.76171875,-46.875,-34.66796875
-24.90234375,-38.57421875,-49.31640625,-28.80859375
-47.36328125,-35.64453125,-61.03515625,-30.76171875
-79.58984375,-31.73828125,-66.40625,-48.828125
-49.31640625,-20.01953125,-40.0390625,-34.1796875
-8.30078125,-3.90625,-33.203125,-14.6484375
-20.5078125,-19.53125,-50.29296875,-30.76171875
-48.828125,-33.69140625,-54.19921875,-34.1796875
-75.68359375,-48.33984375,-55.6640625,-43.9453125
-67.3828125,-38.57421875,-50.29296875,-56.640625
-34.66796875,-19.53125,-47.36328125,-50.78125
-21.484375,-25.87890625,-48.33984375,-50.29296875
-42.48046875,-39.0625,-52.24609375,-60.546875
-66.40625,-51.26953125,-51.7578125,-62.01171875
-58.10546875,-41.50390625,-51.26953125,-61.5234375
-21.97265625,-26.85546875,-50.78125,-53.7109375
13.671875,-17.08984375,-42.48046875,-29.296875
-12.6953125,-27.83203125,-52.734375,-36.1328125
-62.98828125,-51.7578125,-66.40625,-56.640625
-55.6640625,-37.59765625,-51.26953125,-46.38671875
-19.04296875,-19.53125,-37.109375,-30.2734375
-12.20703125,-36.1328125,-49.31640625,-35.64453125
-24.90234375,-50.78125,-53.7109375,-36.1328125
-56.15234375,-60.05859375,-54.6875,-37.59765625
-62.98828125,-53.22265625,-48.33984375,-41.50390625
-36.62109375,-42.48046875,-44.43359375,-40.52734375
-22.94921875,-41.9921875,-51.26953125,-45.41015625
-16.11328125,-35.64453125,-41.9921875,-34.66796875
-41.9921875,-48.828125,-41.9921875,-36.62109375
-70.3125,-60.546875,-62.98828125,-63.4765625
-52.24609375,-41.50390625,-65.4296875,-63.96484375
-28.80859375,-26.85546875,-49.31640625,-53.7109375
-29.296875,-36.1328125,-48.33984375,-52.24609375
-63.96484375,-58.10546875,-55.6640625,-57.6171875
-77.63671875,-61.5234375,-47.8515625,-57.12890625
-44.43359375,-40.52734375,-38.0859375,-45.8984375
-17.578125,-28.80859375,-41.50390625,-42.96875
-13.671875,-47.36328125,-46.875,-39.0625
-35.64453125,-56.640625,-51.7578125,-37.109375
-49.8046875,-41.50390625,-45.8984375,-37.109375
-43.45703125,-44.921875,-41.015625,-47.8515625
-26.3671875,-45.8984375,-48.828125,-52.734375
-18.5546875,-46.38671875,-56.640625,-45.41015625
-49.8046875,-58.10546875,-60.05859375,-44.921875
-76.66015625,-53.22265625,-50.29296875,-49.8046875
-59.5703125,-41.50390625,-39.55078125,-49.31640625
-36.1328125,-35.64453125,-45.8984375,-47.8515625
-22.4609375,-26.85546875,-53.7109375,-47.36328125
-33.69140625,-32.71484375,-49.8046875,-44.921875
-64.453125,-36.62109375,-53.7109375,-53.7109375
-33.203125,12.6953125,-33.203125,-32.2265625
5.37109375,34.1796875,-15.13671875,-16.6015625
-19.04296875,-4.39453125,-42.96875,-48.33984375
-40.52734375,-15.625,-47.8515625,-49.8046875
-61.03515625,-20.5078125,-46.38671875,-42.48046875
-62.98828125,-16.6015625,-55.17578125,-51.7578125
-35.64453125,-14.16015625,-51.7578125,-53.22265625
-20.5078125,-22.4609375,-51.7578125,-48.828125
-35.15625,-17.08984375,-48.828125,-50.29296875
-64.94140625,-15.13671875,-48.828125,-58.10546875
-75.1953125,-19.04296875,-53.7109375,-68.359375
-42.48046875,-13.18359375,-43.9453125,-56.15234375
-25.87890625,-13.18359375,-42.48046875,-47.8515625
-52.24609375,-25.390625,-54.19921875,-54.6875
-87.40234375,-43.9453125,-55.6640625,-63.4765625
-81.54296875,-32.2265625,-41.50390625,-60.05859375
-24.90234375,4.39453125,-13.18359375,-28.3203125
-16.11328125,-7.8125,-25.87890625,-34.66796875
-48.33984375,-36.62109375,-58.10546875,-52.24609375
-74.70703125,-39.55078125,-57.6171875,-56.15234375
-84.47265625,-34.1796875,-48.33984375,-67.3828125
-56.640625,-27.83203125,-40.0390625,-57.6171875
-34.1796875,-25.390625,-41.9921875,-49.31640625
-38.57421875,-32.2265625,-49.8046875,-50.29296875
-61.5234375,-36.1328125,-51.26953125,-56.640625
-76.171875,-37.59765625,-50.78125,-67.3828125
-60.546875,-36.1328125,-51.26953125,-67.87109375
-22.4609375,-21.97265625,-28.80859375,-40.0390625
-16.6015625,-34.66796875,-25.87890625,-29.296875
-72.75390625,-62.01171875,-58.10546875,-63.96484375
-98.6328125,-49.8046875,-53.7109375,-74.21875
-71.2890625,-35.15625,-41.9921875,-69.82421875
-49.8046875,-39.55078125,-47.36328125,-62.5
-49.31640625,-44.921875,-55.6640625,-59.5703125
-81.0546875,-53.7109375,-61.03515625,-75.1953125
-106.93359375,-44.921875,-61.03515625,-84.47265625
-85.44921875,-18.5546875,-54.6875,-75.68359375
-70.80078125,-23.92578125,-56.640625,-84.47265625
-56.15234375,-31.25,-57.12890625,-79.1015625
-69.3359375,-33.69140625,-48.828125,-63.96484375
-106.4453125,-41.9921875,-49.8046875,-80.56640625
-100.09765625,-36.1328125,-47.8515625,-87.40234375
-80.56640625,-29.296875,-42.48046875,-83.984375
-73.2421875,-34.1796875,-42.96875,-88.8671875
-95.21484375,-44.921875,-55.17578125,-98.14453125
-125.0,-51.26953125,-62.5,-104.4921875
-116.2109375,-42.48046875,-55.6640625,-103.515625
-84.47265625,-26.3671875,-46.38671875,-95.21484375
-72.75390625,-27.34375,-44.43359375,-95.703125
-88.8671875,-42.48046875,-41.9921875,-94.23828125
-113.28125,-44.921875,-30.76171875,-86.42578125
-126.46484375,-40.0390625,-28.80859375,-105.95703125
-112.3046875,-39.55078125,-39.0625,-118.65234375
-89.84375,-38.0859375,-39.0625,-106.4453125
-111.328125,-51.7578125,-41.9921875,-114.74609375
-149.4140625,-64.94140625,-47.36328125,-131.34765625
-152.83203125,-52.734375,-42.96875,-138.671875
-118.1640625,-31.73828125,-39.55078125,-125.0
-84.47265625,-30.2734375,-41.015625,-115.234375
-104.4921875,-51.7578125,-45.41015625,-133.30078125
-131.34765625,-56.15234375,-48.828125,-137.6953125
-126.953125,-40.52734375,-41.50390625,-128.41796875
-101.07421875,-38.57421875,-38.0859375,-118.1640625
-82.03125,-41.015625,-44.921875,-115.72265625
-95.21484375,-51.26953125,-50.29296875,-123.046875
-126.953125,-63.4765625,-53.7109375,-129.8828125
-131.34765625,-69.82421875,-52.24609375,-132.32421875
-100.09765625,-58.59375,-40.52734375,-120.1171875
-80.078125,-50.29296875,-38.57421875,-110.3515625
-89.35546875,-62.98828125,-48.828125,-118.1640625
-114.74609375,-74.70703125,-49.31640625,-119.62890625
-127.44140625,-76.66015625,-42.96875,-118.1640625
-99.609375,-61.5234375,-42.48046875,-105.95703125
-69.3359375,-53.22265625,-39.55078125,-86.9140625
-74.70703125,-74.21875,-45.41015625,-88.8671875
-109.86328125,-91.30859375,-54.6875,-101.5625
-137.6953125,-84.47265625,-51.7578125,-117.1875
-94.7265625,-51.26953125,-29.296875,-91.796875
-49.31640625,-33.203125,-23.92578125,-68.84765625
-62.98828125,-56.15234375,-41.015625,-80.078125
-91.796875,-72.265625,-42.48046875,-79.58984375
-111.328125,-70.80078125,-45.41015625,-89.35546875
-91.796875,-56.15234375,-50.29296875,-85.44921875
-62.01171875,-48.828125,-51.26953125,-75.1953125
-41.015625,-45.8984375,-53.7109375,-68.359375
-57.12890625,-57.12890625,-53.22265625,-63.4765625
-100.09765625,-72.75390625,-57.12890625,-78.61328125
-93.26171875,-55.6640625,-50.29296875,-80.56640625
-59.5703125,-42.96875,-40.0390625,-66.40625
-52.24609375,-50.78125,-43.45703125,-58.59375
-82.03125,-63.4765625,-43.45703125,-65.91796875
-120.1171875,-79.1015625,-47.36328125,-80.56640625
-105.95703125,-65.91796875,-53.22265625,-75.1953125
-72.265625,-47.36328125,-52.734375,-63.96484375
-52.24609375,-50.29296875,-47.36328125,-56.640625
-55.6640625,-57.6171875,-42.48046875,-48.33984375
-72.75390625,-60.546875,-34.1796875,-50.78125
-67.3828125,-57.6171875,-34.66796875,-63.4765625
-39.55078125,-53.7109375,-41.50390625,-60.546875
-10.25390625,-57.6171875,-40.0390625,-38.0859375
-7.8125,-63.4765625,-39.0625,-22.4609375
-27.83203125,-70.3125,-43.45703125,-19.53125
-33.69140625,-62.5,-43.45703125,-20.99609375
-3.90625,-58.10546875,-43.45703125,-12.20703125
24.90234375,-61.5234375,-44.43359375,0.0
15.13671875,-60.05859375,-48.828125,-2.9296875
-22.4609375,-70.80078125,-63.4765625,-14.6484375
-30.76171875,-65.4296875,-61.03515625,-15.13671875
1.953125,-40.52734375,-45.8984375,3.41796875
31.25,-40.52734375,-43.45703125,19.53125
21.484375,-69.82421875,-50.29296875,15.13671875
-10.25390625,-75.68359375,-55.17578125,4.8828125
-17.08984375,-67.3828125,-45.41015625,6.34765625
-0.48828125,-65.4296875,-38.57421875,6.8359375
18.06640625,-59.08203125,-45.41015625,4.8828125
24.90234375,-64.94140625,-55.17578125,8.7890625
-3.90625,-70.80078125,-62.01171875,7.32421875
-29.296875,-67.87109375,-66.89453125,-3.90625
-9.765625,-59.08203125,-63.96484375,-0.48828125
19.53125,-40.0390625,-50.29296875,7.8125
17.08984375,-45.41015625,-53.7109375,5.859375
-11.71875,-68.84765625,-58.10546875,2.44140625
-32.71484375,-72.265625,-55.17578125,-8.30078125
-1.953125,-48.33984375,-44.43359375,3.41796875
26.3671875,-41.9921875,-42.48046875,10.7421875
16.6015625,-62.98828125,-59.5703125,-2.9296875
-4.39453125,-64.94140625,-64.453125,-2.9296875
-23.4375,-62.01171875,-65.4296875,-3.90625
-3.90625,-44.921875,-48.33984375,3.90625
16.11328125,-39.55078125,-44.43359375,2.44140625
20.5078125,-43.9453125,-48.33984375,6.8359375
-4.8828125,-53.22265625,-51.26953125,8.30078125
-29.78515625,-56.640625,-52.24609375,0.0
-14.6484375,-42.96875,-48.33984375,-1.46484375
13.671875,-37.109375,-48.33984375,1.953125
44.43359375,-30.2734375,-37.59765625,20.01953125
18.5546875,-48.828125,-54.19921875,8.30078125
-20.5078125,-66.89453125,-68.84765625,-8.30078125
-13.18359375,-55.17578125,-50.29296875,-1.953125
8.30078125,-41.50390625,-35.64453125,-3.41796875
20.5078125,-35.64453125,-39.55078125,-4.8828125
-0.48828125,-43.9453125,-44.921875,-11.71875
-34.1796875,-55.17578125,-47.36328125,-23.4375
-32.71484375,-47.36328125,-46.875,-28.80859375
-3.41796875,-23.92578125,-44.43359375,-26.85546875
6.8359375,-29.296875,-48.33984375,-27.83203125
5.37109375,-32.71484375,-41.9921875,-10.25390625
-25.390625,-35.15625,-45.41015625,-10.25390625
-58.10546875,-51.26953125,-59.08203125,-38.57421875
-30.2734375,-43.45703125,-49.31640625,-30.76171875
0.48828125,-43.9453125,-41.50390625,-11.71875
-11.23046875,-64.94140625,-43.9453125,-15.13671875
-48.33984375,-74.21875,-46.875,-26.3671875
-58.10546875,-49.31640625,-41.9921875,-29.296875
-27.83203125,-30.76171875,-39.55078125,-22.4609375
-6.34765625,-32.2265625,-45.41015625,-25.87890625
-19.04296875,-36.62109375,-50.78125,-33.203125
-41.9921875,-53.7109375,-57.6171875,-31.25
-41.50390625,-49.31640625,-47.36328125,-28.3203125
-25.390625,-41.9921875,-42.48046875,-35.64453125
-12.6953125,-44.43359375,-47.8515625,-39.0625
-13.18359375,-43.9453125,-52.734375,-38.57421875
-43.45703125,-53.7109375,-56.15234375,-41.50390625
-61.5234375,-59.08203125,-53.7109375,-43.45703125
-44.43359375,-50.78125,-46.875,-39.55078125
-16.6015625,-35.15625,-32.71484375,-23.4375
-17.08984375,-38.57421875,-39.55078125,-22.94921875
-52.24609375,-53.7109375,-53.7109375,-40.0390625
-77.63671875,-47.36328125,-47.36328125,-49.31640625
-53.22265625,-35.15625,-28.3203125,-31.73828125
-22.94921875,-39.0625,-26.85546875,-23.4375
-24.90234375,-53.7109375,-43.9453125,-38.0859375
-43.9453125,-59.5703125,-50.29296875,-44.921875
-61.03515625,-50.29296875,-55.6640625,-52.24609375
-47.36328125,-35.15625,-48.828125,-46.875
-25.390625,-37.59765625,-44.921875,-41.9921875
-10.7421875,-39.55078125,-46.875,-34.1796875
-13.18359375,-39.0625,-53.22265625,-16.6015625
-41.50390625,-50.29296875,-56.640625,-16.6015625
-67.3828125,-49.31640625,-37.59765625,-39.55078125
-51.7578125,-33.69140625,-22.4609375,-41.9921875
-13.18359375,-33.69140625,-26.85546875,-21.97265625
-29.296875,-58.59375,-41.015625,-30.2734375
-68.84765625,-72.265625,-49.31640625,-51.26953125
-73.73046875,-67.3828125,-46.875,-64.453125
-48.33984375,-54.6875,-44.43359375,-60.546875
-20.99609375,-56.15234375,-45.8984375,-46.875
-32.2265625,-62.5,-46.875,-47.36328125
-63.96484375,-69.82421875,-52.734375,-55.6640625
-66.89453125,-69.82421875,-47.36328125,-58.10546875
-41.9921875,-58.10546875,-36.1328125,-50.78125
-28.3203125,-54.19921875,-42.48046875,-41.015625
-40.52734375,-62.01171875,-46.875,-34.66796875
-75.1953125,-73.2421875,-49.31640625,-33.69140625
-85.9375,-69.3359375,-46.875,-39.55078125
-48.33984375,-54.6875,-39.0625,-33.203125
-15.13671875,-48.33984375,-36.62109375,-16.11328125
-13.18359375,-50.29296875,-37.59765625,-9.27734375
-39.0625,-63.96484375,-39.55078125,-15.13671875
-48.33984375,-61.5234375,-33.203125,-17.578125
-20.01953125,-44.43359375,-30.2734375,-13.671875
1.953125,-34.1796875,-32.71484375,-12.6953125
-1.46484375,-43.9453125,-39.0625,-18.5546875
-22.94921875,-52.24609375,-45.8984375,-22.4609375
-46.875,-41.9921875,-45.41015625,-30.2734375
-36.62109375,-31.73828125,-40.0390625,-34.66796875
-20.5078125,-32.2265625,-44.43359375,-37.109375
-16.6015625,-31.73828125,-46.875,-33.69140625
-35.64453125,-39.0625,-45.41015625,-23.4375
-74.21875,-51.26953125,-58.59375,-39.0625
-69.3359375,-43.45703125,-58.10546875,-49.31640625
-38.0859375,-35.15625,-49.31640625,-46.38671875
-31.25,-41.9921875,-56.640625,-43.9453125
-58.59375,-60.546875,-62.01171875,-49.8046875
-78.125,-70.80078125,-58.59375,-57.12890625
-58.59375,-52.24609375,-51.26953125,-53.7109375
-32.71484375,-41.015625,-45.41015625,-53.7109375
-26.3671875,-50.78125,-45.41015625,-50.78125
-49.31640625,-67.3828125,-48.33984375,-55.17578125
-63.96484375,-59.08203125,-40.52734375,-56.15234375
-50.78125,-44.921875,-33.69140625,-49.31640625
-34.66796875,-46.875,-38.57421875,-57.12890625
-27.34375,-51.26953125,-41.015625,-56.15234375
-49.31640625,-62.01171875,-43.45703125,-55.17578125
-84.9609375,-65.4296875,-48.828125,-62.98828125
-86.42578125,-54.19921875,-44.921875,-61.03515625
-51.7578125,-45.8984375,-38.0859375,-48.828125
-28.3203125,-41.9921875,-42.96875,-38.57421875
-43.45703125,-42.48046875,-52.24609375,-35.64453125
-72.75390625,-52.734375,-60.546875,-40.0390625
-66.40625,-50.78125,-48.828125,-40.0390625
-21.97265625,-35.64453125,-31.25,-21.484375
1.46484375,-33.69140625,-40.0390625,-14.6484375
-15.625,-50.29296875,-52.734375,-26.85546875
-41.015625,-53.7109375,-52.734375,-35.15625
-41.50390625,-40.0390625,-39.0625,-41.50390625
-33.203125,-34.66796875,-41.9921875,-54.19921875
-28.80859375,-35.64453125,-50.29296875,-60.546875
-33.69140625,-53.7109375,-49.31640625,-63.4765625
-64.94140625,-64.453125,-52.24609375,-61.5234375
-86.42578125,-52.734375,-52.24609375,-60.546875
-65.91796875,-43.9453125,-56.15234375,-61.03515625
-39.0625,-41.50390625,-62.01171875,-61.5234375
-38.0859375,-46.875,-62.01171875,-63.96484375
-71.2890625,-55.6640625,-65.91796875,-76.171875
-86.9140625,-56.640625,-62.98828125,-83.49609375
-61.5234375,-49.31640625,-54.6875,-69.82421875
-37.109375,-36.1328125,-51.26953125,-60.546875
-36.62109375,-39.55078125,-51.26953125,-52.734375
-62.5,-58.59375,-48.33984375,-46.875
-77.1484375,-60.05859375,-42.96875,-48.33984375
-54.6875,-47.36328125,-33.69140625,-43.9453125
-34.66796875,-33.203125,-28.80859375,-40.52734375
-33.203125,-29.296875,-36.62109375,-33.69140625
-32.71484375,-31.25,-26.3671875,-16.6015625
-58.59375,-38.57421875,-28.3203125,-33.203125
-67.87109375,-41.9921875,-38.57421875,-47.8515625
-36.62109375,-27.83203125,-38.0859375,-35.15625
-27.34375,-34.1796875,-52.734375,-38.0859375
-59.08203125,-53.7109375,-61.03515625,-43.45703125
-85.9375,-60.05859375,-57.12890625,-57.12890625
-70.80078125,-46.38671875,-50.29296875,-69.82421875
-42.48046875,-38.0859375,-50.78125,-71.77734375
-27.83203125,-38.0859375,-52.734375,-62.98828125
-59.08203125,-43.45703125,-60.546875,-62.01171875
-81.0546875,-47.8515625,-50.29296875,-53.22265625
-63.4765625,-35.15625,-38.0859375,-43.9453125
-48.828125,-33.203125,-51.7578125,-53.7109375
-39.55078125,-38.0859375,-53.7109375,-51.7578125
-51.26953125,-33.203125,-50.78125,-41.015625
-78.125,-44.921875,-52.734375,-41.015625
-76.66015625,-50.78125,-53.22265625,-44.43359375
-52.24609375,-41.015625,-46.875,-38.0859375
-38.0859375,-44.921875,-43.45703125,-42.96875
-47.8515625,-54.19921875,-54.19921875,-43.45703125
-77.1484375,-67.87109375,-62.01171875,-50.29296875
-68.84765625,-57.6171875,-50.78125,-50.78125
-20.99609375,-41.9921875,-39.0625,-24.4140625
-10.7421875,-38.0859375,-45.8984375,-32.71484375
-32.71484375,-39.55078125,-54.19921875,-58.59375
-63.96484375,-49.31640625,-58.10546875,-66.89453125
-68.359375,-34.66796875,-49.31640625,-72.265625
-28.80859375,-16.11328125,-47.36328125,-63.96484375
-8.7890625,-20.01953125,-55.6640625,-55.6640625
-14.16015625,-31.73828125,-53.7109375,-52.24609375
-38.0859375,-44.43359375,-53.22265625,-55.6640625
-63.96484375,-41.9921875,-56.15234375,-67.3828125
-41.50390625,-26.85546875,-54.6875,-57.12890625
-6.8359375,-7.8125,-44.43359375,-33.203125
-10.25390625,-14.16015625,-46.38671875,-29.78515625
-53.22265625,-45.8984375,-62.01171875,-42.96875
-78.125,-52.24609375,-59.5703125,-46.38671875
-53.7109375,-41.50390625,-49.31640625,-37.109375
-29.78515625,-37.59765625,-50.78125,-39.55078125
-36.62109375,-52.24609375,-58.10546875,-43.45703125
-64.453125,-56.15234375,-54.19921875,-41.9921875
-88.8671875,-50.29296875,-51.26953125,-54.6875
-70.80078125,-41.015625,-52.734375,-62.5
-47.8515625,-40.52734375,-52.24609375,-62.01171875
-46.875,-37.59765625,-49.31640625,-61.03515625
-63.4765625,-34.1796875,-45.8984375,-55.17578125
-91.30859375,-54.19921875,-51.26953125,-65.4296875
-77.1484375,-54.19921875,-53.22265625,-71.2890625
-45.41015625,-38.0859375,-51.7578125,-60.546875
-30.76171875,-40.0390625,-51.26953125,-51.7578125
-48.33984375,-44.921875,-54.19921875,-51.7578125
-79.1015625,-48.828125,-56.640625,-62.5
-61.5234375,-39.55078125,-55.17578125,-58.10546875
-28.3203125,-35.64453125,-45.8984375,-41.015625
-16.11328125,-48.828125,-42.48046875,-33.69140625
-41.9921875,-60.546875,-56.15234375,-34.66796875
-76.66015625,-63.4765625,-57.12890625,-40.52734375
-64.453125,-41.015625,-41.015625,-38.0859375
-35.64453125,-23.4375,-37.59765625,-38.57421875
-29.78515625,-43.9453125,-46.875,-49.31640625
-30.2734375,-50.78125,-35.15625,-36.1328125
-51.26953125,-42.96875,-30.76171875,-35.15625
-70.3125,-38.0859375,-50.78125,-62.01171875
-43.45703125,-30.2734375,-49.31640625,-65.4296875
-27.34375,-38.0859375,-43.9453125,-57.12890625
-43.9453125,-44.921875,-52.734375,-54.19921875
-69.82421875,-52.24609375,-59.08203125,-61.03515625
-72.75390625,-44.921875,-45.41015625,-66.40625
-54.19921875,-30.76171875,-44.921875,-62.98828125
-32.2265625,-30.76171875,-51.7578125,-63.96484375
-37.109375,-42.96875,-52.24609375,-63.4765625
-65.91796875,-51.7578125,-50.29296875,-65.91796875
-50.29296875,-33.69140625,-26.3671875,-45.8984375
-27.34375,-27.34375,-32.71484375,-39.55078125
-25.390625,-30.76171875,-53.7109375,-57.12890625
-20.5078125,-36.1328125,-49.31640625,-51.7578125
-46.875,-48.828125,-47.36328125,-47.36328125
-71.2890625,-45.8984375,-52.734375,-51.26953125
-50.29296875,-35.15625,-49.8046875,-48.33984375
-31.25,-41.015625,-43.9453125,-43.45703125
-33.69140625,-55.6640625,-46.875,-44.921875
-57.12890625,-62.01171875,-57.6171875,-47.36328125
-81.54296875,-65.91796875,-63.4765625,-52.24609375
-45.8984375,-41.50390625,-38.0859375,-38.57421875
-14.16015625,-19.04296875,-29.78515625,-33.69140625
-26.3671875,-39.55078125,-52.734375,-43.9453125
-47.36328125,-51.26953125,-58.59375,-37.59765625
-70.3125,-42.48046875,-49.31640625,-41.015625
-60.546875,-39.0625,-42.48046875,-46.38671875
-40.0390625,-37.59765625,-47.8515625,-45.41015625
-28.80859375,-39.0625,-54.19921875,-39.55078125
-35.64453125,-45.8984375,-48.828125,-32.71484375
-65.91796875,-53.7109375,-43.9453125,-44.43359375
-61.5234375,-41.50390625,-44.921875,-54.6875
-33.203125,-32.2265625,-45.41015625,-49.8046875
-14.16015625,-36.62109375,-35.15625,-40.52734375
-43.45703125,-57.12890625,-42.96875,-52.734375
-81.0546875,-70.80078125,-55.6640625,-67.3828125
-64.94140625,-51.7578125,-52.24609375,-58.10546875
-41.50390625,-42.48046875,-48.828125,-56.640625
-34.1796875,-50.29296875,-53.7109375,-61.03515625
-49.8046875,-57.6171875,-59.5703125,-62.98828125
-68.359375,-46.875,-55.6640625,-56.15234375
-61.03515625,-38.57421875,-48.828125,-52.24609375
-36.62109375,-41.9921875,-50.29296875,-62.01171875
-19.04296875,-38.57421875,-57.6171875,-61.03515625
-25.390625,-44.43359375,-55.17578125,-44.921875
-53.22265625,-56.640625,-49.8046875,-45.41015625
-65.4296875,-50.78125,-47.36328125,-58.59375
-35.15625,-40.0390625,-41.50390625,-52.734375
-15.625,-46.38671875,-49.31640625,-53.22265625
-29.78515625,-56.15234375,-56.15234375,-56.640625
-59.5703125,-63.96484375,-55.17578125,-62.01171875
-66.89453125,-58.10546875,-47.8515625,-62.5
-40.52734375,-41.015625,-39.0625,-56.640625
-21.484375,-38.57421875,-33.203125,-49.8046875
-28.80859375,-51.7578125,-43.9453125,-47.8515625
-61.03515625,-53.22265625,-51.7578125,-59.08203125
-63.4765625,-37.109375,-28.80859375,-52.24609375
-45.8984375,-41.50390625,-30.2734375,-49.31640625
-34.1796875,-47.36328125,-45.41015625,-57.12890625
-31.73828125,-43.9453125,-47.8515625,-53.7109375
-60.546875,-53.22265625,-53.22265625,-54.6875
-80.56640625,-55.6640625,-51.7578125,-56.15234375
-54.6875,-43.9453125,-49.31640625,-42.48046875
-27.83203125,-44.43359375,-50.29296875,-30.76171875
-29.78515625,-56.640625,-56.15234375,-32.71484375
-57.12890625,-62.5,-60.05859375,-38.0859375
-76.66015625,-54.6875,-51.26953125,-45.41015625
-52.734375,-35.15625,-45.8984375,-36.1328125
-29.296875,-38.0859375,-48.828125,-31.73828125
-17.578125,-55.17578125,-52.734375,-41.015625
-37.59765625,-54.19921875,-50.29296875,-51.7578125
-66.89453125,-52.734375,-42.48046875,-59.08203125
-48.33984375,-42.96875,-38.57421875,-50.78125
-20.99609375,-39.0625,-40.52734375,-47.36328125
-17.08984375,-46.875,-46.38671875,-45.41015625
-43.45703125,-51.26953125,-53.22265625,-42.48046875
-69.82421875,-56.15234375,-47.8515625,-45.8984375
-56.640625,-48.33984375,-43.45703125,-41.015625
-25.87890625,-33.69140625,-43.45703125,-34.66796875
-16.6015625,-29.78515625,-49.8046875,-40.0390625
-37.59765625,-41.9921875,-50.78125,-42.48046875
-67.3828125,-56.15234375,-53.22265625,-45.8984375
-56.640625,-41.015625,-48.33984375,-40.0390625
-31.73828125,-28.80859375,-32.2265625,-31.25
-33.69140625,-44.43359375,-43.9453125,-42.96875
-54.19921875,-56.15234375,-54.19921875,-48.828125
-75.1953125,-66.40625,-45.8984375,-39.55078125
-63.4765625,-50.29296875,-31.25,-34.66796875
-36.1328125,-33.203125,-35.15625,-38.0859375
-20.5078125,-42.48046875,-42.96875,-35.64453125
-38.57421875,-58.59375,-50.78125,-42.48046875
-67.3828125,-60.546875,-53.7109375,-45.8984375
-76.171875,-58.59375,-53.7109375,-45.8984375
-58.59375,-60.05859375,-57.6171875,-52.734375
-22.4609375,-40.52734375,-41.50390625,-34.66796875
-27.83203125,-42.96875,-39.55078125,-31.73828125
-76.66015625,-67.87109375,-60.05859375,-56.640625
-88.8671875,-57.12890625,-59.08203125,-63.96484375
-56.640625,-38.57421875,-48.828125,-56.15234375
-32.71484375,-36.62109375,-41.9921875,-45.41015625
-33.203125,-47.36328125,-49.8046875,-44.921875
-52.24609375,-59.08203125,-52.734375,-46.38671875
-66.40625,-55.17578125,-43.9453125,-51.7578125
-38.57421875,-37.109375,-44.921875,-44.43359375
-22.94921875,-44.921875,-58.59375,-42.96875
-26.3671875,-64.453125,-60.546875,-43.45703125
-43.45703125,-61.03515625,-45.41015625,-37.59765625
-68.84765625,-58.59375,-46.38671875,-49.8046875
-53.7109375,-55.17578125,-51.26953125,-60.05859375
-34.66796875,-49.8046875,-47.36328125,-58.59375
-37.59765625,-56.640625,-52.24609375,-56.15234375
-61.03515625,-67.3828125,-63.96484375,-62.5
-80.078125,-63.4765625,-60.546875,-68.359375
-55.17578125,-46.38671875,-49.8046875,-57.6171875
-28.3203125,-43.9453125,-45.8984375,-50.29296875
-27.34375,-45.8984375,-46.875,-52.24609375
-51.7578125,-52.734375,-56.640625,-56.15234375
-75.68359375,-63.4765625,-53.22265625,-53.7109375
-46.875,-49.31640625,-35.15625,-42.48046875
-21.484375,-41.9921875,-35.15625,-42.48046875
-19.04296875,-42.96875,-43.45703125,-40.52734375
-42.96875,-52.734375,-54.19921875,-42.96875
-69.82421875,-62.01171875,-51.7578125,-51.26953125
-53.22265625,-50.78125,-37.59765625,-51.26953125
-21.484375,-33.203125,-33.69140625,-44.921875
-11.23046875,-34.66796875,-37.59765625,-43.9453125
-29.78515625,-43.9453125,-42.96875,-47.8515625
-64.453125,-49.8046875,-55.17578125,-58.10546875
-68.359375,-49.31640625,-56.15234375,-60.05859375
-30.76171875,-31.25,-42.96875,-40.52734375
-14.6484375,-26.85546875,-41.9921875,-29.78515625
-38.0859375,-46.38671875,-54.6875,-41.015625
-67.87109375,-57.12890625,-56.15234375,-47.8515625
-70.3125,-46.38671875,-51.7578125,-53.22265625
-46.875,-35.15625,-57.12890625,-60.05859375
-27.34375,-37.59765625,-48.828125,-57.6171875
-35.15625,-50.78125,-44.921875,-53.7109375
-62.5,-59.08203125,-49.8046875,-50.29296875
-69.82421875,-50.29296875,-41.9921875,-52.734375
-42.96875,-27.83203125,-34.1796875,-50.29296875
-17.578125,-25.87890625,-30.76171875,-33.69140625
-25.390625,-40.0390625,-34.66796875,-31.73828125
-63.4765625,-45.41015625,-47.8515625,-52.24609375
-85.44921875,-50.78125,-46.875,-62.01171875
-58.59375,-43.45703125,-42.96875,-55.6640625
-27.34375,-37.109375,-46.38671875,-48.828125
-35.64453125,-58.10546875,-57.6171875,-50.29296875
-67.87109375,-64.453125,-59.5703125,-57.6171875
-73.73046875,-48.33984375,-46.38671875,-57.6171875
-51.26953125,-38.57421875,-41.015625,-48.828125
-33.69140625,-34.1796875,-48.828125,-45.8984375
-24.90234375,-32.2265625,-54.6875,-39.0625
-41.9921875,-34.66796875,-43.9453125,-26.85546875
-74.21875,-44.921875,-42.96875,-42.48046875
-52.734375,-34.66796875,-42.48046875,-42.96875
-23.92578125,-23.92578125,-42.96875,-35.64453125
-28.3203125,-40.0390625,-54.19921875,-41.9921875
-57.6171875,-55.17578125,-53.22265625,-49.31640625
-89.35546875,-55.17578125,-48.828125,-68.84765625
-69.82421875,-39.55078125,-45.8984375,-59.5703125
-38.57421875,-22.4609375,-44.43359375,-44.43359375
-30.76171875,-39.0625,-52.24609375,-46.875
-52.24609375,-62.98828125,-63.96484375,-57.12890625
-62.98828125,-45.8984375,-49.31640625,-47.8515625
-47.36328125,-27.83203125,-33.69140625,-39.0625
-39.0625,-38.0859375,-40.52734375,-51.26953125
-29.78515625,-46.38671875,-47.36328125,-48.828125
-41.9921875,-53.22265625,-54.6875,-47.8515625
-66.40625,-49.8046875,-52.24609375,-53.22265625
-59.5703125,-41.50390625,-44.43359375,-58.10546875
-27.83203125,-36.62109375,-44.43359375,-49.8046875
-12.20703125,-37.109375,-49.8046875,-44.43359375
-28.3203125,-48.828125,-51.7578125,-52.734375
-63.96484375,-61.03515625,-54.6875,-58.10546875
-68.359375,-45.8984375,-52.24609375,-59.5703125
-41.015625,-30.76171875,-44.43359375,-58.59375
-24.90234375,-40.52734375,-46.875,-54.6875
-40.52734375,-61.5234375,-53.7109375,-55.6640625
-76.171875,-73.2421875,-49.8046875,-59.08203125
-67.87109375,-51.26953125,-36.62109375,-50.29296875
-40.52734375,-38.57421875,-38.57421875,-46.875
-29.78515625,-47.36328125,-50.78125,-44.43359375
-36.62109375,-51.26953125,-55.6640625,-39.55078125
-68.84765625,-52.734375,-52.24609375,-45.41015625
-78.125,-51.7578125,-40.0390625,-49.8046875
-46.875,-40.52734375,-31.73828125,-43.45703125
-20.01953125,-31.73828125,-33.203125,-38.57421875
-24.4140625,-38.57421875,-41.015625,-36.62109375
-51.7578125,-51.7578125,-44.921875,-43.9453125
-69.82421875,-53.22265625,-44.43359375,-59.08203125
-35.64453125,-34.66796875,-28.3203125,-38.57421875
-2.9296875,-31.25,-22.94921875,-23.92578125
-19.53125,-49.31640625,-49.31640625,-41.50390625
-52.734375,-59.08203125,-60.05859375,-47.36328125
-75.1953125,-62.5,-49.8046875,-56.640625
-48.828125,-54.19921875,-37.59765625,-54.19921875
-28.3203125,-45.41015625,-44.43359375,-50.29296875
-34.66796875,-55.17578125,-57.6171875,-53.7109375
-55.17578125,-66.89453125,-64.453125,-52.24609375
-75.1953125,-59.08203125,-58.59375,-54.6875
-58.10546875,-43.9453125,-42.48046875,-51.26953125
-25.390625,-40.52734375,-38.0859375,-37.109375
-11.71875,-41.9921875,-39.55078125,-27.83203125
-36.1328125,-47.8515625,-37.59765625,-33.203125
-67.87109375,-56.15234375,-44.921875,-44.921875
-54.6875,-45.41015625,-42.96875,-45.8984375
-27.83203125,-36.62109375,-33.203125,-39.55078125
-27.83203125,-44.43359375,-44.43359375,-45.8984375
-51.7578125,-53.22265625,-51.7578125,-57.12890625
-79.1015625,-62.98828125,-54.6875,-62.98828125
-67.3828125,-52.734375,-51.7578125,-58.59375
-40.0390625,-28.3203125,-42.48046875,-54.6875
-38.57421875,-32.71484375,-47.8515625,-59.08203125
-61.03515625,-58.10546875,-54.19921875,-60.546875
-82.03125,-68.359375,-56.15234375,-62.01171875
-72.75390625,-60.05859375,-51.7578125,-55.6640625
-42.96875,-46.875,-48.33984375,-46.38671875
-36.62109375,-46.38671875,-55.6640625,-46.38671875
-52.24609375,-59.5703125,-57.6171875,-49.31640625
-81.0546875,-69.3359375,-59.08203125,-56.15234375
-83.0078125,-48.33984375,-53.7109375,-50.78125
-46.875,-33.203125,-44.43359375,-31.73828125
-29.78515625,-42.48046875,-42.96875,-29.78515625
-44.43359375,-46.875,-50.78125,-44.921875
-68.84765625,-57.12890625,-54.19921875,-42.48046875
-66.89453125,-51.7578125,-38.57421875,-28.80859375
-38.0859375,-33.203125,-38.57421875,-27.83203125
-3.41796875,-33.203125,-51.26953125,-13.18359375
-20.5078125,-52.24609375,-51.7578125,-23.92578125
-78.125,-67.87109375,-53.7109375,-58.59375
-87.40234375,-56.640625,-44.921875,-59.5703125
-54.19921875,-43.45703125,-30.76171875,-49.31640625
-37.109375,-47.36328125,-33.203125,-58.59375
-42.48046875,-55.6640625,-42.96875,-66.40625
-69.82421875,-62.98828125,-46.875,-67.87109375
-80.078125,-52.24609375,-43.45703125,-76.171875
-47.8515625,-34.66796875,-33.203125,-58.59375
-20.5078125,-37.59765625,-28.3203125,-43.9453125
-27.83203125,-49.31640625,-42.96875,-50.29296875
-61.03515625,-59.5703125,-50.78125,-51.26953125
-85.44921875,-58.10546875,-55.17578125,-61.03515625
-64.94140625,-51.7578125,-49.8046875,-60.546875
-35.15625,-47.36328125,-48.828125,-51.7578125
-35.64453125,-52.24609375,-54.6875,-53.7109375
-60.546875,-63.96484375,-56.15234375,-53.7109375
-86.9140625,-66.89453125,-52.734375,-60.05859375
-73.73046875,-50.29296875,-43.45703125,-57.6171875
-39.0625,-30.2734375,-44.921875,-48.33984375
-26.3671875,-37.59765625,-42.48046875,-40.0390625
-49.31640625,-53.22265625,-41.9921875,-40.52734375
-78.61328125,-53.7109375,-47.36328125,-54.6875
-67.87109375,-50.78125,-42.48046875,-53.22265625
-40.0390625,-47.36328125,-41.9921875,-46.38671875
-31.25,-53.22265625,-47.36328125,-50.78125
-55.17578125,-67.87109375,-46.875,-54.6875
-87.890625,-72.265625,-53.22265625,-56.640625
-80.078125,-52.734375,-57.12890625,-60.546875
-53.7109375,-41.015625,-55.6640625,-60.05859375
-35.64453125,-48.828125,-57.12890625,-54.19921875
-56.15234375,-57.6171875,-58.10546875,-59.5703125
-93.75,-70.3125,-57.12890625,-74.70703125
-83.984375,-62.01171875,-47.36328125,-75.68359375
-50.78125,-46.875,-39.55078125,-60.05859375
-31.25,-48.33984375,-44.43359375,-48.33984375
-43.9453125,-50.78125,-51.7578125,-50.78125
-74.21875,-55.6640625,-55.17578125,-53.7109375
-79.1015625,-60.546875,-51.7578125,-49.31640625
-53.7109375,-52.24609375,-44.43359375,-43.9453125
-33.69140625,-44.921875,-40.52734375,-36.62109375
-43.45703125,-51.7578125,-43.9453125,-33.69140625
-72.75390625,-53.22265625,-50.78125,-42.48046875
-82.03125,-41.50390625,-42.96875,-52.24609375
-58.59375,-42.96875,-43.9453125,-62.98828125
-37.59765625,-44.43359375,-53.7109375,-63.96484375
-38.0859375,-46.875,-56.15234375,-52.734375
-53.7109375,-49.31640625,-52.24609375,-46.38671875
-78.125,-48.828125,-53.7109375,-57.12890625
-60.05859375,-42.48046875,-53.7109375,-55.6640625
-27.34375,-33.203125,-41.015625,-41.50390625
-32.71484375,-39.0625,-45.41015625,-36.62109375
-63.96484375,-45.41015625,-51.26953125,-38.57421875
-89.84375,-52.734375,-45.41015625,-52.24609375
-57.6171875,-37.59765625,-41.015625,-47.36328125
-4.8828125,-20.01953125,-47.8515625,-20.5078125
-20.01953125,-43.9453125,-55.17578125,-34.1796875
-89.35546875,-70.3125,-49.31640625,-77.1484375
-113.76953125,-68.359375,-39.55078125,-82.03125
-83.0078125,-48.828125,-37.109375,-75.68359375
-65.91796875,-43.45703125,-40.52734375,-83.0078125
-65.91796875,-47.36328125,-44.43359375,-81.0546875
-92.7734375,-58.10546875,-49.8046875,-88.37890625
-122.0703125,-66.40625,-43.45703125,-98.6328125
-109.86328125,-62.01171875,-40.0390625,-103.02734375
-74.21875,-51.26953125,-46.38671875,-89.35546875
-56.640625,-53.7109375,-55.17578125,-79.1015625
-68.84765625,-61.5234375,-50.29296875,-77.63671875
-95.703125,-66.40625,-49.8046875,-83.49609375
-85.44921875,-61.03515625,-45.41015625,-78.61328125
-43.45703125,-45.8984375,-32.2265625,-56.15234375
-22.4609375,-40.0390625,-33.69140625,-45.41015625
-46.875,-50.78125,-47.8515625,-50.29296875
-75.1953125,-55.6640625,-63.96484375,-55.6640625
-62.5,-36.62109375,-62.98828125,-54.6875
-35.15625,-28.80859375,-44.43359375,-48.33984375
-20.01953125,-36.62109375,-39.0625,-40.52734375
-37.109375,-46.875,-48.33984375,-45.41015625
-59.08203125,-49.8046875,-50.78125,-46.875
-53.22265625,-39.0625,-43.45703125,-49.31640625
-30.2734375,-38.57421875,-41.015625,-49.31640625
-9.27734375,-38.0859375,-40.52734375,-40.0390625
-25.390625,-37.109375,-46.875,-41.9921875
-61.5234375,-52.734375,-53.7109375,-51.7578125
-65.4296875,-45.8984375,-43.9453125,-53.22265625
-31.25,-25.87890625,-35.64453125,-41.015625
-11.71875,-19.04296875,-41.015625,-33.203125
-26.3671875,-13.671875,-47.36328125,-35.64453125
-57.12890625,2.9296875,-50.78125,-37.59765625
-62.5,29.296875,-54.19921875,-34.66796875
-25.87890625,62.98828125,-47.8515625,-20.5078125
-23.4375,85.44921875,-46.875,-36.1328125
-36.1328125,84.9609375,-49.8046875,-44.43359375
-55.6640625,82.03125,-40.0390625,-34.1796875
-81.0546875,88.37890625,-40.52734375,-53.7109375
-54.19921875,96.6796875,-40.52734375,-56.15234375
-17.578125,103.515625,-41.015625,-42.48046875
-21.484375,97.65625,-55.6640625,-39.0625
-53.7109375,77.63671875,-61.03515625,-43.45703125
-67.87109375,78.125,-51.26953125,-46.875
-42.48046875,93.26171875,-38.57421875,-36.1328125
-15.13671875,96.19140625,-35.15625,-33.203125
-13.671875,85.9375,-43.9453125,-33.69140625
-52.24609375,70.3125,-56.15234375,-40.52734375
-73.73046875,64.453125,-44.43359375,-43.45703125
-45.8984375,74.70703125,-27.83203125,-35.15625
-29.78515625,74.21875,-40.52734375,-43.9453125
-23.4375,63.4765625,-49.31640625,-45.8984375
-47.8515625,48.828125,-56.15234375,-49.31640625
-69.3359375,45.8984375,-57.6171875,-58.10546875
-54.19921875,56.15234375,-46.875,-55.17578125
-23.4375,69.3359375,-41.9921875,-45.41015625
-4.39453125,67.87109375,-47.36328125,-36.1328125
-30.2734375,45.41015625,-57.6171875,-39.0625
-62.01171875,41.015625,-65.91796875,-41.015625
-52.734375,50.29296875,-55.17578125,-37.59765625
-27.83203125,60.05859375,-42.96875,-34.1796875
-14.6484375,108.3984375,-41.9921875,-34.66796875
-29.78515625,169.43359375,-47.8515625,-41.015625
-62.5,209.9609375,-53.22265625,-41.9921875
-62.01171875,252.44140625,-42.48046875,-40.0390625
-37.109375,279.78515625,-37.59765625,-41.9921875
-22.4609375,285.64453125,-45.8984375,-40.0390625
-27.34375,283.203125,-49.31640625,-36.1328125
-58.10546875,280.2734375,-50.78125,-41.015625
-71.2890625,284.66796875,-52.24609375,-52.24609375
-42.96875,295.8984375,-48.33984375,-47.36328125
-22.4609375,303.7109375,-41.9921875,-37.109375
-40.52734375,280.76171875,-47.8515625,-46.38671875
-79.1015625,244.62890625,-53.7109375,-62.01171875
-89.35546875,240.72265625,-48.828125,-68.84765625
-58.10546875,244.140625,-44.921875,-62.5
-32.2265625,235.3515625,-44.921875,-55.17578125
-38.57421875,219.23828125,-50.78125,-52.24609375
-66.89453125,194.82421875,-58.59375,-51.7578125
-79.1015625,190.4296875,-51.7578125,-56.640625
-54.6875,192.3828125,-43.9453125,-55.17578125
-28.3203125,187.98828125,-44.43359375,-53.7109375
-30.76171875,177.24609375,-43.9453125,-48.33984375
-56.15234375,158.69140625,-49.8046875,-46.875
-70.80078125,148.4375,-47.36328125,-49.31640625
-47.8515625,153.3203125,-40.52734375,-41.9921875
-19.53125,162.109375,-41.015625,-32.2265625
6.8359375,165.0390625,-28.80859375,-5.37109375
-17.08984375,139.16015625,-31.25,-12.20703125
-58.10546875,107.91015625,-44.921875,-47.36328125
-39.55078125,115.234375,-43.9453125,-46.875
-20.5078125,116.2109375,-43.45703125,-45.8984375
-20.99609375,101.07421875,-49.31640625,-50.78125
-49.31640625,81.54296875,-56.640625,-51.26953125
-72.75390625,75.68359375,-52.734375,-52.24609375
-51.26953125,98.14453125,-39.0625,-46.38671875
-27.34375,91.30859375,-38.0859375,-40.52734375
-26.85546875,55.6640625,-47.36328125,-43.45703125
-33.69140625,51.7578125,-34.66796875,-36.1328125
-58.59375,49.8046875,-26.85546875,-39.55078125
-67.87109375,47.36328125,-38.0859375,-54.6875
-38.0859375,59.08203125,-35.15625,-47.36328125
-19.53125,49.8046875,-38.57421875,-38.57421875
-47.8515625,22.4609375,-53.7109375,-45.41015625
-83.0078125,9.765625,-59.5703125,-62.5
-65.91796875,25.87890625,-51.26953125,-63.96484375
-35.15625,36.62109375,-42.96875,-54.6875
-23.4375,34.1796875,-49.8046875,-48.33984375
-42.48046875,5.859375,-59.5703125,-50.78125
-74.21875,-16.6015625,-55.6640625,-55.6640625
-64.453125,2.9296875,-35.64453125,-48.33984375
-33.203125,14.6484375,-29.78515625,-41.50390625
-20.99609375,6.8359375,-46.875,-45.8984375
-34.1796875,-6.8359375,-56.15234375,-46.875
-61.03515625,-19.53125,-60.546875,-50.78125
-63.4765625,-12.20703125,-58.59375,-51.7578125
-53.7109375,-3.90625,-48.33984375,-57.12890625
-41.9921875,-8.30078125,-35.64453125,-57.6171875
-38.0859375,-17.578125,-38.57421875,-49.8046875
-61.5234375,-14.6484375,-47.8515625,-55.6640625
-72.75390625,-14.16015625,-44.43359375,-61.5234375
-51.7578125,-18.5546875,-47.36328125,-63.4765625
-30.2734375,-16.6015625,-46.875,-56.15234375
-31.73828125,-28.3203125,-45.8984375,-49.8046875
-58.10546875,-36.1328125,-52.24609375,-60.546875
-66.40625,-30.2734375,-43.45703125,-60.546875
-38.0859375,-22.94921875,-35.64453125,-47.36328125
-21.97265625,-19.53125,-42.48046875,-48.33984375
-24.90234375,-27.83203125,-53.7109375,-50.29296875
-46.38671875,-39.55078125,-56.640625,-55.17578125
-68.84765625,-34.66796875,-50.29296875,-59.08203125
-48.33984375,-14.6484375,-45.41015625,-50.78125
-19.04296875,-10.25390625,-43.45703125,-50.29296875
-15.13671875,-32.71484375,-38.0859375,-47.36328125
-48.33984375,-50.78125,-47.36328125,-48.33984375
-79.58984375,-46.38671875,-55.6640625,-64.453125
-59.5703125,-27.34375,-47.36328125,-61.5234375
-32.71484375,-19.53125,-44.43359375,-50.78125
-27.34375,-25.87890625,-46.875,-47.36328125
-49.8046875,-43.9453125,-50.29296875,-49.31640625
-76.66015625,-49.31640625,-56.640625,-58.10546875
-65.91796875,-35.64453125,-52.24609375,-63.4765625
-40.52734375,-29.296875,-49.8046875,-59.5703125
-32.2265625,-25.390625,-53.22265625,-54.6875
-54.19921875,-38.0859375,-47.8515625,-55.17578125
-77.63671875,-48.33984375,-42.96875,-56.15234375
-64.94140625,-35.64453125,-44.921875,-58.10546875
-40.0390625,-33.203125,-43.9453125,-57.12890625
-27.83203125,-37.109375,-41.50390625,-46.875
-49.31640625,-50.29296875,-38.57421875,-45.41015625
-85.44921875,-59.5703125,-43.9453125,-55.6640625
-75.68359375,-36.1328125,-38.0859375,-52.24609375
-45.8984375,-24.90234375,-32.71484375,-42.48046875
-34.1796875,-38.57421875,-43.45703125,-43.45703125
-46.38671875,-56.640625,-45.8984375,-46.875
-67.3828125,-52.24609375,-43.9453125,-52.24609375
-65.91796875,-40.52734375,-41.015625,-56.640625
-34.66796875,-35.64453125,-38.57421875,-50.29296875
-18.06640625,-30.76171875,-41.015625,-45.41015625
-40.52734375,-40.52734375,-48.828125,-46.875
-75.68359375,-53.22265625,-52.734375,-53.7109375
-74.70703125,-44.921875,-43.45703125,-55.6640625
-42.96875,-34.66796875,-47.36328125,-47.36328125
-18.06640625,-41.015625,-51.26953125,-39.0625
-24.4140625,-50.78125,-53.22265625,-35.15625
-62.01171875,-66.40625,-63.4765625,-46.38671875
-83.984375,-56.15234375,-52.24609375,-58.59375
-49.8046875,-33.203125,-35.64453125,-57.6171875
-20.99609375,-42.96875,-37.59765625,-57.12890625
-37.109375,-60.546875,-53.22265625,-62.5
-62.01171875,-72.265625,-62.5,-61.5234375
-78.125,-67.87109375,-59.5703125,-65.91796875
-60.05859375,-50.78125,-45.8984375,-63.96484375
-38.57421875,-56.640625,-48.33984375,-59.5703125
-41.50390625,-70.3125,-62.01171875,-57.12890625
-69.3359375,-69.82421875,-62.5,-60.546875
-92.7734375,-62.01171875,-60.546875,-68.84765625
-71.2890625,-55.17578125,-58.10546875,-63.96484375
-36.62109375,-48.828125,-50.78125,-55.6640625
-26.85546875,-41.015625,-42.48046875,-49.31640625
-55.6640625,-52.24609375,-47.8515625,-49.31640625
-86.9140625,-66.40625,-53.22265625,-60.546875
-58.59375,-52.24609375,-43.9453125,-57.12890625
-17.578125,-41.50390625,-41.50390625,-49.31640625
-14.6484375,-48.828125,-52.24609375,-47.36328125
-33.69140625,-59.08203125,-49.31640625,-42.48046875
-60.546875,-65.91796875,-45.41015625,-47.8515625
-56.640625,-52.24609375,-48.828125,-53.7109375
-33.69140625,-41.015625,-45.41015625,-46.875
-26.85546875,-57.6171875,-46.38671875,-41.015625
-48.33984375,-73.73046875,-51.7578125,-38.0859375
-77.63671875,-71.2890625,-50.78125,-41.9921875
-70.80078125,-57.12890625,-43.45703125,-44.921875
-50.29296875,-61.03515625,-37.59765625,-53.22265625
-30.76171875,-65.4296875,-30.2734375,-44.921875
-35.15625,-62.98828125,-28.80859375,-37.109375
-75.1953125,-83.984375,-41.50390625,-58.59375
-85.9375,-106.4453125,-40.52734375,-65.91796875
-60.05859375,-161.1328125,-47.36328125,-62.98828125
-42.48046875,-233.88671875,-56.15234375,-59.08203125
-53.7109375,-277.34375,-57.12890625,-58.10546875
-77.1484375,-297.36328125,-55.17578125,-59.5703125
-84.47265625,-297.8515625,-44.43359375,-73.73046875
-59.5703125,-281.73828125,-35.15625,-72.75390625
-42.96875,-279.78515625,-41.50390625,-58.10546875
-47.8515625,-291.50390625,-45.8984375,-50.78125
-51.7578125,-279.296875,-28.3203125,-29.296875
-66.89453125,-275.87890625,-38.57421875,-39.55078125
-52.734375,-275.390625,-56.15234375,-48.33984375
-17.578125,-259.765625,-47.8515625,-29.78515625
-16.6015625,-256.34765625,-46.38671875,-18.5546875
-59.5703125,-269.53125,-57.6171875,-31.73828125
-78.125,-262.6953125,-55.17578125,-47.8515625
-44.921875,-235.83984375,-44.921875,-38.57421875
-18.5546875,-214.35546875,-42.96875,-20.5078125
-22.4609375,-208.984375,-47.8515625,-25.390625
-59.08203125,-215.33203125,-60.546875,-53.22265625
-70.80078125,-202.1484375,-54.6875,-52.734375
-35.64453125,-175.29296875,-41.015625,-35.64453125
-20.99609375,-173.828125,-54.6875,-45.8984375
-17.08984375,-171.38671875,-67.3828125,-39.55078125
-38.0859375,-172.8515625,-71.2890625,-42.96875
-61.03515625,-171.38671875,-65.4296875,-55.17578125
-41.015625,-152.34375,-56.640625,-50.29296875
-13.18359375,-142.08984375,-53.22265625,-48.33984375
-6.34765625,-144.53125,-51.26953125,-43.45703125
-27.83203125,-149.90234375,-55.6640625,-40.52734375
-52.734375,-141.6015625,-55.6640625,-46.875
-38.57421875,-124.51171875,-47.8515625,-42.96875
-6.34765625,-119.140625,-40.0390625,-29.78515625
-5.859375,-126.953125,-48.828125,-29.78515625
-34.1796875,-138.18359375,-56.15234375,-32.71484375
-61.5234375,-139.16015625,-55.17578125,-43.45703125
-54.19921875,-121.58203125,-51.7578125,-51.7578125
-25.87890625,-110.3515625,-50.29296875,-45.41015625
-11.71875,-120.60546875,-65.4296875,-40.0390625
-22.4609375,-120.1171875,-64.94140625,-30.2734375
-51.7578125,-119.140625,-62.98828125,-38.57421875
-60.546875,-112.3046875,-68.84765625,-53.7109375
-32.2265625,-89.84375,-65.91796875,-51.7578125
-9.765625,-85.44921875,-60.546875,-43.9453125
-26.3671875,-104.00390625,-62.5,-46.875
-70.3125,-123.53515625,-73.2421875,-66.40625
-76.66015625,-107.91015625,-65.91796875,-76.171875
-48.33984375,-80.56640625,-51.7578125,-70.80078125
-24.4140625,-78.61328125,-48.33984375,-57.6171875
-36.1328125,-87.40234375,-55.17578125,-58.59375
-73.73046875,-101.07421875,-58.59375,-67.87109375
-86.42578125,-101.07421875,-58.10546875,-71.77734375
-60.05859375,-88.37890625,-52.24609375,-61.5234375
-37.59765625,-87.890625,-51.7578125,-61.5234375
-41.50390625,-83.49609375,-56.640625,-54.6875
-57.12890625,-78.61328125,-55.17578125,-35.15625
-76.66015625,-87.40234375,-56.640625,-45.41015625
-57.12890625,-78.61328125,-57.12890625,-52.24609375
-19.53125,-61.5234375,-52.734375,-37.109375
-12.20703125,-65.91796875,-55.17578125,-30.2734375
-41.50390625,-83.984375,-59.5703125,-33.69140625
-70.3125,-92.28515625,-54.19921875,-42.96875
-48.33984375,-73.73046875,-53.22265625,-40.52734375
-24.4140625,-59.5703125,-58.59375,-42.96875
-25.390625,-70.3125,-59.5703125,-41.9921875
-53.7109375,-85.9375,-61.03515625,-46.875
-64.94140625,-69.82421875,-47.8515625,-50.29296875
-40.52734375,-58.10546875,-40.52734375,-40.52734375
-27.83203125,-63.96484375,-53.22265625,-46.875
-21.97265625,-62.01171875,-56.15234375,-41.015625
-34.66796875,-66.40625,-48.33984375,-27.83203125
-58.59375,-68.84765625,-43.9453125,-38.57421875
-49.31640625,-53.7109375,-45.8984375,-52.734375
-23.4375,-37.109375,-41.015625,-43.45703125
-17.578125,-48.828125,-44.43359375,-33.69140625
-36.1328125,-63.96484375,-49.8046875,-35.64453125
-67.3828125,-65.91796875,-54.19921875,-51.7578125
-58.10546875,-52.24609375,-48.828125,-54.19921875
-32.71484375,-32.2265625,-44.43359375,-45.8984375
-28.3203125,-47.36328125,-54.6875,-45.8984375
-50.29296875,-76.66015625,-59.08203125,-53.7109375
-68.359375,-71.77734375,-47.8515625,-50.78125
-52.24609375,-47.36328125,-34.66796875,-39.55078125
-31.25,-38.0859375,-40.52734375,-43.9453125
-21.484375,-41.50390625,-51.7578125,-52.734375
-30.2734375,-54.6875,-53.7109375,-47.8515625
-52.24609375,-58.10546875,-51.7578125,-40.0390625
-58.10546875,-52.24609375,-47.8515625,-47.8515625
-31.25,-47.36328125,-38.57421875,-42.48046875
-5.37109375,-44.921875,-36.62109375,-32.2265625
-18.06640625,-40.0390625,-48.33984375,-28.80859375
-53.22265625,-53.7109375,-56.640625,-38.0859375
-62.5,-61.03515625,-48.828125,-46.875
-34.66796875,-47.36328125,-37.109375,-30.76171875
-18.5546875,-42.48046875,-39.55078125,-24.90234375
-38.57421875,-52.734375,-53.22265625,-38.57421875
-70.3125,-63.96484375,-59.08203125,-43.9453125
-72.265625,-55.6640625,-42.96875,-40.0390625
-46.38671875,-46.875,-32.71484375,-36.1328125
-32.71484375,-47.36328125,-41.9921875,-41.015625
-35.64453125,-54.19921875,-47.8515625,-43.9453125
-54.6875,-56.15234375,-46.38671875,-38.57421875
-73.2421875,-49.31640625,-45.41015625,-45.41015625
-52.734375,-48.828125,-41.50390625,-47.36328125
-25.87890625,-48.33984375,-34.1796875,-32.71484375
-28.3203125,-54.19921875,-38.57421875,-23.92578125
-57.12890625,-64.94140625,-51.26953125,-29.296875
-80.078125,-64.453125,-48.33984375,-41.015625
-53.7109375,-50.78125,-37.109375,-41.9921875
-24.4140625,-38.0859375,-36.62109375,-36.1328125
-30.76171875,-81.0546875,-42.96875,-38.57421875
-59.5703125,-147.4609375,-48.828125,-41.50390625
-76.171875,-176.26953125,-46.38671875,-44.921875
-56.15234375,-179.6875,-35.15625,-43.45703125
-35.64453125,-172.8515625,-35.15625,-40.0390625
-30.2734375,-183.59375,-49.8046875,-41.50390625
-34.66796875,-198.2421875,-44.43359375,-28.80859375
-50.29296875,-191.89453125,-29.296875,-25.87890625
-57.12890625,-186.03515625,-44.43359375,-42.96875
-36.1328125,-176.26953125,-55.17578125,-41.50390625
-23.4375,-178.7109375,-56.640625,-41.015625
-42.48046875,-185.05859375,-59.08203125,-52.734375
-69.3359375,-185.05859375,-56.15234375,-58.10546875
-59.5703125,-171.38671875,-47.8515625,-62.98828125
-35.64453125,-151.3671875,-45.8984375,-65.91796875
-19.53125,-151.3671875,-48.33984375,-54.6875
-35.64453125,-156.73828125,-49.31640625,-51.7578125
-72.75390625,-166.50390625,-50.29296875,-58.59375
-53.7109375,-148.4375,-29.78515625,-46.38671875
-29.296875,-129.8828125,-31.25,-50.29296875
-33.203125,-146.484375,-55.17578125,-64.94140625
-45.41015625,-160.15625,-55.6640625,-57.12890625
-73.2421875,-154.78515625,-51.7578125,-56.15234375
-80.078125,-131.8359375,-58.59375,-65.4296875
-48.828125,-111.81640625,-58.59375,-58.59375
-25.390625,-116.2109375,-52.734375,-48.828125
-39.55078125,-131.8359375,-53.22265625,-49.31640625
-71.2890625,-133.7890625,-45.41015625,-54.6875
-82.51953125,-121.09375,-40.52734375,-60.05859375
-41.015625,-96.19140625,-22.4609375,-35.15625
-12.20703125,-93.75,-17.578125,-24.90234375
-35.64453125,-120.1171875,-46.38671875,-48.33984375
-68.359375,-132.8125,-56.640625,-55.17578125
-82.51953125,-122.0703125,-54.6875,-56.640625
-51.26953125,-90.33203125,-46.38671875,-52.734375
-24.90234375,-87.890625,-46.875,-51.26953125
-28.80859375,-100.09765625,-57.6171875,-51.7578125
-50.29296875,-94.7265625,-53.7109375,-49.31640625
-70.80078125,-96.6796875,-44.921875,-55.17578125
-61.03515625,-95.703125,-42.96875,-58.59375
-36.62109375,-78.61328125,-35.15625,-47.8515625
-27.34375,-79.58984375,-34.66796875,-37.109375
-59.5703125,-96.19140625,-38.0859375,-41.015625
-92.28515625,-96.6796875,-40.52734375,-50.78125
-63.96484375,-77.63671875,-33.203125,-41.50390625
-19.04296875,-54.19921875,-15.13671875,-17.578125
-32.71484375,-64.453125,-35.15625,-29.296875
-68.84765625,-85.44921875,-58.59375,-54.19921875
-84.47265625,-79.58984375,-52.734375,-60.546875
-67.87109375,-60.546875,-51.7578125,-56.640625
-42.96875,-63.96484375,-56.640625,-58.59375
-24.90234375,-69.82421875,-58.59375,-48.828125
-19.04296875,-51.7578125,-49.8046875,-22.4609375
-48.33984375,-62.98828125,-46.38671875,-26.85546875
-57.6171875,-74.70703125,-52.734375,-45.41015625
-40.52734375,-64.453125,-57.12890625,-47.8515625
-7.32421875,-52.24609375,-38.0859375,-27.34375
-17.578125,-62.01171875,-28.80859375,-23.92578125
-74.70703125,-87.40234375,-55.6640625,-55.6640625
-66.89453125,-69.3359375,-53.22265625,-58.59375
-35.15625,-55.17578125,-46.875,-54.19921875
-22.4609375,-59.08203125,-49.31640625,-53.7109375
-37.109375,-71.77734375,-57.6171875,-55.17578125
-66.40625,-77.63671875,-65.4296875,-62.01171875
-54.19921875,-61.03515625,-57.12890625,-61.03515625
-25.390625,-50.78125,-52.734375,-55.6640625
-17.578125,-63.4765625,-56.640625,-50.78125
-24.4140625,-76.171875,-49.31640625,-41.9921875
-51.7578125,-74.70703125,-43.9453125,-36.1328125
-67.3828125,-65.4296875,-42.96875,-46.38671875
-51.7578125,-57.6171875,-45.8984375,-52.24609375
-20.99609375,-48.33984375,-43.45703125,-29.78515625
-13.18359375,-45.41015625,-34.66796875,-12.20703125
-63.4765625,-72.265625,-55.17578125,-42.96875
-85.44921875,-74.70703125,-60.05859375,-62.98828125
-50.29296875,-50.78125,-46.38671875,-50.78125
-22.4609375,-36.1328125,-40.0390625,-44.43359375
-29.78515625,-49.8046875,-50.78125,-52.734375
-62.98828125,-71.77734375,-58.10546875,-64.94140625
-58.10546875,-55.17578125,-35.15625,-51.26953125
-14.6484375,-25.390625,-15.625,-29.296875
-18.06640625,-30.76171875,-37.59765625,-49.8046875
-31.25,-46.38671875,-51.7578125,-60.05859375
-54.19921875,-55.6640625,-55.6640625,-56.15234375
-74.70703125,-50.29296875,-55.17578125,-62.98828125
-58.59375,-44.43359375,-47.8515625,-62.5
-32.71484375,-41.50390625,-45.8984375,-58.10546875
-24.90234375,-51.7578125,-50.29296875,-57.6171875
-48.33984375,-59.5703125,-50.29296875,-55.6640625
-73.73046875,-57.6171875,-54.6875,-64.453125
-51.26953125,-49.8046875,-45.41015625,-52.24609375
-9.765625,-36.62109375,-22.4609375,-25.87890625
-11.23046875,-45.41015625,-32.2265625,-29.78515625
-49.8046875,-65.4296875,-50.29296875,-41.9921875
-65.4296875,-63.96484375,-44.43359375,-41.9921875
-43.9453125,-41.50390625,-35.15625,-37.109375
-31.73828125,-32.71484375,-48.33984375,-43.9453125
-33.203125,-45.8984375,-59.5703125,-46.38671875
-56.640625,-61.5234375,-57.12890625,-44.43359375
-83.0078125,-65.4296875,-48.828125,-47.8515625
-70.80078125,-47.36328125,-42.48046875,-53.22265625
-46.38671875,-44.43359375,-46.875,-56.15234375
-18.5546875,-39.55078125,-39.55078125,-30.2734375
-25.87890625,-32.71484375,-36.62109375,-20.99609375
-77.1484375,-57.12890625,-56.15234375,-57.12890625
-65.4296875,-43.9453125,-44.921875,-60.05859375
-22.94921875,-29.296875,-42.96875,-43.45703125
-3.41796875,-36.62109375,-51.26953125,-34.1796875
-36.1328125,-44.921875,-51.7578125,-46.875
-71.2890625,-46.38671875,-49.31640625,-52.734375
-60.05859375,-42.96875,-36.1328125,-45.41015625
-40.52734375,-41.9921875,-34.66796875,-50.78125
-35.15625,-42.48046875,-46.38671875,-52.734375
-45.41015625,-57.6171875,-45.8984375,-46.38671875
-57.6171875,-65.4296875,-29.78515625,-36.62109375
-58.59375,-58.10546875,-26.85546875,-42.96875
-39.0625,-51.26953125,-39.55078125,-51.7578125
-16.6015625,-41.9921875,-43.45703125,-40.52734375
-17.578125,-49.8046875,-45.41015625,-28.3203125
-43.9453125,-62.5,-48.828125,-28.80859375
-54.6875,-56.640625,-40.0390625,-37.109375
-28.3203125,-42.48046875,-33.69140625,-29.78515625
-13.18359375,-36.62109375,-40.52734375,-22.94921875
-24.4140625,-50.29296875,-44.921875,-30.2734375
-52.24609375,-63.96484375,-49.31640625,-39.0625
-63.4765625,-54.6875,-46.875,-39.55078125
-38.0859375,-39.55078125,-34.1796875,-36.1328125
-26.3671875,-38.0859375,-42.48046875,-50.29296875
-31.73828125,-50.78125,-51.7578125,-60.05859375
-57.12890625,-57.12890625,-49.8046875,-58.59375
-80.56640625,-59.5703125,-51.26953125,-60.546875
-60.546875,-55.17578125,-52.24609375,-59.5703125
-32.2265625,-41.50390625,-49.8046875,-61.5234375
-23.4375,-39.55078125,-51.26953125,-65.91796875
-54.6875,-54.6875,-60.546875,-70.80078125
-80.078125,-59.08203125,-59.5703125,-75.1953125
-53.22265625,-40.0390625,-44.921875,-64.453125
-29.296875,-42.96875,-38.57421875,-51.7578125
-33.69140625,-55.6640625,-50.78125,-55.6640625
-58.59375,-52.24609375,-54.19921875,-53.7109375
-86.9140625,-59.5703125,-49.8046875,-57.6171875
-72.75390625,-46.38671875,-44.43359375,-57.6171875
-42.48046875,-31.73828125,-39.0625,-47.36328125
-30.2734375,-42.96875,-41.015625,-43.45703125
-47.36328125,-52.24609375,-51.26953125,-43.9453125
-72.265625,-53.22265625,-59.08203125,-49.8046875
-65.4296875,-44.43359375,-51.7578125,-54.19921875
-47.8515625,-44.43359375,-52.24609375,-55.6640625
-27.34375,-37.109375,-51.26953125,-45.41015625
-30.2734375,-36.1328125,-44.43359375,-37.109375
-71.77734375,-53.7109375,-54.19921875,-54.6875
-82.51953125,-49.31640625,-51.26953125,-66.40625
-50.29296875,-35.15625,-44.43359375,-62.01171875
-31.25,-39.55078125,-50.29296875,-55.17578125
-43.45703125,-47.36328125,-54.19921875,-45.8984375
-71.77734375,-57.12890625,-55.17578125,-52.734375
-68.84765625,-49.31640625,-55.6640625,-58.59375
-27.34375,-34.66796875,-52.24609375,-41.015625
-17.08984375,-44.921875,-50.29296875,-48.33984375
-38.57421875,-61.5234375,-58.59375,-63.4765625
-65.4296875,-63.96484375,-56.640625,-52.734375
-81.0546875,-53.7109375,-41.50390625,-54.19921875
-54.6875,-46.38671875,-41.9921875,-56.15234375
-23.4375,-41.50390625,-42.48046875,-46.38671875
-24.4140625,-49.31640625,-35.64453125,-38.0859375
-65.4296875,-67.3828125,-49.31640625,-52.734375
-87.40234375,-62.5,-51.7578125,-71.77734375
-56.15234375,-49.8046875,-39.55078125,-57.6171875
-30.76171875,-46.875,-41.015625,-50.78125
-41.015625,-48.33984375,-48.33984375,-50.78125
-72.265625,-57.12890625,-54.19921875,-50.29296875
-81.0546875,-51.7578125,-44.43359375,-53.7109375
-54.19921875,-37.59765625,-40.0390625,-48.33984375
-33.203125,-43.45703125,-45.41015625,-53.22265625
-33.69140625,-57.12890625,-48.828125,-57.6171875
-41.015625,-49.31640625,-40.0390625,-39.0625
-59.08203125,-38.57421875,-31.73828125,-34.66796875
-62.5,-41.015625,-41.50390625,-49.31640625
-33.69140625,-36.62109375,-38.0859375,-44.921875
-27.34375,-49.8046875,-47.36328125,-41.015625
-57.12890625,-65.91796875,-54.19921875,-43.45703125
-84.47265625,-62.5,-44.921875,-52.24609375
-63.4765625,-43.45703125,-33.69140625,-45.41015625
-43.9453125,-33.69140625,-30.76171875,-41.015625
-41.50390625,-47.36328125,-32.71484375,-42.48046875
-61.03515625,-63.4765625,-40.52734375,-42.48046875
-85.9375,-69.3359375,-44.921875,-51.7578125
-38.0859375,-29.78515625,-14.6484375,-19.04296875
-15.13671875,-14.6484375,-22.4609375,-13.18359375
-32.2265625,-44.43359375,-52.734375,-35.64453125
-49.31640625,-57.12890625,-53.22265625,-40.52734375
-83.984375,-59.08203125,-58.10546875,-46.38671875
-71.77734375,-43.9453125,-55.17578125,-44.921875
-35.15625,-34.1796875,-50.29296875,-40.0390625
-17.08984375,-43.45703125,-45.8984375,-31.25
-24.90234375,-58.10546875,-47.36328125,-30.2734375
-49.8046875,-57.12890625,-48.33984375,-31.25
-54.6875,-45.8984375,-43.9453125,-41.015625
-18.5546875,-22.94921875,-28.80859375,-33.69140625
8.30078125,-15.625,-20.99609375,-20.01953125
-22.4609375,-49.8046875,-44.43359375,-33.69140625
-63.96484375,-62.5,-58.59375,-45.8984375
-59.08203125,-38.57421875,-48.828125,-40.52734375
-30.2734375,-20.01953125,-40.0390625,-34.1796875
-24.90234375,-27.83203125,-48.33984375,-44.921875
-33.69140625,-44.43359375,-58.10546875,-50.78125
-56.640625,-51.26953125,-59.08203125,-50.29296875
-68.84765625,-41.9921875,-52.734375,-56.640625
-52.24609375,-33.203125,-50.29296875,-59.08203125
-30.2734375,-38.57421875,-44.921875,-48.828125
-13.671875,-40.52734375,-28.80859375,-27.83203125
-43.45703125,-52.734375,-40.0390625,-37.59765625
-71.2890625,-60.546875,-54.6875,-55.17578125
-45.41015625,-37.109375,-41.9921875,-45.8984375
-21.484375,-29.296875,-39.55078125,-41.50390625
-27.34375,-54.19921875,-53.7109375,-44.921875
-59.08203125,-68.359375,-64.94140625,-53.22265625
-69.3359375,-52.734375,-48.828125,-51.26953125
-44.921875,-41.015625,-37.109375,-40.52734375
-31.73828125,-41.9921875,-46.38671875,-49.31640625
-22.94921875,-41.9921875,-59.5703125,-54.6875
-18.5546875,-48.33984375,-48.33984375,-29.296875
-55.17578125,-55.6640625,-33.69140625,-27.83203125
-75.1953125,-53.7109375,-45.8984375,-61.03515625
-39.55078125,-37.109375,-40.52734375,-56.15234375
-29.78515625,-50.78125,-38.0859375,-36.62109375
-54.6875,-71.2890625,-40.52734375,-35.64453125
-84.47265625,-71.77734375,-48.828125,-51.26953125
-69.82421875,-56.640625,-46.38671875,-56.640625
-39.55078125,-40.0390625,-37.109375,-52.734375
-34.1796875,-51.26953125,-42.48046875,-47.36328125
-52.24609375,-63.4765625,-46.875,-43.45703125
-83.0078125,-62.5,-50.78125,-53.22265625
-52.24609375,-37.59765625,-25.390625,-34.1796875
-21.97265625,-30.76171875,-22.94921875,-29.78515625
-27.83203125,-48.828125,-46.875,-44.921875
-42.96875,-60.05859375,-48.33984375,-41.9921875
-78.125,-63.96484375,-54.6875,-43.9453125
-83.984375,-60.05859375,-52.734375,-50.29296875
-47.36328125,-53.7109375,-45.8984375,-49.8046875
-26.3671875,-51.7578125,-46.38671875,-39.0625
-43.45703125,-59.5703125,-50.29296875,-40.52734375
-63.4765625,-63.4765625,-54.6875,-42.96875
-69.82421875,-54.6875,-54.6875,-46.875
-28.80859375,-29.296875,-32.71484375,-28.3203125
5.859375,-19.53125,-23.4375,-16.11328125
-28.80859375,-55.6640625,-53.22265625,-37.59765625
-72.75390625,-82.51953125,-60.546875,-51.26953125
-68.84765625,-62.5,-39.0625,-44.43359375
-36.62109375,-37.109375,-36.62109375,-40.52734375
-26.3671875,-43.9453125,-51.26953125,-49.31640625
-30.76171875,-54.19921875,-51.7578125,-45.41015625
-58.59375,-62.5,-50.78125,-47.8515625
-78.125,-54.19921875,-46.875,-57.12890625
-59.5703125,-42.48046875,-49.31640625,-56.15234375
-41.50390625,-41.50390625,-58.10546875,-54.19921875
-35.64453125,-48.828125,-60.546875,-52.24609375
-58.59375,-62.5,-57.6171875,-51.7578125
-80.078125,-63.96484375,-58.10546875,-62.01171875
-51.26953125,-43.9453125,-43.9453125,-56.15234375
-14.16015625,-24.4140625,-25.390625,-39.0625
-25.87890625,-36.62109375,-41.9921875,-48.33984375
-62.98828125,-54.6875,-53.22265625,-60.05859375
-84.9609375,-53.7109375,-51.7578125,-63.96484375
-66.40625,-41.015625,-47.8515625,-61.03515625
-31.25,-29.296875,-44.43359375,-52.734375
-25.390625,-37.59765625,-49.31640625,-50.29296875
-50.29296875,-49.8046875,-50.29296875,-49.31640625
-75.1953125,-46.38671875,-50.78125,-60.05859375
-62.01171875,-35.64453125,-46.875,-62.5
-40.0390625,-34.66796875,-50.78125,-62.5
-18.06640625,-27.83203125,-44.921875,-47.36328125
-29.78515625,-34.66796875,-35.15625,-38.57421875
-75.68359375,-56.15234375,-49.31640625,-55.6640625
-65.4296875,-42.96875,-49.31640625,-49.8046875
-31.73828125,-36.62109375,-39.55078125,-39.55078125
-35.15625,-47.36328125,-39.55078125,-46.38671875
-65.4296875,-61.03515625,-46.875,-50.29296875
-89.35546875,-70.3125,-48.33984375,-49.31640625
-69.82421875,-53.7109375,-40.0390625,-49.31640625
-34.1796875,-26.3671875,-35.64453125,-37.109375
-28.3203125,-33.69140625,-42.96875,-37.59765625
-43.9453125,-56.15234375,-47.36328125,-43.45703125
-65.4296875,-54.19921875,-41.9921875,-37.109375
-73.2421875,-45.8984375,-37.59765625,-51.26953125
-58.10546875,-43.9453125,-40.0390625,-58.59375
-40.0390625,-45.8984375,-45.8984375,-48.828125
-55.17578125,-59.5703125,-56.15234375,-52.734375
-83.49609375,-69.82421875,-57.12890625,-56.640625
-85.44921875,-62.98828125,-52.734375,-62.01171875
-37.59765625,-38.57421875,-37.109375,-42.96875
-8.7890625,-22.94921875,-35.64453125,-29.296875
-33.69140625,-39.55078125,-52.734375,-41.9921875
-62.01171875,-59.08203125,-57.12890625,-49.8046875
-61.5234375,-56.640625,-50.29296875,-48.828125
-26.3671875,-37.109375,-37.59765625,-37.59765625
-16.11328125,-30.76171875,-41.9921875,-39.0625
-28.3203125,-41.50390625,-49.8046875,-41.50390625
-55.6640625,-59.08203125,-55.6640625,-49.31640625
-77.1484375,-62.01171875,-56.640625,-62.01171875
-50.78125,-37.59765625,-50.78125,-50.29296875
-19.04296875,-26.85546875,-46.875,-45.41015625
-22.94921875,-47.8515625,-50.78125,-53.7109375
-59.5703125,-60.546875,-56.640625,-59.5703125
-82.51953125,-46.875,-55.17578125,-66.89453125
-61.5234375,-33.203125,-53.7109375,-57.12890625
-29.296875,-35.15625,-37.109375,-34.66796875
-22.94921875,-43.9453125,-31.73828125,-27.34375
-54.19921875,-53.7109375,-49.8046875,-39.55078125
-69.3359375,-45.41015625,-49.8046875,-45.41015625
-43.9453125,-23.92578125,-42.96875,-41.9921875
-19.04296875,-19.53125,-41.9921875,-42.48046875
-13.671875,-37.109375,-43.9453125,-45.41015625
-39.0625,-52.734375,-56.640625,-52.24609375
-71.2890625,-48.828125,-62.01171875,-61.03515625
-57.6171875,-27.34375,-49.31640625,-57.12890625
-35.64453125,-20.99609375,-56.15234375,-53.7109375
-20.5078125,-32.2265625,-53.22265625,-42.48046875
-36.1328125,-41.9921875,-43.45703125,-35.15625
-78.125,-47.8515625,-51.26953125,-53.7109375
-72.75390625,-44.43359375,-46.875,-60.05859375
-33.203125,-26.85546875,-36.62109375,-46.875
-22.94921875,-35.15625,-43.45703125,-47.8515625
-47.36328125,-54.19921875,-58.10546875,-53.7109375
-67.87109375,-55.6640625,-57.12890625,-53.7109375
-66.89453125,-53.22265625,-57.6171875,-60.546875
-40.52734375,-46.875,-54.19921875,-55.6640625
-24.90234375,-49.8046875,-56.640625,-49.31640625
-38.57421875,-50.29296875,-69.3359375,-49.8046875
-55.17578125,-46.875,-56.640625,-34.66796875
-71.2890625,-47.36328125,-43.9453125,-45.8984375
-57.6171875,-42.48046875,-44.43359375,-59.5703125
-33.203125,-41.9921875,-51.7578125,-53.7109375
-46.38671875,-50.29296875,-58.59375,-57.12890625
-77.1484375,-56.15234375,-58.59375,-58.59375
-81.54296875,-59.08203125,-56.15234375,-60.05859375
-49.31640625,-46.38671875,-46.875,-48.828125
-24.4140625,-34.66796875,-44.43359375,-43.9453125
-38.0859375,-47.8515625,-53.7109375,-55.6640625
-69.3359375,-58.59375,-63.4765625,-57.6171875
-72.75390625,-46.38671875,-56.640625,-53.7109375
-42.96875,-34.66796875,-39.55078125,-52.24609375
-29.296875,-40.0390625,-38.57421875,-54.19921875
-29.78515625,-46.38671875,-42.96875,-49.31640625
-50.78125,-48.828125,-41.50390625,-44.43359375
-77.1484375,-45.41015625,-41.9921875,-54.6875
-58.59375,-38.57421875,-42.48046875,-56.15234375
-29.78515625,-41.50390625,-40.52734375,-48.33984375
-25.87890625,-51.26953125,-44.43359375,-48.33984375
-47.36328125,-43.9453125,-52.24609375,-45.41015625
-72.265625,-45.41015625,-57.6171875,-56.15234375
-73.73046875,-43.45703125,-50.78125,-67.87109375
-41.9921875,-14.16015625,-25.87890625,-50.29296875
-35.15625,-39.55078125,-26.3671875,-39.55078125
-77.1484375,-76.66015625,-45.8984375,-56.640625
-95.21484375,-67.87109375,-42.96875,-60.546875
-74.70703125,-51.7578125,-37.109375,-52.734375
-61.5234375,-43.9453125,-40.52734375,-55.6640625
-57.6171875,-52.24609375,-43.9453125,-54.6875
-74.70703125,-65.91796875,-43.45703125,-50.29296875
-98.6328125,-68.359375,-39.0625,-51.7578125
-83.984375,-57.12890625,-34.66796875,-54.19921875
-54.19921875,-48.828125,-31.73828125,-51.7578125
-37.109375,-55.6640625,-38.57421875,-49.31640625
-51.26953125,-61.03515625,-45.41015625,-47.36328125
-79.1015625,-64.94140625,-47.36328125,-51.26953125
-70.3125,-62.98828125,-45.8984375,-55.6640625
-34.66796875,-39.55078125,-37.59765625,-41.50390625
-16.11328125,-22.4609375,-44.43359375,-32.2265625
-38.57421875,-18.5546875,-58.10546875,-39.55078125
-70.3125,-1.46484375,-55.6640625,-45.41015625
-71.2890625,24.4140625,-44.43359375,-58.10546875
-43.9453125,47.8515625,-42.48046875,-60.546875
-23.4375,57.12890625,-49.8046875,-55.6640625
-38.0859375,55.17578125,-50.78125,-58.10546875
-74.21875,59.08203125,-53.7109375,-64.453125
-78.125,91.796875,-48.828125,-68.359375
-51.7578125,120.60546875,-41.50390625,-62.01171875
-37.109375,132.8125,-49.8046875,-60.05859375
-26.85546875,155.2734375,-36.1328125,-34.66796875
-56.15234375,154.78515625,-30.76171875,-27.83203125
-86.9140625,150.87890625,-41.50390625,-55.17578125
-67.87109375,164.55078125,-44.43359375,-56.15234375
-50.29296875,164.0625,-51.26953125,-52.24609375
-56.15234375,154.296875,-54.6875,-49.31640625
-80.56640625,145.99609375,-53.22265625,-51.7578125
-98.14453125,145.99609375,-44.921875,-62.5
-81.54296875,157.71484375,-39.0625,-58.10546875
-55.17578125,166.9921875,-40.52734375,-51.26953125
-48.33984375,152.34375,-55.17578125,-52.24609375
-56.640625,141.6015625,-39.55078125,-35.15625
-71.77734375,146.97265625,-23.92578125,-39.0625
-62.01171875,149.4140625,-36.62109375,-56.15234375
-30.76171875,154.78515625,-41.9921875,-51.7578125
-18.5546875,154.296875,-41.9921875,-45.8984375
-44.921875,135.7421875,-45.41015625,-45.8984375
-75.1953125,123.046875,-48.828125,-55.6640625
-60.05859375,132.8125,-44.921875,-54.19921875
-29.78515625,144.04296875,-47.8515625,-50.29296875
-12.20703125,143.06640625,-53.22265625,-37.109375
-29.296875,130.859375,-60.546875,-29.296875
-56.15234375,118.1640625,-65.4296875,-36.62109375
-31.25,119.62890625,-46.875,-31.25
-15.625,115.72265625,-45.41015625,-35.15625
-15.13671875,101.5625,-58.59375,-34.1796875
-29.78515625,85.44921875,-56.15234375,-31.73828125
-64.94140625,77.63671875,-51.26953125,-45.41015625
-57.6171875,88.8671875,-48.33984375,-46.875
-26.3671875,97.65625,-50.78125,-43.9453125
-6.8359375,94.7265625,-47.36328125,-37.59765625
-25.390625,78.61328125,-45.41015625,-43.45703125
-61.03515625,65.91796875,-49.31640625,-62.98828125
-59.08203125,77.1484375,-57.12890625,-65.91796875
-24.90234375,86.9140625,-52.24609375,-52.734375
-3.41796875,76.171875,-43.9453125,-43.45703125
-37.59765625,45.8984375,-56.15234375,-63.4765625
-74.70703125,30.76171875,-60.546875,-71.77734375
-72.265625,46.38671875,-54.6875,-63.4765625
-41.50390625,57.12890625,-47.36328125,-52.24609375
-20.99609375,48.33984375,-42.96875,-46.38671875
-34.1796875,37.59765625,-49.31640625,-41.015625
-64.453125,28.80859375,-60.05859375,-43.9453125
-74.70703125,28.80859375,-53.22265625,-56.640625
-47.8515625,41.9921875,-49.31640625,-50.29296875
-23.4375,49.31640625,-51.7578125,-45.41015625
-9.765625,47.8515625,-35.15625,-20.99609375
-38.0859375,27.83203125,-42.96875,-22.94921875
-75.68359375,10.7421875,-55.17578125,-55.6640625
-53.7109375,21.484375,-45.41015625,-53.22265625
-32.2265625,22.4609375,-53.22265625,-56.640625
-29.78515625,13.671875,-57.12890625,-62.98828125
-56.15234375,5.37109375,-51.26953125,-62.5
-82.03125,3.41796875,-48.33984375,-67.87109375
-54.6875,16.6015625,-49.31640625,-63.96484375
-26.3671875,18.5546875,-47.8515625,-57.6171875
-32.71484375,3.41796875,-51.7578125,-58.10546875
-57.12890625,7.8125,-45.41015625,-46.38671875
-72.75390625,6.34765625,-38.0859375,-45.8984375
-56.640625,11.23046875,-35.64453125,-50.29296875
-33.69140625,18.06640625,-37.59765625,-42.48046875
-15.625,0.48828125,-42.48046875,-28.3203125
-36.1328125,-11.71875,-48.828125,-26.85546875
-71.77734375,-14.6484375,-54.19921875,-40.0390625
-50.78125,-7.8125,-41.9921875,-34.66796875
-23.4375,-5.37109375,-41.50390625,-36.1328125
-20.01953125,-14.6484375,-51.7578125,-45.41015625
-46.38671875,-26.85546875,-63.4765625,-51.26953125
-80.56640625,-23.92578125,-64.453125,-56.15234375
-66.89453125,-3.41796875,-51.7578125,-52.734375
-35.15625,-6.34765625,-46.38671875,-45.8984375
-26.3671875,-24.90234375,-54.19921875,-50.29296875
-41.9921875,-27.34375,-54.19921875,-48.33984375
-60.05859375,-28.3203125,-37.59765625,-36.62109375
-59.08203125,-23.92578125,-35.64453125,-41.9921875
-35.15625,-12.6953125,-41.50390625,-44.43359375
-16.6015625,-16.11328125,-40.52734375,-31.73828125
-30.76171875,-25.87890625,-33.69140625,-20.99609375
-68.359375,-37.59765625,-44.43359375,-40.52734375
-67.3828125,-30.2734375,-47.36328125,-48.828125
-37.109375,-20.5078125,-41.015625,-44.921875
-23.92578125,-16.11328125,-42.48046875,-40.0390625
-41.50390625,-31.25,-50.78125,-39.55078125
-78.61328125,-49.8046875,-59.5703125,-51.7578125
-69.82421875,-35.15625,-41.9921875,-49.31640625
-30.2734375,-20.99609375,-27.34375,-39.55078125
-26.85546875,-28.80859375,-39.55078125,-51.7578125
-35.15625,-45.8984375,-48.33984375,-52.734375
-62.5,-51.7578125,-51.7578125,-51.7578125
-82.03125,-31.25,-42.96875,-62.01171875
-52.24609375,-14.16015625,-35.64453125,-57.12890625
-26.85546875,-20.01953125,-41.50390625,-52.24609375
-33.69140625,-30.76171875,-47.8515625,-56.15234375
-60.546875,-34.66796875,-48.828125,-54.19921875
-75.68359375,-35.64453125,-51.26953125,-62.5
-49.8046875,-26.85546875,-45.41015625,-62.98828125
-3.41796875,-7.8125,-16.6015625,-31.73828125
-9.765625,-17.578125,-23.4375,-26.85546875
-58.10546875,-42.48046875,-53.22265625,-53.22265625
-79.1015625,-48.33984375,-53.7109375,-62.01171875
-57.12890625,-36.62109375,-41.50390625,-51.26953125
-36.62109375,-33.203125,-38.0859375,-52.734375
-37.59765625,-44.43359375,-46.875,-56.15234375
-60.546875,-50.78125,-56.15234375,-50.29296875
-89.35546875,-45.8984375,-57.12890625,-59.08203125
-67.3828125,-24.4140625,-49.8046875,-57.6171875
-44.43359375,-22.4609375,-52.24609375,-57.12890625
-26.3671875,-35.64453125,-41.9921875,-41.50390625
-30.2734375,-40.0390625,-26.85546875,-28.3203125
-74.70703125,-48.33984375,-50.78125,-57.6171875
-69.3359375,-43.9453125,-59.08203125,-67.87109375
-37.109375,-39.0625,-49.8046875,-62.5
-26.3671875,-39.0625,-56.15234375,-57.6171875
-51.26953125,-45.8984375,-61.03515625,-60.05859375
-82.03125,-54.6875,-57.6171875,-68.359375
-66.89453125,-42.48046875,-51.26953125,-60.05859375
-37.59765625,-35.15625,-48.828125,-51.26953125
-23.92578125,-34.1796875,-51.7578125,-50.78125
-42.96875,-46.875,-51.7578125,-47.36328125
-60.546875,-49.31640625,-38.57421875,-29.296875
-60.546875,-26.85546875,-39.55078125,-37.59765625
-50.78125,-32.2265625,-50.29296875,-51.7578125
-27.83203125,-36.62109375,-46.38671875,-33.203125
-35.64453125,-35.15625,-44.921875,-21.97265625
-77.1484375,-53.22265625,-58.59375,-40.52734375
-72.265625,-51.7578125,-56.15234375,-41.9921875
-27.83203125,-31.25,-42.48046875,-26.3671875
-26.3671875,-34.66796875,-40.52734375,-40.0390625
-53.7109375,-50.29296875,-47.8515625,-54.6875
-83.0078125,-49.8046875,-55.17578125,-60.546875
-76.171875,-36.1328125,-37.59765625,-52.734375
-45.41015625,-28.80859375,-22.4609375,-44.43359375
-43.45703125,-35.15625,-40.0390625,-61.03515625
-52.24609375,-48.828125,-58.59375,-66.89453125
-76.66015625,-62.01171875,-63.4765625,-66.40625
-83.49609375,-53.22265625,-50.29296875,-70.3125
-54.6875,-41.50390625,-42.96875,-63.4765625
-29.296875,-41.50390625,-44.43359375,-53.22265625
-25.87890625,-40.0390625,-38.57421875,-41.50390625
-54.19921875,-40.52734375,-40.0390625,-40.52734375
-76.171875,-44.921875,-47.8515625,-55.6640625
-47.36328125,-31.25,-42.48046875,-51.7578125
0.9765625,-9.765625,-20.01953125,-18.06640625
-13.18359375,-33.69140625,-33.69140625,-25.87890625
-66.40625,-56.15234375,-55.17578125,-53.7109375
-85.44921875,-58.10546875,-49.8046875,-60.05859375
-63.96484375,-54.19921875,-42.96875,-64.94140625
-33.69140625,-35.15625,-41.9921875,-62.01171875
-31.25,-43.9453125,-55.6640625,-59.5703125
-50.78125,-58.10546875,-64.453125,-57.12890625
-70.3125,-57.12890625,-58.10546875,-62.01171875
-51.26953125,-46.38671875,-43.9453125,-57.12890625
-23.92578125,-27.83203125,-41.50390625,-51.26953125
-3.90625,-15.625,-27.83203125,-27.83203125
-12.20703125,-26.3671875,-15.13671875,-6.34765625
-64.94140625,-52.734375,-42.96875,-29.296875
-63.4765625,-46.875,-48.828125,-40.52734375
-26.85546875,-40.0390625,-41.50390625,-34.66796875
-16.6015625,-49.31640625,-46.875,-33.203125
-40.52734375,-57.12890625,-52.734375,-35.64453125
-73.2421875,-60.546875,-56.640625,-41.015625
-67.3828125,-48.828125,-50.29296875,-53.7109375
-36.62109375,-30.2734375,-43.45703125,-52.734375
-20.5078125,-37.59765625,-46.875,-51.26953125
-31.25,-49.31640625,-44.921875,-53.7109375
-59.08203125,-44.921875,-47.8515625,-55.17578125
-59.5703125,-39.55078125,-50.29296875,-58.10546875
-28.80859375,-41.50390625,-47.8515625,-46.38671875
8.30078125,-33.203125,-39.0625,-20.5078125
-17.578125,-30.76171875,-37.59765625,-40.52734375
-93.75,-49.31640625,-61.5234375,-85.9375
-107.91015625,-46.38671875,-70.3125,-93.75
-64.94140625,-24.90234375,-54.6875,-74.21875
-41.015625,-17.08984375,-46.875,-68.359375
-72.75390625,-33.203125,-63.4765625,-87.890625
-107.421875,-51.7578125,-69.82421875,-91.30859375
-119.62890625,-53.22265625,-65.4296875,-97.65625
-93.75,-32.71484375,-57.12890625,-92.28515625
-60.05859375,-31.25,-57.12890625,-74.21875
-68.84765625,-59.5703125,-70.3125,-78.125
-83.984375,-56.640625,-62.98828125,-68.359375
-82.51953125,-41.015625,-48.828125,-59.08203125
-68.359375,-44.921875,-58.10546875,-73.73046875
-41.015625,-38.57421875,-58.59375,-71.77734375
-36.1328125,-42.48046875,-60.05859375,-67.3828125
-58.10546875,-55.6640625,-58.59375,-62.01171875
-74.21875,-52.734375,-49.8046875,-62.01171875
-57.12890625,-38.57421875,-55.6640625,-60.05859375
-36.1328125,-32.2265625,-59.5703125,-62.5
-30.76171875,-39.55078125,-58.59375,-58.59375
-58.10546875,-63.4765625,-61.5234375,-59.08203125
-82.51953125,-69.3359375,-57.6171875,-64.453125
-42.48046875,-36.1328125,-38.0859375,-41.9921875
-27.83203125,-32.2265625,-37.59765625,-44.43359375
-43.9453125,-53.22265625,-51.7578125,-57.6171875
-53.22265625,-53.22265625,-52.24609375,-47.36328125
-73.73046875,-46.875,-50.78125,-48.33984375
-67.87109375,-36.62109375,-47.36328125,-55.17578125
-40.0390625,-35.15625,-45.41015625,-53.7109375
-31.25,-52.734375,-54.19921875,-54.19921875
-48.33984375,-61.03515625,-56.15234375,-51.26953125
-76.66015625,-52.24609375,-50.29296875,-58.59375
-76.171875,-47.8515625,-53.22265625,-70.3125
-35.64453125,-31.73828125,-36.62109375,-53.7109375
-13.18359375,-22.94921875,-30.76171875,-38.57421875
-48.828125,-53.22265625,-58.59375,-51.26953125
-77.63671875,-63.96484375,-66.89453125,-55.6640625
-66.40625,-50.78125,-55.6640625,-53.7109375
-35.15625,-34.1796875,-44.43359375,-46.875
-18.06640625,-31.73828125,-47.36328125,-38.57421875
-33.203125,-42.48046875,-62.98828125,-34.66796875
-55.6640625,-51.26953125,-66.40625,-26.3671875
-62.5,-54.6875,-56.15234375,-32.71484375
-45.8984375,-49.8046875,-47.8515625,-43.9453125
-30.2734375,-49.31640625,-42.96875,-43.9453125
-34.66796875,-58.10546875,-40.0390625,-40.0390625
-64.94140625,-61.5234375,-43.9453125,-39.0625
-78.61328125,-56.15234375,-50.78125,-50.29296875
-43.9453125,-39.0625,-54.19921875,-51.26953125
-5.859375,-31.73828125,-61.5234375,-34.66796875
-21.97265625,-46.875,-59.5703125,-37.59765625
-74.21875,-59.5703125,-50.29296875,-58.10546875
-77.1484375,-54.6875,-38.57421875,-50.78125
-39.0625,-43.9453125,-34.66796875,-35.64453125
-14.6484375,-38.0859375,-41.9921875,-37.109375
-21.97265625,-44.921875,-49.31640625,-38.57421875
-43.9453125,-45.8984375,-33.69140625,-20.5078125
-52.734375,-48.33984375,-17.578125,-17.578125
-35.64453125,-53.22265625,-30.2734375,-26.85546875
-11.23046875,-50.29296875,-37.109375,-24.90234375
-13.18359375,-51.26953125,-38.0859375,-30.2734375
-43.9453125,-65.91796875,-42.96875,-31.73828125
-67.3828125,-73.73046875,-47.8515625,-39.0625
-42.48046875,-51.7578125,-45.41015625,-39.0625
-10.7421875,-41.015625,-41.50390625,-31.73828125
-10.25390625,-51.7578125,-46.875,-26.3671875
-28.80859375,-59.08203125,-50.29296875,-25.87890625
-41.50390625,-49.31640625,-44.43359375,-31.25
-4.8828125,-32.71484375,-28.80859375,-12.6953125
17.08984375,-31.25,-32.71484375,-13.671875
7.8125,-46.38671875,-47.36328125,-28.80859375
-8.30078125,-58.10546875,-48.33984375,-23.4375
-34.66796875,-54.19921875,-43.45703125,-26.3671875
-40.0390625,-53.7109375,-49.31640625,-43.45703125
-17.08984375,-48.828125,-50.29296875,-45.8984375
-5.37109375,-41.9921875,-44.921875,-43.45703125
-37.109375,-46.38671875,-47.8515625,-43.45703125
-70.3125,-52.734375,-49.8046875,-41.9921875
-62.5,-45.8984375,-49.8046875,-51.26953125
-28.3203125,-27.83203125,-40.0390625,-43.9453125
-16.11328125,-33.69140625,-40.52734375,-42.96875
-45.8984375,-62.01171875,-52.734375,-60.05859375
-81.54296875,-73.2421875,-49.8046875,-62.01171875
-72.75390625,-55.17578125,-42.48046875,-46.38671875
-39.0625,-48.828125,-43.9453125,-34.1796875
-27.34375,-57.12890625,-50.29296875,-39.0625
-43.9453125,-61.03515625,-58.59375,-41.50390625
-65.4296875,-64.453125,-56.15234375,-42.96875
-64.453125,-50.29296875,-49.31640625,-55.17578125
-45.8984375,-49.31640625,-51.26953125,-67.87109375
-24.4140625,-48.828125,-47.8515625,-66.40625
-19.04296875,-40.52734375,-45.8984375,-58.10546875
-45.41015625,-53.7109375,-53.22265625,-53.7109375
-55.17578125,-58.59375,-55.6640625,-68.359375
-24.90234375,-40.52734375,-48.828125,-68.84765625
-3.90625,-27.34375,-46.875,-50.78125
-22.4609375,-46.38671875,-64.94140625,-57.6171875
-61.5234375,-68.359375,-72.75390625,-63.96484375
-78.125,-68.84765625,-63.4765625,-59.5703125
-53.7109375,-52.734375,-59.5703125,-54.6875
-33.203125,-41.015625,-60.05859375,-44.43359375
-42.48046875,-56.15234375,-63.4765625,-45.41015625
-60.05859375,-57.12890625,-48.828125,-33.203125
-72.265625,-41.50390625,-32.71484375,-30.76171875
-62.5,-42.48046875,-40.0390625,-44.921875
-41.9921875,-46.38671875,-46.875,-49.31640625
-19.04296875,-38.0859375,-33.203125,-28.80859375
-40.52734375,-49.31640625,-30.2734375,-26.3671875
-90.33203125,-69.3359375,-53.22265625,-65.4296875
-67.87109375,-49.31640625,-48.33984375,-72.265625
-35.15625,-37.109375,-51.7578125,-72.75390625
-14.6484375,-41.50390625,-72.265625,-59.08203125
-34.1796875,-50.78125,-70.80078125,-55.6640625
-86.42578125,-52.24609375,-50.78125,-77.1484375
-76.171875,-35.15625,-35.64453125,-73.2421875
-41.015625,-23.92578125,-36.1328125,-55.17578125
-37.59765625,-35.64453125,-47.8515625,-51.7578125
-51.7578125,-58.10546875,-51.7578125,-51.7578125
-58.10546875,-52.24609375,-35.64453125,-37.59765625
-58.10546875,-41.015625,-33.203125,-42.96875
-45.8984375,-44.921875,-44.43359375,-62.01171875
-30.2734375,-49.8046875,-47.8515625,-57.6171875
-51.7578125,-56.15234375,-53.7109375,-50.78125
-76.171875,-55.6640625,-56.640625,-47.36328125
-65.91796875,-47.36328125,-51.26953125,-51.7578125
-41.50390625,-40.52734375,-44.43359375,-50.78125
-22.94921875,-44.43359375,-47.36328125,-43.9453125
-40.0390625,-51.7578125,-50.78125,-45.41015625
-87.40234375,-67.87109375,-56.640625,-55.6640625
-75.1953125,-36.1328125,-40.0390625,-43.9453125
-25.87890625,5.859375,-17.08984375,-21.484375
-38.57421875,-31.73828125,-43.45703125,-48.33984375
-59.5703125,-58.59375,-53.7109375,-62.01171875
-72.75390625,-64.94140625,-48.828125,-60.05859375
-81.54296875,-59.5703125,-54.6875,-67.87109375
-56.15234375,-44.43359375,-55.17578125,-65.91796875
-29.78515625,-45.41015625,-53.7109375,-62.01171875
-32.2265625,-53.7109375,-54.19921875,-58.10546875
-62.98828125,-57.6171875,-53.7109375,-50.29296875
-77.63671875,-52.24609375,-52.24609375,-51.26953125
-51.7578125,-46.875,-43.45703125,-47.8515625
-19.04296875,-37.59765625,-30.2734375,-26.85546875
-26.85546875,-51.7578125,-37.59765625,-30.76171875
-63.4765625,-70.80078125,-54.6875,-48.828125
-83.49609375,-59.08203125,-58.59375,-60.05859375
-60.546875,-42.48046875,-48.33984375,-60.05859375
-34.66796875,-41.50390625,-40.0390625,-56.15234375
-36.1328125,-53.7109375,-49.31640625,-54.6875
-52.24609375,-56.640625,-53.22265625,-39.0625
-70.3125,-58.10546875,-45.41015625,-41.50390625
-56.15234375,-47.8515625,-43.45703125,-50.78125
-26.85546875,-28.80859375,-49.8046875,-50.29296875
-19.04296875,-30.2734375,-46.38671875,-42.96875
-38.0859375,-42.48046875,-36.62109375,-27.34375
-69.82421875,-55.6640625,-51.26953125,-42.96875
-65.91796875,-36.62109375,-56.640625,-62.01171875
-52.24609375,-24.4140625,-62.01171875,-76.66015625
-41.50390625,-37.109375,-70.80078125,-69.3359375
-53.22265625,-43.45703125,-75.68359375,-60.05859375
-73.73046875,-33.203125,-78.125,-62.98828125
-49.31640625,-6.8359375,-67.87109375,-52.24609375
-19.04296875,2.9296875,-65.4296875,-54.6875
-13.671875,-7.8125,-78.61328125,-61.5234375
-37.59765625,-21.97265625,-84.47265625,-60.05859375
-58.59375,-26.3671875,-70.80078125,-53.22265625
-63.4765625,-25.390625,-67.3828125,-64.453125
-49.8046875,-17.578125,-72.265625,-79.1015625
-29.78515625,-20.5078125,-71.2890625,-72.75390625
-43.9453125,-32.2265625,-73.2421875,-72.265625
-73.2421875,-39.0625,-77.1484375,-74.70703125
-75.68359375,-31.25,-76.66015625,-74.70703125
-48.33984375,-25.87890625,-72.265625,-70.80078125
-28.80859375,-39.0625,-68.84765625,-62.5
-43.45703125,-49.8046875,-74.21875,-58.59375
-77.63671875,-51.26953125,-78.61328125,-65.91796875
-63.96484375,-27.83203125,-49.31640625,-50.78125
-32.2265625,-19.53125,-37.109375,-36.1328125
-32.2265625,-40.52734375,-65.4296875,-48.828125
-47.36328125,-54.6875,-76.171875,-48.33984375
-53.7109375,-44.921875,-53.7109375,-27.34375
-58.10546875,-30.76171875,-44.921875,-28.80859375
-53.22265625,-30.76171875,-53.7109375,-39.0625
-21.484375,-29.78515625,-49.8046875,-33.203125
-23.92578125,-48.33984375,-55.17578125,-29.78515625
-54.19921875,-56.15234375,-57.12890625,-31.73828125
-72.265625,-48.828125,-51.7578125,-44.921875
-48.33984375,-40.52734375,-42.96875,-40.0390625
-21.97265625,-34.66796875,-41.015625,-36.1328125
-27.83203125,-50.78125,-52.734375,-41.9921875
-55.17578125,-69.82421875,-60.05859375,-49.31640625
-62.5,-54.6875,-56.640625,-53.22265625
-18.5546875,-20.5078125,-38.0859375,-37.109375
-3.41796875,-24.4140625,-41.9921875,-38.57421875
-13.18359375,-38.57421875,-56.15234375,-41.015625
-29.78515625,-43.9453125,-49.8046875,-37.59765625
-55.17578125,-46.38671875,-47.36328125,-50.78125
-41.015625,-30.2734375,-50.29296875,-57.6171875
-20.99609375,-20.01953125,-59.08203125,-56.640625
-21.484375,-20.01953125,-57.12890625,-51.26953125
-48.33984375,-23.92578125,-53.7109375,-46.875
-75.68359375,-37.109375,-56.15234375,-53.22265625
-65.91796875,-33.69140625,-54.6875,-58.59375
-18.5546875,1.46484375,-27.34375,-30.2734375
-1.953125,0.0,-17.08984375,-17.08984375
-49.31640625,-33.203125,-43.45703125,-41.9921875
-78.61328125,-34.66796875,-44.43359375,-43.9453125
-58.59375,-22.94921875,-33.203125,-38.57421875
-37.109375,-18.5546875,-42.48046875,-42.96875
-29.296875,-29.296875,-55.6640625,-45.8984375
-34.1796875,-34.1796875,-52.734375,-37.59765625
-61.03515625,-41.50390625,-53.7109375,-37.59765625
-50.78125,-28.80859375,-48.828125,-33.203125
-17.578125,-25.390625,-39.0625,-27.34375
-4.39453125,-34.66796875,-35.15625,-24.4140625
-2.9296875,-28.3203125,-18.5546875,-13.18359375
-37.109375,-43.9453125,-26.3671875,-24.4140625
-58.59375,-44.921875,-43.9453125,-50.29296875
-31.73828125,-29.78515625,-39.55078125,-50.78125
-16.11328125,-33.203125,-42.48046875,-45.41015625
-38.0859375,-45.41015625,-60.546875,-64.453125
-48.828125,-44.921875,-81.0546875,-59.08203125
-42.48046875,-31.25,-59.08203125,-41.9921875
-58.59375,-25.390625,-33.203125,-73.73046875
-50.78125,-34.1796875,-38.57421875,-86.42578125
-53.22265625,-68.84765625,-46.38671875,-75.68359375
-97.65625,-83.0078125,-36.1328125,-79.1015625
-108.3984375,-66.89453125,-20.5078125,-77.1484375
-92.28515625,-69.82421875,-36.62109375,-85.44921875
-78.61328125,-66.40625,-48.828125,-95.703125
-83.0078125,-73.2421875,-52.734375,-92.28515625
-123.53515625,-92.7734375,-50.78125,-98.6328125
-150.87890625,-89.84375,-41.9921875,-108.3984375
-121.09375,-76.171875,-32.2265625,-99.609375
-96.6796875,-81.54296875,-36.62109375,-95.703125
-94.23828125,-87.890625,-42.48046875,-94.23828125
-109.375,-86.42578125,-46.875,-83.0078125
-130.37109375,-82.03125,-56.15234375,-85.44921875
-93.26171875,-62.5,-35.64453125,-68.359375
-60.05859375,-57.12890625,-24.4140625,-54.19921875
-74.70703125,-73.2421875,-44.921875,-67.87109375
-93.26171875,-81.0546875,-50.29296875,-62.5
-110.83984375,-82.03125,-52.24609375,-62.01171875
-87.40234375,-60.546875,-49.8046875,-57.6171875
-49.8046875,-42.48046875,-46.875,-54.6875
-34.66796875,-54.6875,-48.828125,-49.8046875
-52.734375,-71.77734375,-49.8046875,-47.36328125
-82.03125,-76.66015625,-48.828125,-56.15234375
-56.640625,-54.6875,-37.109375,-50.29296875
-17.578125,-40.0390625,-35.64453125,-42.96875
-9.27734375,-51.26953125,-45.8984375,-37.59765625
-26.85546875,-61.5234375,-49.31640625,-36.1328125
-63.96484375,-74.70703125,-60.546875,-50.29296875
-45.41015625,-41.9921875,-36.62109375,-36.1328125
-3.41796875,-12.20703125,-13.671875,-16.11328125
-15.625,-44.921875,-46.875,-41.9921875
-43.45703125,-69.82421875,-62.98828125,-58.59375
-69.82421875,-66.40625,-57.12890625,-53.22265625
-67.87109375,-51.7578125,-45.8984375,-49.8046875
-42.96875,-51.7578125,-50.78125,-52.24609375
-33.69140625,-52.734375,-61.03515625,-62.01171875
-37.109375,-46.875,-40.0390625,-49.31640625
-79.1015625,-67.87109375,-48.828125,-56.15234375
-97.16796875,-78.61328125,-65.4296875,-78.125
-66.40625,-71.77734375,-60.05859375,-67.3828125
-49.8046875,-58.59375,-59.08203125,-60.546875
-59.5703125,-58.10546875,-55.6640625,-54.6875
-85.9375,-74.21875,-53.7109375,-57.12890625
-83.0078125,-63.96484375,-42.48046875,-59.5703125
-50.29296875,-45.41015625,-32.2265625,-45.41015625
-30.76171875,-45.8984375,-36.1328125,-36.62109375
-38.57421875,-61.03515625,-48.33984375,-40.0390625
-51.7578125,-55.6640625,-49.8046875,-31.25
-49.8046875,-33.69140625,-41.015625,-25.390625
-40.0390625,-46.38671875,-53.22265625,-51.7578125
-25.87890625,-55.17578125,-58.59375,-56.15234375
-27.83203125,-54.6875,-59.5703125,-55.17578125
-55.6640625,-61.5234375,-62.5,-62.5
-79.1015625,-64.94140625,-62.98828125,-66.40625
-64.453125,-59.5703125,-62.5,-65.91796875
-35.15625,-50.29296875,-56.640625,-59.5703125
-29.78515625,-55.17578125,-59.5703125,-53.7109375
-50.78125,-86.9140625,-63.96484375,-50.78125
-74.70703125,-166.015625,-58.59375,-58.59375
-25.390625,-206.0546875,-26.85546875,-25.87890625
-1.46484375,-247.0703125,-23.92578125,-24.4140625
-35.64453125,-316.40625,-54.6875,-59.08203125
-61.5234375,-340.8203125,-60.05859375,-54.19921875
-86.42578125,-342.7734375,-61.03515625,-56.15234375
-68.359375,-329.58984375,-54.6875,-53.7109375
-44.43359375,-321.2890625,-51.26953125,-53.22265625
-34.66796875,-314.453125,-50.78125,-47.36328125
-52.734375,-320.80078125,-58.59375,-42.96875
-78.61328125,-326.66015625,-62.01171875,-46.875
-62.98828125,-304.6875,-48.33984375,-44.921875
-25.87890625,-273.4375,-40.52734375,-37.109375
-7.32421875,-266.11328125,-46.38671875,-33.203125
-27.34375,-275.87890625,-51.26953125,-41.015625
-62.01171875,-284.1796875,-57.6171875,-56.640625
-45.8984375,-259.27734375,-42.48046875,-43.9453125
-16.11328125,-226.07421875,-22.4609375,-28.3203125
-27.83203125,-234.86328125,-39.55078125,-48.33984375
-42.96875,-247.0703125,-48.33984375,-52.734375
-56.15234375,-238.76953125,-50.29296875,-49.31640625
-56.640625,-224.609375,-48.33984375,-52.734375
-33.203125,-208.0078125,-45.41015625,-48.33984375
-10.25390625,-198.2421875,-52.734375,-36.1328125
-18.06640625,-197.265625,-55.17578125,-32.2265625
-52.24609375,-191.89453125,-56.640625,-41.9921875
-64.94140625,-194.3359375,-52.24609375,-48.33984375
-41.50390625,-179.19921875,-43.9453125,-44.921875
-2.44140625,-144.04296875,-25.87890625,-20.5078125
-10.25390625,-154.296875,-32.71484375,-26.85546875
-65.4296875,-180.6640625,-50.29296875,-55.6640625
-81.54296875,-177.24609375,-44.43359375,-61.03515625
-57.6171875,-160.15625,-46.38671875,-58.10546875
-33.203125,-144.04296875,-53.22265625,-58.59375
-30.76171875,-140.13671875,-48.828125,-54.19921875
-58.10546875,-145.01953125,-45.41015625,-52.24609375
-78.125,-139.6484375,-52.24609375,-64.453125
-49.8046875,-113.76953125,-49.31640625,-61.03515625
-32.2265625,-109.86328125,-52.24609375,-60.546875
-16.11328125,-105.95703125,-40.52734375,-39.55078125
-30.2734375,-102.5390625,-31.25,-30.76171875
-83.0078125,-127.9296875,-55.17578125,-64.94140625
-61.5234375,-122.0703125,-55.17578125,-64.94140625
-29.78515625,-98.14453125,-50.78125,-56.640625
-29.78515625,-98.6328125,-53.22265625,-54.6875
-59.08203125,-111.328125,-51.7578125,-50.78125
-85.9375,-114.74609375,-52.734375,-53.22265625
-60.05859375,-93.26171875,-45.41015625,-43.9453125
-38.57421875,-78.125,-42.96875,-42.48046875
-39.0625,-85.9375,-50.29296875,-44.921875
-57.12890625,-99.12109375,-50.78125,-47.36328125
-63.4765625,-92.7734375,-35.64453125,-43.45703125
-54.19921875,-79.1015625,-40.52734375,-49.8046875
-47.8515625,-75.68359375,-51.26953125,-64.453125
-37.59765625,-71.2890625,-48.828125,-59.08203125
-57.6171875,-83.49609375,-58.10546875,-57.6171875
-92.7734375,-94.7265625,-61.03515625,-69.82421875
-81.54296875,-77.63671875,-53.7109375,-66.40625
-30.76171875,-49.31640625,-43.45703125,-53.22265625
-8.7890625,-47.36328125,-43.9453125,-54.19921875
-32.71484375,-63.96484375,-59.08203125,-63.96484375
-64.94140625,-62.98828125,-69.3359375,-76.171875
-42.96875,-37.59765625,-40.52734375,-56.640625
1.46484375,-23.4375,-14.6484375,-30.2734375
-6.8359375,-37.59765625,-41.50390625,-41.50390625
-35.64453125,-59.5703125,-56.640625,-50.78125
-69.82421875,-71.2890625,-57.12890625,-51.26953125
-73.73046875,-55.17578125,-47.8515625,-50.78125
-41.50390625,-35.64453125,-43.45703125,-46.875
-20.99609375,-36.1328125,-52.24609375,-42.96875
-30.2734375,-48.33984375,-58.10546875,-40.52734375
-55.6640625,-55.17578125,-57.12890625,-41.50390625
-62.98828125,-49.31640625,-44.43359375,-42.48046875
-40.52734375,-37.59765625,-39.0625,-42.48046875
3.90625,-16.6015625,-19.53125,-17.08984375
-2.9296875,-27.83203125,-26.3671875,-18.06640625
-62.5,-62.5,-56.640625,-53.7109375
-79.1015625,-60.546875,-59.5703125,-61.5234375
-55.17578125,-46.38671875,-60.546875,-59.5703125
-28.3203125,-34.66796875,-52.24609375,-57.6171875
-30.76171875,-36.1328125,-47.8515625,-58.10546875
-59.5703125,-49.31640625,-48.33984375,-61.03515625
-79.1015625,-51.26953125,-47.8515625,-69.3359375
-59.08203125,-37.109375,-43.9453125,-63.96484375
-42.96875,-35.64453125,-45.8984375,-57.6171875
-28.80859375,-30.76171875,-41.015625,-41.015625
-38.0859375,-41.015625,-36.62109375,-27.83203125
-74.21875,-62.5,-47.8515625,-52.24609375
-51.26953125,-45.8984375,-42.48046875,-53.22265625
-13.671875,-36.62109375,-34.1796875,-36.62109375
-11.71875,-43.45703125,-43.45703125,-32.2265625
-41.9921875,-55.17578125,-52.24609375,-39.0625
-63.96484375,-53.22265625,-47.36328125,-41.015625
-41.015625,-41.015625,-44.43359375,-35.64453125
-13.18359375,-32.2265625,-42.48046875,-40.0390625
-5.37109375,-35.64453125,-42.48046875,-41.50390625
-21.484375,-54.19921875,-46.875,-33.69140625
-54.19921875,-54.6875,-52.24609375,-52.734375
-58.10546875,-44.43359375,-50.29296875,-66.89453125
-17.578125,-39.55078125,-48.828125,-50.29296875
-0.48828125,-41.015625,-54.19921875,-39.55078125
-27.83203125,-52.24609375,-56.15234375,-38.0859375
-56.640625,-57.6171875,-62.5,-38.0859375
-56.15234375,-44.921875,-62.5,-39.55078125
-26.3671875,-33.69140625,-47.8515625,-32.71484375
-2.44140625,-30.76171875,-42.96875,-25.87890625
-29.296875,-49.8046875,-59.08203125,-27.34375
-64.94140625,-64.94140625,-65.4296875,-28.3203125
-59.08203125,-48.828125,-53.7109375,-32.71484375
-28.3203125,-27.34375,-43.9453125,-29.78515625
-11.71875,-36.1328125,-46.875,-29.78515625
-26.3671875,-60.05859375,-62.01171875,-32.71484375
-30.76171875,-47.36328125,-43.9453125,-8.7890625
-30.76171875,-32.2265625,-22.4609375,-3.90625
-28.3203125,-44.43359375,-40.0390625,-23.4375
-11.71875,-47.36328125,-49.8046875,-27.83203125
-22.4609375,-56.640625,-59.5703125,-36.62109375
-55.17578125,-60.05859375,-62.5,-40.0390625
-72.75390625,-46.875,-60.05859375,-47.8515625
-46.38671875,-40.0390625,-53.7109375,-45.8984375
-11.23046875,-28.80859375,-47.36328125,-34.1796875
-12.20703125,-29.296875,-58.10546875,-28.3203125
-55.6640625,-59.5703125,-67.87109375,-38.57421875
-80.56640625,-67.87109375,-56.15234375,-47.36328125
-44.921875,-42.96875,-36.62109375,-27.34375
-26.3671875,-34.1796875,-40.0390625,-31.25
-43.9453125,-46.38671875,-57.6171875,-42.48046875
-66.40625,-55.6640625,-55.17578125,-34.66796875
-79.58984375,-53.7109375,-47.8515625,-36.1328125
-56.640625,-40.0390625,-48.33984375,-38.57421875
-28.80859375,-31.73828125,-42.96875,-33.203125
-23.4375,-44.43359375,-45.8984375,-27.34375
-50.29296875,-58.59375,-54.19921875,-34.66796875
-72.265625,-43.45703125,-51.7578125,-38.0859375
-60.05859375,-31.73828125,-53.22265625,-41.9921875
-19.53125,-18.5546875,-37.109375,-27.83203125
9.27734375,-12.6953125,-17.578125,-8.7890625
-36.62109375,-50.78125,-44.43359375,-42.96875
-82.51953125,-60.546875,-58.10546875,-67.3828125
-71.2890625,-47.8515625,-51.7578125,-73.73046875
-42.48046875,-39.55078125,-51.26953125,-71.2890625
-33.203125,-45.41015625,-53.22265625,-62.01171875
-53.7109375,-59.5703125,-57.6171875,-65.91796875
-84.9609375,-65.91796875,-65.91796875,-67.87109375
-76.171875,-62.5,-57.12890625,-61.03515625
-42.96875,-34.66796875,-39.0625,-59.5703125
-33.203125,-32.71484375,-48.33984375,-58.10546875
-39.55078125,-48.33984375,-49.8046875,-40.0390625
-67.87109375,-52.734375,-45.8984375,-37.109375
-77.1484375,-54.19921875,-49.31640625,-46.38671875
-36.62109375,-34.1796875,-41.015625,-32.71484375
-12.20703125,-33.203125,-37.59765625,-25.390625
-35.15625,-62.98828125,-50.29296875,-38.0859375
-67.87109375,-73.2421875,-57.6171875,-49.8046875
-70.80078125,-58.10546875,-54.19921875,-58.10546875
-42.48046875,-44.921875,-42.96875,-55.6640625
-21.97265625,-37.59765625,-39.55078125,-51.7578125
-32.71484375,-41.50390625,-50.29296875,-50.78125
-55.17578125,-49.8046875,-48.828125,-48.33984375
-69.3359375,-56.15234375,-46.875,-61.5234375
-60.546875,-58.10546875,-52.24609375,-70.3125
-38.0859375,-49.31640625,-51.7578125,-71.2890625
-26.85546875,-44.43359375,-45.8984375,-59.5703125
-58.59375,-61.5234375,-44.43359375,-53.22265625
-80.078125,-71.77734375,-46.875,-64.94140625
-50.29296875,-51.26953125,-49.31640625,-59.08203125
-28.3203125,-34.1796875,-53.22265625,-52.734375
-34.66796875,-43.9453125,-60.546875,-57.12890625
-70.80078125,-62.98828125,-64.453125,-65.91796875
-94.23828125,-62.01171875,-57.6171875,-74.21875
-54.19921875,-40.0390625,-36.1328125,-56.640625
-31.73828125,-37.109375,-38.0859375,-59.5703125
-42.48046875,-52.734375,-60.546875,-70.3125
-61.5234375,-58.10546875,-59.5703125,-57.12890625
-82.03125,-63.4765625,-57.6171875,-58.10546875
-51.7578125,-45.8984375,-52.24609375,-55.6640625
-21.97265625,-36.1328125,-49.8046875,-46.38671875
-11.23046875,-39.0625,-41.9921875,-27.83203125
-27.34375,-41.50390625,-40.52734375,-18.06640625
-57.6171875,-51.7578125,-52.24609375,-39.0625
-42.48046875,-38.0859375,-50.78125,-43.9453125
-6.8359375,-14.6484375,-38.0859375,-23.4375
8.30078125,-25.87890625,-32.2265625,-7.8125
-27.34375,-58.10546875,-54.6875,-31.25
-62.5,-60.546875,-61.5234375,-44.921875
-53.7109375,-50.29296875,-47.36328125,-44.921875
-32.2265625,-44.43359375,-44.921875,-51.26953125
-31.73828125,-41.9921875,-56.640625,-50.78125
-57.6171875,-50.29296875,-62.98828125,-48.828125
-88.37890625,-67.87109375,-63.96484375,-55.6640625
-80.078125,-58.10546875,-56.640625,-53.7109375
-46.38671875,-37.59765625,-49.31640625,-43.9453125
-23.4375,-36.1328125,-47.36328125,-30.2734375
-35.64453125,-39.55078125,-43.45703125,-22.94921875
-62.01171875,-47.36328125,-47.8515625,-26.3671875
-65.91796875,-49.8046875,-47.36328125,-39.55078125
-48.33984375,-44.43359375,-38.57421875,-52.24609375
-16.11328125,-29.296875,-22.94921875,-32.71484375
-25.87890625,-41.015625,-34.1796875,-31.25
-74.21875,-67.87109375,-53.7109375,-54.6875
-77.63671875,-62.5,-51.26953125,-58.59375
-41.9921875,-48.828125,-50.29296875,-54.6875
-21.97265625,-45.41015625,-50.78125,-53.7109375
-40.52734375,-54.6875,-52.734375,-53.7109375
-75.68359375,-66.40625,-58.59375,-59.08203125
-83.0078125,-53.7109375,-61.03515625,-60.546875
-55.6640625,-44.43359375,-58.10546875,-57.12890625
-33.203125,-52.734375,-54.19921875,-62.01171875
-11.23046875,-45.41015625,-37.59765625,-38.0859375
-17.08984375,-40.52734375,-28.80859375,-22.94921875
-58.10546875,-48.828125,-50.78125,-56.640625
-50.29296875,-42.96875,-65.91796875,-67.87109375
-28.80859375,-46.38671875,-64.94140625,-62.98828125
-18.5546875,-56.640625,-68.359375,-49.8046875
-36.62109375,-59.08203125,-66.89453125,-41.015625
-83.49609375,-55.17578125,-53.22265625,-62.98828125
-73.73046875,-40.0390625,-40.0390625,-67.3828125
-48.33984375,-30.76171875,-31.73828125,-54.19921875
-46.875,-51.26953125,-41.50390625,-53.22265625
-58.10546875,-68.84765625,-39.55078125,-57.12890625
-65.4296875,-44.921875,-19.53125,-49.8046875
-51.7578125,-32.71484375,-22.94921875,-47.8515625
-39.0625,-41.9921875,-32.71484375,-59.5703125
-21.97265625,-37.109375,-38.0859375,-51.26953125
-30.76171875,-44.43359375,-37.109375,-39.0625
-70.80078125,-61.5234375,-40.0390625,-51.7578125
-66.89453125,-57.12890625,-43.45703125,-60.05859375
-40.0390625,-44.921875,-41.015625,-55.6640625
-28.80859375,-47.8515625,-39.0625,-51.7578125
-42.96875,-50.78125,-39.55078125,-46.38671875
-75.1953125,-62.01171875,-42.48046875,-50.29296875
-62.5,-59.08203125,-30.76171875,-44.921875
-30.76171875,-36.1328125,-30.76171875,-30.2734375
-28.3203125,-43.9453125,-56.15234375,-42.96875
-44.43359375,-54.6875,-59.08203125,-42.48046875
-71.77734375,-58.59375,-48.33984375,-34.1796875
-68.84765625,-46.38671875,-38.0859375,-44.921875
-43.9453125,-35.64453125,-32.2265625,-48.828125
-23.92578125,-35.15625,-31.25,-38.0859375
-33.69140625,-49.8046875,-38.0859375,-42.48046875
-62.98828125,-52.24609375,-44.43359375,-47.36328125
-64.94140625,-33.69140625,-41.015625,-50.78125
-35.15625,-29.78515625,-38.57421875,-53.7109375
-2.9296875,-20.5078125,-29.78515625,-31.25
-20.99609375,-32.2265625,-40.0390625,-29.78515625
-65.4296875,-57.12890625,-57.12890625,-44.921875
-68.84765625,-48.828125,-47.36328125,-42.48046875
-46.875,-36.1328125,-40.0390625,-50.29296875
-26.85546875,-36.1328125,-43.45703125,-46.38671875
-32.2265625,-46.875,-55.6640625,-36.1328125
-65.4296875,-56.15234375,-62.01171875,-45.41015625
-80.56640625,-57.12890625,-59.08203125,-58.59375
-56.640625,-43.9453125,-48.33984375,-56.15234375
-38.0859375,-30.76171875,-41.9921875,-50.29296875
-28.3203125,-38.0859375,-32.71484375,-32.71484375
-43.9453125,-51.7578125,-20.01953125,-11.23046875
-80.078125,-56.15234375,-31.73828125,-37.109375
-66.40625,-43.45703125,-36.62109375,-44.43359375
-36.1328125,-35.64453125,-39.0625,-33.203125
-32.2265625,-52.734375,-46.38671875,-37.109375
-62.5,-67.87109375,-51.7578125,-43.9453125
-89.84375,-65.91796875,-50.78125,-57.12890625
-71.77734375,-50.78125,-43.45703125,-53.7109375
-40.0390625,-38.57421875,-41.015625,-49.8046875
-32.2265625,-49.8046875,-49.31640625,-51.26953125
-52.24609375,-54.6875,-54.19921875,-45.41015625
-62.98828125,-52.24609375,-36.62109375,-33.203125
-56.640625,-49.8046875,-35.15625,-37.109375
-41.015625,-45.41015625,-44.921875,-49.8046875
-26.85546875,-54.6875,-41.9921875,-40.0390625
-47.8515625,-64.94140625,-48.33984375,-37.59765625
-84.47265625,-71.2890625,-60.05859375,-52.734375
-79.58984375,-50.78125,-50.29296875,-59.08203125
-43.45703125,-31.25,-37.59765625,-53.7109375
-35.64453125,-44.921875,-43.45703125,-52.24609375
-62.01171875,-58.10546875,-48.828125,-50.29296875
-94.7265625,-67.87109375,-53.7109375,-58.59375
-79.1015625,-47.36328125,-46.875,-61.03515625
-44.921875,-35.15625,-44.921875,-59.08203125
-35.64453125,-55.17578125,-58.10546875,-59.5703125
-49.31640625,-62.5,-63.96484375,-56.640625
-67.3828125,-64.94140625,-54.6875,-50.29296875
-60.546875,-49.31640625,-42.48046875,-54.19921875
-41.9921875,-41.50390625,-43.9453125,-64.94140625
-28.3203125,-46.38671875,-45.41015625,-58.10546875
-26.85546875,-45.41015625,-46.875,-49.8046875
-52.24609375,-49.31640625,-57.6171875,-55.17578125
-75.1953125,-53.7109375,-57.12890625,-72.75390625
-48.33984375,-40.0390625,-48.33984375,-69.3359375
-13.671875,-29.78515625,-53.22265625,-56.15234375
-23.4375,-44.43359375,-56.15234375,-52.734375
-59.5703125,-57.6171875,-55.6640625,-50.29296875
-65.91796875,-49.31640625,-54.19921875,-46.38671875
-24.90234375,-39.55078125,-45.8984375,-23.92578125
-14.6484375,-43.45703125,-40.52734375,-23.92578125
-44.921875,-53.22265625,-46.875,-42.48046875
-76.171875,-62.01171875,-46.38671875,-41.9921875
-87.40234375,-59.08203125,-40.52734375,-44.921875
-61.5234375,-42.96875,-37.59765625,-46.875
