TP9,AF7,AF8,TP10
77.1484375,67.87109375,-32.2265625,120.60546875
33.203125,-33.203125,-27.83203125,90.8203125
-95.703125,-223.6328125,-34.66796875,-128.90625
-151.85546875,-144.53125,-48.828125,-270.5078125
18.06640625,125.0,-35.64453125,25.390625
73.73046875,87.890625,-27.34375,120.1171875
44.921875,-28.3203125,-28.3203125,88.8671875
-90.8203125,-210.9375,-39.0625,-106.4453125
-194.3359375,-176.7578125,-51.26953125,-291.50390625
-18.06640625,99.609375,-43.45703125,-11.23046875
65.91796875,81.0546875,-37.59765625,121.58203125
19.53125,5.37109375,-39.55078125,87.890625
-83.0078125,-175.78125,-44.43359375,-94.23828125
-196.77734375,-228.02734375,-58.59375,-318.359375
-58.59375,76.66015625,-47.8515625,-65.4296875
50.78125,93.75,-28.80859375,113.76953125
25.87890625,21.97265625,-36.1328125,90.33203125
-62.5,-143.5546875,-48.828125,-45.8984375
-195.3125,-257.8125,-61.03515625,-298.828125
-82.03125,44.43359375,-57.6171875,-104.00390625
60.05859375,106.4453125,-39.0625,112.79296875
50.78125,15.625,-33.69140625,105.46875
-50.29296875,-127.44140625,-35.64453125,-20.99609375
-214.35546875,-256.34765625,-51.7578125,-297.8515625
-124.0234375,-5.37109375,-47.8515625,-155.76171875
35.15625,99.609375,-33.69140625,79.58984375
27.83203125,17.578125,-34.1796875,85.9375
-43.45703125,-121.58203125,-29.78515625,3.90625
-195.3125,-266.6015625,-47.8515625,-264.16015625
-131.34765625,-15.625,-51.26953125,-178.22265625
26.85546875,99.12109375,-34.66796875,82.03125
22.4609375,-3.90625,-40.0390625,80.56640625
-25.390625,-111.328125,-48.33984375,29.296875
-170.8984375,-279.296875,-63.96484375,-219.23828125
-155.2734375,-78.61328125,-62.98828125,-212.40234375
25.390625,119.62890625,-40.52734375,61.5234375
44.43359375,45.41015625,-36.1328125,90.33203125
-22.94921875,-78.125,-40.52734375,40.52734375
-166.9921875,-259.27734375,-54.19921875,-213.37890625
-179.6875,-99.12109375,-66.40625,-263.671875
5.37109375,121.09375,-50.29296875,32.2265625
41.9921875,54.6875,-30.76171875,90.8203125
-7.32421875,-59.08203125,-30.76171875,76.171875
-142.08984375,-269.53125,-47.36328125,-151.85546875
-192.87109375,-153.3203125,-57.6171875,-281.73828125
-15.625,108.3984375,-39.55078125,12.20703125
49.8046875,69.82421875,-33.203125,105.95703125
23.4375,-5.37109375,-44.921875,82.51953125
-98.6328125,-213.37890625,-59.5703125,-129.39453125
-190.4296875,-179.6875,-70.3125,-300.29296875
-23.92578125,105.46875,-55.6640625,-6.8359375
56.15234375,76.171875,-42.48046875,116.69921875
23.4375,5.37109375,-41.015625,92.7734375
-91.796875,-166.015625,-52.24609375,-81.54296875
-213.37890625,-198.73046875,-70.3125,-296.875
-64.453125,78.125,-53.7109375,-54.6875
42.96875,80.56640625,-37.59765625,103.515625
16.6015625,9.27734375,-40.52734375,100.5859375
-84.47265625,-171.38671875,-49.31640625,-44.921875
-211.9140625,-250.0,-62.5,-303.7109375
-84.9609375,66.89453125,-53.7109375,-103.02734375
42.48046875,109.86328125,-42.48046875,95.703125
24.4140625,15.625,-39.0625,93.26171875
-63.4765625,-145.99609375,-45.8984375,-20.5078125
-205.56640625,-261.71875,-68.84765625,-284.66796875
-107.91015625,49.8046875,-66.89453125,-137.20703125
40.0390625,107.91015625,-46.875,86.42578125
35.64453125,11.71875,-36.1328125,103.515625
-41.9921875,-111.81640625,-43.45703125,11.23046875
-196.77734375,-296.38671875,-64.453125,-267.08984375
-128.90625,-25.87890625,-61.03515625,-178.7109375
39.0625,135.7421875,-35.64453125,70.80078125
39.0625,29.78515625,-25.87890625,88.8671875
-20.99609375,-110.83984375,-37.109375,20.01953125
-171.875,-274.4140625,-55.6640625,-243.1640625
-149.90234375,-49.31640625,-51.26953125,-212.40234375
32.2265625,137.6953125,-33.69140625,72.75390625
57.12890625,64.94140625,-32.71484375,106.4453125
-2.44140625,-84.9609375,-35.64453125,50.29296875
-155.2734375,-283.203125,-44.43359375,-201.171875
-162.109375,-88.37890625,-44.43359375,-232.421875
21.97265625,127.44140625,-33.203125,54.19921875
42.96875,42.48046875,-34.1796875,92.7734375
-4.39453125,-36.1328125,-36.1328125,64.94140625
-137.6953125,-255.37109375,-51.7578125,-166.50390625
-187.01171875,-150.87890625,-62.5,-276.85546875
3.41796875,136.71875,-41.015625,30.2734375
61.5234375,57.12890625,-41.50390625,106.4453125
16.6015625,-29.296875,-45.41015625,69.82421875
-111.81640625,-198.2421875,-53.22265625,-137.20703125
-192.3828125,-170.41015625,-64.94140625,-300.29296875
-23.4375,104.98046875,-44.921875,-14.6484375
49.31640625,68.84765625,-29.78515625,104.00390625
23.92578125,6.8359375,-31.25,99.609375
-86.42578125,-178.7109375,-47.36328125,-84.9609375
-194.3359375,-221.6796875,-57.6171875,-311.03515625
-34.66796875,93.26171875,-37.59765625,-62.01171875
68.359375,119.62890625,-32.71484375,96.6796875
43.45703125,41.9921875,-41.9921875,94.23828125
-66.89453125,-169.43359375,-42.48046875,-49.8046875
-199.70703125,-231.4453125,-46.38671875,-282.2265625
-54.6875,91.796875,-36.1328125,-71.2890625
63.4765625,98.6328125,-24.90234375,110.3515625
25.390625,12.20703125,-29.296875,98.6328125
-63.96484375,-138.671875,-42.48046875,-31.73828125
-208.0078125,-270.99609375,-61.03515625,-296.38671875
-103.02734375,34.66796875,-53.7109375,-127.9296875
41.9921875,128.41796875,-35.15625,83.984375
27.34375,31.73828125,-35.64453125,83.984375
-45.8984375,-127.9296875,-44.43359375,-10.7421875
-193.359375,-287.109375,-65.4296875,-274.90234375
-115.234375,-22.4609375,-62.98828125,-159.1796875
54.19921875,126.46484375,-40.0390625,92.28515625
53.7109375,60.05859375,-41.015625,113.28125
-15.625,-91.30859375,-49.8046875,44.43359375
-167.48046875,-289.55078125,-60.05859375,-230.95703125
-122.55859375,-62.5,-55.6640625,-177.24609375
55.17578125,115.72265625,-30.2734375,99.12109375
58.10546875,35.64453125,-22.94921875,89.84375
-7.32421875,-76.171875,-28.80859375,29.296875
-152.83203125,-268.06640625,-36.62109375,-221.6796875
-165.52734375,-102.05078125,-44.921875,-245.60546875
10.25390625,106.4453125,-33.203125,42.48046875
47.36328125,42.96875,-27.34375,87.40234375
-5.859375,-61.5234375,-32.71484375,57.6171875
-141.6015625,-241.69921875,-47.8515625,-172.36328125
-182.12890625,-131.8359375,-55.17578125,-250.48828125
-10.25390625,112.79296875,-41.015625,29.78515625
44.43359375,71.77734375,-43.45703125,89.35546875
10.25390625,-41.9921875,-46.38671875,72.75390625
-115.234375,-241.69921875,-47.8515625,-136.23046875
-188.96484375,-170.41015625,-56.15234375,-291.015625
-5.37109375,126.953125,-43.45703125,-8.7890625
73.73046875,84.47265625,-33.69140625,98.6328125
39.55078125,-20.99609375,-41.9921875,83.0078125
-83.49609375,-224.12109375,-58.59375,-104.98046875
-187.5,-204.58984375,-72.265625,-297.36328125
-15.625,126.46484375,-53.22265625,-26.3671875
80.078125,97.65625,-30.2734375,109.86328125
50.29296875,-11.71875,-30.76171875,100.09765625
-59.5703125,-191.40625,-46.875,-52.734375
-189.94140625,-229.98046875,-66.40625,-302.24609375
-54.19921875,95.21484375,-52.24609375,-75.68359375
64.94140625,115.72265625,-40.52734375,123.046875
49.31640625,1.953125,-46.875,101.5625
-45.8984375,-161.1328125,-47.8515625,-36.62109375
-195.3125,-258.30078125,-54.19921875,-274.4140625
-88.8671875,42.48046875,-45.41015625,-101.07421875
51.7578125,126.953125,-32.71484375,94.7265625
39.0625,34.66796875,-34.1796875,97.16796875
-40.52734375,-131.8359375,-47.36328125,1.46484375
-184.5703125,-281.25,-60.05859375,-266.11328125
-110.83984375,-16.11328125,-53.7109375,-149.4140625
48.828125,105.46875,-39.55078125,97.65625
50.78125,24.90234375,-37.109375,97.16796875
-27.83203125,-104.00390625,-45.8984375,12.6953125
-178.22265625,-277.83203125,-65.91796875,-246.58203125
-127.44140625,-28.80859375,-58.59375,-193.359375
41.50390625,156.73828125,-31.73828125,68.359375
39.55078125,22.4609375,-27.34375,80.078125
-26.3671875,-116.2109375,-36.62109375,20.5078125
-168.45703125,-254.39453125,-52.24609375,-222.65625
-161.1328125,-78.125,-49.31640625,-217.28515625
23.4375,101.5625,-36.62109375,59.08203125
50.78125,33.69140625,-48.828125,97.16796875
-4.8828125,-75.1953125,-49.8046875,65.4296875
-154.296875,-265.13671875,-49.8046875,-172.36328125
-198.73046875,-115.72265625,-59.5703125,-260.25390625
-7.32421875,134.27734375,-43.45703125,28.3203125
44.921875,63.96484375,-37.59765625,99.12109375
-4.8828125,-41.9921875,-48.33984375,65.91796875
-142.08984375,-249.0234375,-59.08203125,-145.99609375
-208.49609375,-156.25,-67.3828125,-270.99609375
-15.13671875,133.7890625,-51.7578125,13.671875
52.24609375,60.546875,-41.50390625,93.26171875
5.859375,-48.828125,-50.78125,66.40625
-116.69921875,-229.00390625,-61.5234375,-112.79296875
-218.26171875,-201.66015625,-67.87109375,-299.31640625
-46.38671875,103.515625,-47.8515625,-28.3203125
50.29296875,83.0078125,-38.0859375,108.88671875
26.85546875,-10.25390625,-43.45703125,83.49609375
-73.73046875,-184.5703125,-47.8515625,-89.84375
-200.68359375,-224.12109375,-64.453125,-304.6875
-51.7578125,91.796875,-60.05859375,-64.94140625
67.87109375,118.65234375,-42.96875,96.6796875
42.96875,26.85546875,-36.62109375,84.47265625
-58.59375,-174.8046875,-47.36328125,-43.9453125
-200.68359375,-269.04296875,-63.4765625,-277.83203125
-75.1953125,53.22265625,-48.33984375,-89.84375
58.10546875,87.890625,-31.25,93.26171875
32.2265625,-0.9765625,-42.48046875,84.9609375
-50.29296875,-137.6953125,-52.24609375,-11.71875
-197.265625,-279.296875,-68.359375,-277.34375
-120.1171875,10.7421875,-61.03515625,-153.3203125
41.015625,119.140625,-35.64453125,85.9375
36.62109375,20.01953125,-28.3203125,94.23828125
-49.8046875,-130.859375,-35.15625,1.953125
-191.40625,-264.16015625,-56.15234375,-265.13671875
-138.671875,-14.16015625,-51.26953125,-184.5703125
21.484375,109.86328125,-33.69140625,70.3125
37.59765625,35.64453125,-33.203125,91.30859375
-25.390625,-82.51953125,-36.1328125,30.76171875
-181.640625,-266.6015625,-46.38671875,-235.3515625
-161.62109375,-64.453125,-47.36328125,-220.703125
27.34375,120.1171875,-36.62109375,56.640625
43.9453125,37.109375,-40.52734375,76.66015625
-7.8125,-83.984375,-42.48046875,26.3671875
-156.25,-277.34375,-57.12890625,-214.84375
-183.10546875,-99.609375,-61.03515625,-259.765625
13.671875,150.390625,-40.52734375,37.59765625
62.5,59.08203125,-38.57421875,101.5625
15.625,-53.22265625,-44.43359375,79.1015625
-133.7890625,-246.09375,-58.10546875,-155.2734375
-193.84765625,-142.578125,-72.75390625,-279.78515625
1.953125,145.99609375,-65.91796875,17.578125
67.3828125,94.7265625,-59.08203125,95.703125
27.83203125,13.18359375,-55.6640625,75.68359375
-106.4453125,-166.015625,-64.94140625,-111.81640625
-189.453125,-126.46484375,-75.1953125,-291.015625
-15.13671875,144.53125,-65.91796875,-28.80859375
65.91796875,122.0703125,-61.03515625,87.890625
49.31640625,69.82421875,-67.87109375,74.21875
-69.3359375,-136.23046875,-85.44921875,-98.14453125
-180.6640625,-165.52734375,-95.703125,-297.8515625
-22.4609375,159.1796875,-82.03125,-54.6875
84.9609375,158.203125,-73.73046875,102.05078125
58.10546875,45.41015625,-71.77734375,99.12109375
-46.875,-143.06640625,-73.73046875,-62.01171875
-181.15234375,-218.26171875,-81.54296875,-310.546875
-58.59375,88.37890625,-67.3828125,-93.75
73.73046875,126.46484375,-52.734375,91.796875
45.8984375,45.41015625,-54.19921875,74.70703125
-51.26953125,-108.88671875,-62.98828125,-36.62109375
-175.29296875,-197.265625,-76.66015625,-285.64453125
-79.1015625,73.73046875,-63.96484375,-136.71875
54.6875,110.3515625,-46.38671875,82.03125
42.96875,27.34375,-49.31640625,77.1484375
-40.52734375,-108.3984375,-54.6875,-19.53125
-183.10546875,-251.46484375,-69.82421875,-278.3203125
-112.79296875,2.44140625,-72.265625,-173.828125
47.36328125,118.1640625,-52.24609375,81.0546875
56.640625,25.87890625,-52.734375,105.95703125
-4.39453125,-88.37890625,-53.7109375,42.48046875
-151.85546875,-258.30078125,-45.8984375,-237.79296875
-121.09375,-42.96875,-60.546875,-207.51953125
45.8984375,156.73828125,-50.78125,78.125
72.265625,53.22265625,-26.3671875,114.74609375
22.4609375,-69.3359375,-47.8515625,71.2890625
-106.4453125,-246.58203125,-79.1015625,-166.50390625
-126.953125,-109.375,-58.59375,-206.54296875
19.53125,122.55859375,-23.4375,69.82421875
46.38671875,71.2890625,-20.99609375,119.140625
11.71875,-34.1796875,-28.80859375,81.54296875
-126.46484375,-229.98046875,-45.8984375,-165.52734375
-178.7109375,-131.34765625,-62.01171875,-270.99609375
5.37109375,133.7890625,-45.8984375,38.57421875
40.52734375,73.2421875,-32.71484375,107.421875
0.9765625,-4.8828125,-40.52734375,68.84765625
-113.28125,-208.49609375,-56.15234375,-133.30078125
-185.546875,-186.5234375,-62.98828125,-295.41015625
-18.06640625,115.234375,-42.96875,-8.30078125
52.24609375,76.66015625,-33.69140625,112.79296875
23.92578125,-1.953125,-39.0625,107.91015625
-85.9375,-187.01171875,-52.24609375,-79.1015625
-194.3359375,-227.5390625,-60.05859375,-301.7578125
-53.22265625,68.359375,-41.015625,-45.8984375
45.8984375,80.56640625,-30.2734375,112.79296875
24.90234375,1.46484375,-26.3671875,98.14453125
-72.265625,-151.85546875,-33.69140625,-58.59375
-196.2890625,-202.1484375,-48.828125,-301.26953125
-84.9609375,58.59375,-36.1328125,-71.77734375
33.203125,88.37890625,-21.97265625,131.8359375
24.4140625,24.4140625,-30.76171875,122.0703125
-66.89453125,-132.8125,-49.31640625,-23.92578125
-194.82421875,-261.23046875,-63.96484375,-309.08203125
-89.84375,24.4140625,-48.828125,-120.60546875
49.31640625,112.3046875,-37.59765625,112.3046875
40.52734375,19.53125,-52.734375,100.09765625
-45.8984375,-116.69921875,-55.17578125,-6.8359375
-187.01171875,-257.8125,-58.10546875,-298.33984375
-124.0234375,-2.9296875,-51.7578125,-176.7578125
25.390625,121.58203125,-34.66796875,95.703125
29.78515625,20.5078125,-37.109375,90.33203125
-38.0859375,-111.81640625,-39.55078125,6.34765625
-168.45703125,-261.71875,-53.22265625,-274.90234375
-134.27734375,-55.17578125,-51.26953125,-240.72265625
16.11328125,103.515625,-31.25,60.05859375
35.15625,34.66796875,-32.71484375,103.515625
-4.8828125,-83.984375,-38.57421875,40.52734375
-132.8125,-269.53125,-58.59375,-237.79296875
-136.71875,-94.23828125,-71.2890625,-272.4609375
21.484375,117.1875,-51.7578125,38.57421875
56.15234375,51.7578125,-42.48046875,93.75
16.6015625,-48.33984375,-42.96875,51.26953125
-123.53515625,-227.5390625,-50.29296875,-192.3828125
-174.31640625,-141.6015625,-64.453125,-292.96875
-21.484375,87.40234375,-56.640625,16.6015625
22.94921875,52.734375,-42.48046875,97.65625
-5.37109375,-25.390625,-30.76171875,61.5234375
-116.2109375,-225.09765625,-42.48046875,-160.64453125
-183.10546875,-170.8984375,-62.98828125,-311.03515625
-20.01953125,105.46875,-47.8515625,-11.71875
41.9921875,53.7109375,-38.57421875,101.07421875
-0.48828125,-28.80859375,-45.41015625,89.35546875
-96.19140625,-191.40625,-53.22265625,-107.91015625
-174.8046875,-184.5703125,-59.08203125,-319.3359375
-43.45703125,62.5,-43.9453125,-15.13671875
39.0625,52.734375,-32.2265625,140.625
20.99609375,8.30078125,-35.15625,118.65234375
-66.89453125,-158.203125,-46.875,-53.7109375
-172.36328125,-205.078125,-61.03515625,-322.75390625
-57.6171875,68.84765625,-58.10546875,-82.03125
51.26953125,87.890625,-41.015625,113.76953125
41.9921875,22.94921875,-30.2734375,93.75
-56.15234375,-136.23046875,-41.50390625,-50.29296875
-189.453125,-267.578125,-66.89453125,-323.73046875
-67.87109375,26.3671875,-61.5234375,-117.67578125
68.84765625,119.140625,-32.2265625,126.953125
44.43359375,2.44140625,-21.484375,102.05078125
-52.24609375,-153.80859375,-30.76171875,-27.83203125
-198.73046875,-282.2265625,-50.78125,-307.6171875
-132.8125,-39.0625,-41.015625,-180.17578125
0.9765625,70.3125,-16.11328125,69.3359375
-4.39453125,-12.20703125,-8.30078125,63.96484375
-89.84375,-169.921875,-14.6484375,-23.4375
-228.515625,-326.171875,-30.2734375,-293.9453125
-171.875,-79.58984375,-22.4609375,-228.02734375
-21.97265625,67.87109375,-1.953125,57.12890625
-20.5078125,-32.2265625,-3.90625,82.03125
-43.9453125,-118.65234375,-12.20703125,23.4375
-163.57421875,-300.29296875,-22.94921875,-256.8359375
-178.7109375,-139.6484375,-26.85546875,-266.11328125
-20.5078125,71.77734375,-18.5546875,54.6875
19.04296875,3.41796875,-7.32421875,103.02734375
-15.13671875,-96.19140625,-8.7890625,54.19921875
-153.3203125,-275.87890625,-41.50390625,-197.75390625
-178.7109375,-145.99609375,-55.17578125,-268.06640625
3.90625,92.7734375,-34.66796875,63.4765625
41.50390625,36.1328125,-20.01953125,136.71875
-9.27734375,-66.40625,-11.23046875,98.14453125
-124.0234375,-236.81640625,-25.87890625,-140.625
-176.7578125,-149.4140625,-43.9453125,-287.59765625
-25.390625,79.1015625,-32.71484375,24.4140625
22.4609375,15.625,-24.4140625,122.55859375
-0.48828125,-41.50390625,-20.99609375,108.88671875
-101.07421875,-215.33203125,-32.2265625,-94.23828125
-182.6171875,-191.40625,-41.015625,-298.828125
-24.4140625,101.5625,-26.3671875,-1.953125
59.08203125,74.70703125,-20.5078125,120.60546875
31.73828125,-11.23046875,-28.80859375,86.9140625
-67.3828125,-173.828125,-44.921875,-75.68359375
-178.7109375,-211.9140625,-59.08203125,-313.96484375
-55.17578125,67.87109375,-43.9453125,-67.3828125
44.921875,102.5390625,-25.87890625,102.05078125
28.80859375,29.296875,-20.01953125,85.9375
-61.03515625,-163.0859375,-29.78515625,-59.5703125
-176.7578125,-246.58203125,-49.31640625,-314.94140625
-65.4296875,56.15234375,-42.96875,-104.00390625
45.8984375,94.23828125,-27.83203125,99.609375
25.390625,10.25390625,-26.85546875,83.0078125
-55.6640625,-121.09375,-32.71484375,-24.90234375
-198.73046875,-254.8828125,-48.828125,-296.38671875
-131.34765625,-2.44140625,-48.33984375,-163.0859375
19.04296875,101.5625,-33.69140625,90.33203125
14.16015625,27.34375,-29.296875,105.95703125
-55.17578125,-109.375,-35.15625,19.53125
-193.84765625,-281.73828125,-64.94140625,-264.16015625
-145.01953125,-45.41015625,-77.63671875,-182.6171875
17.08984375,105.46875,-46.38671875,104.00390625
19.04296875,2.9296875,-35.15625,102.05078125
-33.69140625,-104.98046875,-38.0859375,47.36328125
-162.109375,-267.08984375,-44.921875,-228.02734375
-148.92578125,-79.58984375,-50.29296875,-257.8125
20.99609375,111.81640625,-39.0625,41.50390625
49.8046875,45.41015625,-38.0859375,81.0546875
-0.9765625,-68.359375,-41.015625,39.55078125
-135.7421875,-241.2109375,-53.22265625,-217.28515625
-156.25,-83.49609375,-58.59375,-285.15625
9.765625,105.46875,-40.0390625,20.99609375
55.6640625,26.3671875,-34.66796875,79.58984375
2.9296875,-53.22265625,-40.0390625,43.9453125
-139.16015625,-235.83984375,-52.734375,-186.03515625
-184.08203125,-132.8125,-61.5234375,-305.17578125
-4.39453125,120.60546875,-41.015625,12.6953125
55.17578125,43.45703125,-38.0859375,103.515625
10.7421875,-33.203125,-49.8046875,79.58984375
-117.67578125,-215.33203125,-55.6640625,-128.90625
-208.0078125,-200.68359375,-59.08203125,-318.84765625
-36.62109375,98.6328125,-39.0625,-10.7421875
57.6171875,84.9609375,-26.85546875,128.41796875
14.16015625,-26.3671875,-33.203125,88.8671875
-92.7734375,-196.77734375,-48.828125,-100.5859375
-191.40625,-209.47265625,-68.84765625,-313.4765625
-49.31640625,77.63671875,-51.7578125,-47.8515625
53.7109375,87.40234375,-42.48046875,110.83984375
31.73828125,6.8359375,-46.38671875,87.40234375
-54.19921875,-151.85546875,-52.734375,-60.05859375
-172.36328125,-223.6328125,-63.96484375,-305.6640625
-54.6875,67.3828125,-47.36328125,-97.65625
59.08203125,92.7734375,-38.0859375,97.65625
40.0390625,21.484375,-39.55078125,87.40234375
-40.52734375,-96.19140625,-43.45703125,-23.92578125
-180.6640625,-252.9296875,-60.05859375,-301.7578125
-111.328125,-2.44140625,-49.8046875,-159.1796875
23.4375,110.83984375,-30.2734375,87.40234375
25.87890625,10.25390625,-27.34375,98.6328125
-39.0625,-122.0703125,-29.78515625,5.37109375
-176.7578125,-263.18359375,-52.24609375,-279.296875
-122.0703125,-35.64453125,-57.6171875,-187.98828125
31.73828125,93.75,-42.96875,90.8203125
22.94921875,24.4140625,-35.64453125,97.65625
-39.55078125,-89.84375,-31.73828125,27.83203125
-173.828125,-248.53515625,-41.9921875,-231.4453125
-155.76171875,-36.62109375,-45.41015625,-218.75
11.23046875,114.2578125,-34.1796875,75.1953125
31.73828125,18.5546875,-33.203125,105.95703125
-7.8125,-87.890625,-35.64453125,50.78125
-145.01953125,-252.44140625,-44.921875,-208.984375
-159.1796875,-86.42578125,-51.26953125,-258.30078125
19.53125,118.1640625,-41.50390625,59.5703125
39.0625,41.9921875,-39.0625,102.5390625
-12.6953125,-47.36328125,-43.45703125,43.9453125
-130.859375,-215.33203125,-60.05859375,-176.7578125
-170.41015625,-128.41796875,-65.91796875,-273.4375
-5.859375,105.95703125,-49.8046875,22.4609375
52.734375,87.890625,-37.59765625,98.6328125
23.4375,-12.20703125,-36.1328125,76.171875
-95.21484375,-207.03125,-49.8046875,-118.65234375
-180.17578125,-159.1796875,-60.546875,-274.4140625
-18.5546875,103.02734375,-52.734375,21.484375
69.3359375,68.84765625,-36.62109375,127.44140625
40.0390625,-19.53125,-20.99609375,86.42578125
-75.1953125,-183.10546875,-30.76171875,-91.796875
-179.19921875,-194.82421875,-47.36328125,-303.7109375
-42.96875,89.35546875,-39.55078125,-52.734375
51.7578125,88.37890625,-25.390625,95.21484375
18.06640625,8.7890625,-27.34375,79.1015625
-90.8203125,-152.34375,-49.31640625,-72.75390625
-205.56640625,-234.375,-62.01171875,-313.96484375
-77.1484375,49.31640625,-49.31640625,-82.51953125
35.15625,98.14453125,-39.0625,97.16796875
16.11328125,28.80859375,-40.52734375,84.9609375
-62.5,-132.32421875,-51.7578125,-30.2734375
-188.96484375,-253.90625,-72.265625,-305.6640625
-85.44921875,35.64453125,-62.98828125,-135.25390625
46.875,118.1640625,-42.48046875,99.12109375
35.15625,18.06640625,-40.0390625,83.984375
-30.2734375,-121.58203125,-43.45703125,-12.6953125
-179.6875,-274.4140625,-68.84765625,-275.390625
-118.1640625,5.859375,-71.2890625,-165.0390625
38.57421875,112.79296875,-49.31640625,87.40234375
35.64453125,-6.8359375,-44.43359375,86.42578125
-26.3671875,-105.46875,-49.8046875,7.8125
-166.015625,-262.20703125,-62.98828125,-256.34765625
-138.671875,-62.98828125,-62.5,-217.7734375
26.3671875,99.609375,-47.8515625,53.7109375
42.48046875,32.2265625,-42.48046875,84.47265625
-11.71875,-72.265625,-46.38671875,42.96875
-154.296875,-251.46484375,-70.80078125,-208.984375
-166.50390625,-99.609375,-82.03125,-236.81640625
14.6484375,133.7890625,-54.19921875,58.59375
68.84765625,83.49609375,-34.1796875,99.609375
21.97265625,-52.734375,-33.69140625,59.5703125
-142.08984375,-257.8125,-51.26953125,-184.5703125
-202.63671875,-144.04296875,-65.91796875,-283.69140625
-6.34765625,101.07421875,-46.875,24.4140625
49.31640625,46.875,-31.25,100.09765625
2.44140625,-39.0625,-31.25,80.56640625
-113.76953125,-227.5390625,-39.0625,-119.62890625
-192.3828125,-174.8046875,-54.19921875,-275.87890625
-33.69140625,116.2109375,-42.96875,-3.90625
41.9921875,82.03125,-33.203125,99.609375
17.578125,1.953125,-41.50390625,78.61328125
-97.65625,-177.734375,-52.24609375,-94.7265625
-197.265625,-208.0078125,-59.5703125,-289.0625
-48.33984375,71.77734375,-43.9453125,-34.66796875
42.48046875,69.82421875,-25.390625,105.46875
24.90234375,-7.8125,-24.4140625,100.5859375
-70.80078125,-170.8984375,-40.0390625,-53.22265625
-189.453125,-230.46875,-50.29296875,-302.734375
-55.6640625,75.1953125,-39.55078125,-78.61328125
67.87109375,110.83984375,-31.73828125,108.3984375
45.41015625,13.18359375,-35.64453125,87.40234375
-47.36328125,-145.5078125,-54.6875,-39.0625
-183.10546875,-245.60546875,-67.3828125,-289.55078125
-82.51953125,59.08203125,-55.17578125,-130.859375
49.31640625,113.76953125,-39.55078125,71.77734375
40.0390625,23.4375,-36.1328125,77.63671875
-36.1328125,-110.83984375,-49.31640625,-11.71875
-173.828125,-276.85546875,-62.98828125,-270.5078125
-103.02734375,-8.7890625,-55.17578125,-160.64453125
57.12890625,102.5390625,-36.1328125,72.75390625
47.36328125,16.6015625,-21.97265625,93.26171875
-43.45703125,-114.74609375,-28.80859375,18.5546875
-183.59375,-265.13671875,-57.6171875,-251.953125
-147.4609375,-41.015625,-58.59375,-203.125
8.7890625,116.69921875,-35.15625,56.640625
33.69140625,46.38671875,-32.71484375,78.125
-12.20703125,-87.890625,-42.48046875,24.90234375
-154.296875,-272.94921875,-58.59375,-219.23828125
-145.99609375,-92.28515625,-63.96484375,-242.1875
24.4140625,112.3046875,-44.43359375,39.55078125
50.78125,46.38671875,-35.64453125,96.19140625
2.44140625,-57.12890625,-41.50390625,38.57421875
-133.7890625,-253.41796875,-62.5,-192.3828125
-160.15625,-110.3515625,-71.77734375,-253.90625
18.06640625,135.25390625,-47.8515625,31.25
59.08203125,56.640625,-38.0859375,102.05078125
7.32421875,-38.0859375,-45.8984375,76.171875
-109.86328125,-215.8203125,-59.5703125,-143.06640625
-186.03515625,-161.62109375,-65.91796875,-275.87890625
-31.73828125,100.09765625,-53.7109375,5.859375
41.9921875,71.2890625,-51.26953125,90.8203125
18.5546875,0.9765625,-48.828125,73.73046875
-107.421875,-193.359375,-51.7578125,-102.5390625
-200.1953125,-190.91796875,-65.91796875,-292.96875
-45.41015625,100.09765625,-56.15234375,-28.80859375
45.41015625,92.28515625,-45.8984375,104.4921875
33.69140625,27.83203125,-45.41015625,84.47265625
-84.47265625,-178.7109375,-47.8515625,-78.125
-198.73046875,-239.74609375,-68.84765625,-304.6875
-61.5234375,80.078125,-61.5234375,-68.84765625
44.43359375,99.12109375,-41.015625,100.5859375
22.4609375,-0.9765625,-42.48046875,78.61328125
-71.77734375,-168.9453125,-52.734375,-62.5
-198.73046875,-238.76953125,-63.4765625,-304.6875
-83.49609375,68.359375,-53.22265625,-114.74609375
48.33984375,114.74609375,-39.0625,90.8203125
29.78515625,28.80859375,-38.57421875,93.75
-55.17578125,-124.0234375,-43.45703125,-16.6015625
-197.75390625,-263.671875,-62.01171875,-295.8984375
-122.0703125,6.8359375,-61.03515625,-169.921875
20.5078125,106.93359375,-45.41015625,68.359375
17.578125,36.1328125,-38.0859375,83.49609375
-43.45703125,-106.4453125,-26.85546875,18.06640625
-179.19921875,-292.96875,-41.015625,-245.60546875
-133.7890625,-41.9921875,-52.734375,-199.70703125
28.80859375,110.83984375,-39.0625,64.94140625
35.64453125,28.80859375,-33.203125,89.84375
-27.34375,-94.7265625,-39.0625,20.01953125
-148.92578125,-270.99609375,-50.78125,-230.95703125
-128.41796875,-57.6171875,-51.7578125,-210.9375
33.203125,123.046875,-37.109375,68.359375
42.48046875,29.78515625,-32.2265625,98.14453125
-19.53125,-78.61328125,-40.0390625,55.6640625
-149.90234375,-249.51171875,-55.6640625,-188.4765625
-158.203125,-125.9765625,-58.59375,-252.9296875
-13.18359375,84.47265625,-48.828125,34.66796875
11.71875,44.921875,-41.9921875,96.19140625
-12.6953125,-53.7109375,-34.1796875,64.453125
-150.390625,-255.37109375,-44.921875,-159.1796875
-206.54296875,-149.4140625,-59.08203125,-293.45703125
-26.3671875,99.609375,-41.9921875,-6.8359375
23.4375,43.45703125,-34.1796875,82.51953125
-13.671875,-29.78515625,-36.1328125,52.734375
-136.71875,-215.8203125,-45.41015625,-139.6484375
-227.05078125,-177.734375,-52.734375,-302.24609375
-55.17578125,118.65234375,-39.0625,-28.3203125
29.296875,69.82421875,-43.9453125,85.9375
-0.48828125,-24.90234375,-45.8984375,79.1015625
-94.7265625,-204.1015625,-47.8515625,-69.82421875
-210.9375,-234.375,-66.89453125,-303.22265625
-84.9609375,83.49609375,-58.10546875,-69.82421875
20.99609375,105.95703125,-38.57421875,84.47265625
3.90625,10.25390625,-47.8515625,68.359375
-94.23828125,-147.94921875,-75.68359375,-58.10546875
-225.5859375,-213.37890625,-88.37890625,-312.5
-101.5625,83.0078125,-66.40625,-107.421875
18.06640625,143.5546875,-47.8515625,91.796875
3.90625,62.01171875,-51.7578125,73.73046875
-68.84765625,-108.88671875,-67.87109375,-46.875
-211.42578125,-226.07421875,-88.37890625,-323.2421875
-122.55859375,63.96484375,-79.58984375,-174.31640625
33.69140625,171.38671875,-63.96484375,83.984375
27.34375,82.03125,-71.2890625,83.984375
-35.64453125,-81.0546875,-83.0078125,-11.71875
-159.1796875,-242.1875,-92.28515625,-281.73828125
-111.81640625,13.671875,-86.9140625,-202.63671875
33.203125,158.203125,-68.84765625,63.96484375
30.2734375,54.6875,-52.24609375,83.49609375
-32.71484375,-70.3125,-53.7109375,23.4375
-164.0625,-225.09765625,-70.80078125,-240.72265625
-145.01953125,-53.22265625,-63.96484375,-218.75
11.71875,109.86328125,-40.52734375,70.80078125
23.92578125,46.38671875,-36.62109375,110.83984375
-25.87890625,-44.921875,-34.66796875,71.77734375
-141.11328125,-222.65625,-52.24609375,-193.359375
-153.80859375,-79.58984375,-63.96484375,-236.81640625
6.34765625,142.08984375,-47.36328125,86.42578125
40.52734375,57.12890625,-54.6875,142.08984375
15.625,-45.41015625,-55.6640625,115.234375
-108.88671875,-227.5390625,-49.31640625,-129.8828125
-175.78125,-136.71875,-49.31640625,-270.99609375
-13.671875,119.62890625,-38.0859375,41.50390625
38.0859375,66.40625,-44.43359375,133.7890625
8.30078125,-31.73828125,-38.0859375,104.4921875
-81.54296875,-210.44921875,-35.15625,-107.421875
-142.08984375,-153.3203125,-69.82421875,-304.19921875
-20.5078125,118.65234375,-54.6875,-17.08984375
20.5078125,77.1484375,-30.2734375,112.79296875
4.39453125,-12.20703125,-36.1328125,101.5625
-74.21875,-198.2421875,-43.45703125,-80.078125
-164.55078125,-204.58984375,-57.12890625,-309.5703125
-41.015625,85.44921875,-43.45703125,-21.484375
46.875,87.890625,-19.53125,143.06640625
23.92578125,21.97265625,-20.5078125,120.60546875
-62.5,-161.1328125,-35.64453125,-40.0390625
-172.8515625,-233.88671875,-60.05859375,-311.03515625
-83.49609375,57.12890625,-51.7578125,-83.984375
16.11328125,65.91796875,-37.109375,141.6015625
2.44140625,0.0,-41.015625,132.32421875
-84.9609375,-130.37109375,-48.33984375,-45.41015625
-195.3125,-249.0234375,-56.640625,-333.0078125
-89.35546875,21.97265625,-45.8984375,-135.25390625
51.26953125,113.28125,-32.71484375,115.72265625
41.9921875,27.34375,-24.90234375,126.46484375
-21.97265625,-114.2578125,-32.71484375,10.7421875
-144.04296875,-236.81640625,-55.6640625,-296.38671875
-97.16796875,-1.953125,-52.24609375,-175.29296875
37.109375,109.375,-37.59765625,105.46875
39.55078125,28.80859375,-38.57421875,100.09765625
-14.16015625,-99.609375,-45.41015625,12.6953125
-143.06640625,-250.0,-58.59375,-276.3671875
-119.62890625,-49.31640625,-55.17578125,-221.19140625
24.90234375,89.84375,-40.52734375,82.03125
33.69140625,29.78515625,-35.15625,102.5390625
-10.7421875,-60.05859375,-38.0859375,39.55078125
-124.0234375,-242.1875,-64.94140625,-236.81640625
-146.97265625,-77.1484375,-69.3359375,-263.671875
4.39453125,144.53125,-43.45703125,77.1484375
42.96875,32.71484375,-35.15625,145.99609375
-13.18359375,-84.9609375,-30.2734375,75.1953125
-131.34765625,-246.58203125,-40.52734375,-196.2890625
-165.0390625,-130.37109375,-43.9453125,-280.2734375
-10.25390625,119.140625,-20.5078125,57.12890625
34.66796875,45.41015625,-20.01953125,136.23046875
-3.41796875,-46.875,-28.80859375,109.375
-96.19140625,-197.75390625,-41.9921875,-131.8359375
-148.4375,-142.578125,-60.546875,-298.828125
-12.20703125,76.171875,-46.38671875,29.78515625
43.45703125,45.41015625,-34.66796875,141.6015625
22.4609375,13.671875,-34.1796875,117.1875
-62.98828125,-174.8046875,-42.48046875,-85.9375
-151.85546875,-225.09765625,-57.12890625,-323.2421875
-37.109375,63.4765625,-38.57421875,-24.4140625
40.0390625,72.265625,-20.99609375,145.99609375
11.71875,-12.6953125,-22.4609375,112.3046875
-77.1484375,-156.25,-26.3671875,-65.91796875
-173.828125,-207.51953125,-44.43359375,-334.9609375
-74.21875,66.40625,-40.52734375,-84.9609375
17.08984375,91.796875,-30.76171875,122.55859375
-0.48828125,-0.9765625,-34.66796875,100.5859375
-68.84765625,-143.06640625,-45.8984375,-59.5703125
-169.921875,-217.28515625,-63.96484375,-346.6796875
-92.28515625,36.62109375,-58.59375,-127.44140625
19.04296875,74.21875,-47.8515625,114.2578125
22.94921875,4.8828125,-47.8515625,109.375
-38.57421875,-122.0703125,-42.48046875,1.46484375
-158.203125,-250.0,-51.26953125,-306.15234375
-85.44921875,3.90625,-50.29296875,-165.52734375
37.59765625,113.76953125,-34.66796875,128.90625
33.69140625,31.73828125,-26.85546875,133.7890625
-13.671875,-99.609375,-36.1328125,39.0625
-131.34765625,-261.23046875,-63.96484375,-279.296875
-107.421875,-37.59765625,-54.19921875,-217.28515625
25.87890625,142.578125,-41.50390625,100.09765625
28.80859375,17.578125,-56.640625,87.40234375
-31.73828125,-104.4921875,-50.78125,12.20703125
-134.27734375,-252.9296875,-44.921875,-245.1171875
-133.7890625,-104.00390625,-46.38671875,-265.13671875
8.30078125,117.67578125,-35.15625,62.01171875
36.62109375,41.9921875,-25.87890625,120.1171875
-9.765625,-67.3828125,-37.109375,65.91796875
-122.0703125,-221.19140625,-50.29296875,-215.8203125
-152.34375,-92.28515625,-50.78125,-282.2265625
1.46484375,113.28125,-36.62109375,75.1953125
46.875,59.5703125,-25.87890625,148.4375
13.671875,-18.06640625,-34.1796875,92.7734375
-91.796875,-218.75,-61.5234375,-169.921875
-166.015625,-176.26953125,-67.87109375,-324.21875
-39.55078125,103.02734375,-40.0390625,20.01953125
27.34375,67.3828125,-28.3203125,123.046875
4.8828125,-16.11328125,-32.2265625,82.51953125
-96.19140625,-168.45703125,-51.26953125,-127.9296875
-187.5,-184.5703125,-69.82421875,-347.65625
-58.59375,87.40234375,-54.19921875,-26.3671875
29.296875,80.078125,-38.57421875,143.5546875
2.44140625,-8.7890625,-29.296875,99.609375
-77.1484375,-152.34375,-34.1796875,-104.4921875
-167.96875,-190.4296875,-51.26953125,-371.58203125
-59.5703125,66.89453125,-48.828125,-91.30859375
27.83203125,77.63671875,-48.828125,117.1875
3.90625,-13.18359375,-44.921875,97.16796875
-63.4765625,-159.1796875,-44.43359375,-65.4296875
-166.015625,-229.4921875,-57.12890625,-357.421875
-84.9609375,43.45703125,-44.43359375,-126.953125
18.06640625,92.7734375,-26.3671875,120.60546875
17.08984375,13.18359375,-31.73828125,107.91015625
-41.015625,-115.72265625,-49.31640625,-26.3671875
-163.0859375,-265.625,-66.89453125,-331.54296875
-106.4453125,-20.5078125,-58.10546875,-181.640625
35.15625,116.2109375,-40.52734375,110.3515625
32.2265625,16.6015625,-49.8046875,119.62890625
-38.0859375,-127.44140625,-56.640625,-0.9765625
-143.5546875,-249.0234375,-67.3828125,-306.15234375
-99.609375,-36.62109375,-66.89453125,-228.515625
22.4609375,97.16796875,-47.36328125,87.890625
21.484375,16.11328125,-37.109375,112.79296875
-27.34375,-107.91015625,-38.0859375,25.390625
-146.97265625,-264.6484375,-55.6640625,-274.4140625
-143.06640625,-67.3828125,-62.98828125,-264.16015625
-9.27734375,112.79296875,-47.8515625,82.51953125
7.32421875,35.64453125,-49.31640625,127.9296875
-17.578125,-39.55078125,-48.33984375,69.82421875
-119.140625,-217.28515625,-60.05859375,-210.44921875
-146.484375,-134.27734375,-72.265625,-290.0390625
-10.25390625,80.078125,-48.828125,54.19921875
26.3671875,43.9453125,-33.203125,131.8359375
3.90625,-41.50390625,-32.2265625,93.26171875
-98.14453125,-217.28515625,-49.31640625,-172.8515625
-141.6015625,-136.23046875,-64.94140625,-315.91796875
-1.953125,106.93359375,-41.9921875,33.69140625
42.48046875,70.3125,-35.64453125,122.55859375
19.53125,-0.48828125,-40.0390625,91.796875
-81.0546875,-170.8984375,-51.7578125,-127.9296875
-157.71484375,-145.01953125,-62.5,-343.26171875
-24.90234375,90.33203125,-51.26953125,-17.578125
28.3203125,46.875,-43.9453125,140.13671875
-0.9765625,-7.8125,-42.96875,115.72265625
-88.8671875,-180.17578125,-51.26953125,-103.02734375
-191.40625,-216.30859375,-62.01171875,-365.72265625
-75.68359375,57.6171875,-45.41015625,-54.19921875
27.34375,68.359375,-35.64453125,146.484375
6.34765625,2.9296875,-41.50390625,116.69921875
-77.63671875,-151.85546875,-45.8984375,-50.29296875
-173.828125,-241.69921875,-57.12890625,-334.9609375
-75.1953125,29.296875,-48.33984375,-111.81640625
34.1796875,107.91015625,-33.203125,118.1640625
20.01953125,8.30078125,-34.66796875,113.76953125
-56.640625,-152.83203125,-44.43359375,-21.484375
-156.73828125,-248.53515625,-61.5234375,-320.3125
-79.58984375,6.34765625,-55.6640625,-151.3671875
41.50390625,112.3046875,-35.64453125,123.046875
31.25,29.78515625,-40.0390625,124.0234375
-29.78515625,-128.41796875,-51.7578125,1.46484375
-139.6484375,-259.765625,-66.89453125,-314.94140625
-96.6796875,-13.18359375,-55.6640625,-214.84375
31.73828125,106.93359375,-26.3671875,99.609375
28.80859375,14.16015625,-28.3203125,116.2109375
-20.5078125,-91.30859375,-44.921875,20.99609375
-139.6484375,-256.34765625,-67.3828125,-276.85546875
-126.953125,-70.3125,-64.94140625,-246.58203125
15.625,104.00390625,-42.48046875,81.0546875
25.390625,40.0390625,-39.0625,132.8125
-19.53125,-60.546875,-45.41015625,79.1015625
-125.9765625,-241.69921875,-56.640625,-229.4921875
-134.765625,-102.5390625,-60.546875,-273.92578125
5.37109375,104.98046875,-45.8984375,71.2890625
34.1796875,53.7109375,-30.2734375,122.0703125
1.46484375,-47.8515625,-32.2265625,91.30859375
-100.5859375,-224.609375,-45.8984375,-171.38671875
-142.08984375,-126.953125,-49.8046875,-310.546875
-3.90625,104.4921875,-35.64453125,28.3203125
48.33984375,48.828125,-27.83203125,132.32421875
23.92578125,-33.69140625,-25.87890625,102.5390625
-82.03125,-204.58984375,-40.52734375,-142.08984375
-162.59765625,-170.8984375,-59.5703125,-337.890625
-24.4140625,96.19140625,-40.0390625,-9.27734375
37.59765625,67.3828125,-31.73828125,130.859375
4.39453125,-9.27734375,-34.1796875,109.86328125
-79.1015625,-165.52734375,-45.41015625,-92.28515625
-164.0625,-196.2890625,-58.59375,-337.40234375
-42.48046875,73.73046875,-46.875,-45.8984375
39.55078125,99.12109375,-39.55078125,133.7890625
20.5078125,2.44140625,-39.0625,110.3515625
-60.05859375,-173.828125,-48.828125,-62.98828125
-156.25,-236.81640625,-65.4296875,-327.1484375
-54.19921875,35.64453125,-49.8046875,-70.3125
43.9453125,83.0078125,-33.203125,150.390625
26.85546875,2.44140625,-33.69140625,137.6953125
-40.0390625,-134.27734375,-43.9453125,-21.484375
-148.4375,-248.53515625,-58.10546875,-330.078125
-75.1953125,4.8828125,-51.26953125,-140.13671875
39.0625,94.7265625,-40.52734375,118.65234375
22.4609375,35.15625,-38.0859375,113.76953125
-34.66796875,-78.61328125,-40.0390625,1.953125
-150.390625,-262.6953125,-57.6171875,-306.640625
-117.1875,-34.66796875,-59.08203125,-204.1015625
10.25390625,116.2109375,-37.59765625,93.26171875
21.484375,13.18359375,-32.2265625,114.2578125
-33.203125,-119.140625,-41.015625,20.99609375
-158.203125,-266.11328125,-58.59375,-283.203125
-132.8125,-48.33984375,-55.17578125,-225.5859375
12.6953125,104.00390625,-39.0625,100.5859375
20.01953125,24.4140625,-40.52734375,125.9765625
-33.203125,-69.82421875,-47.8515625,58.59375
-135.25390625,-231.4453125,-67.3828125,-229.00390625
-138.671875,-77.63671875,-60.546875,-258.7890625
0.0,101.07421875,-33.69140625,69.82421875
30.2734375,35.64453125,-32.2265625,119.140625
-4.39453125,-53.22265625,-38.57421875,78.61328125
-119.140625,-213.37890625,-51.7578125,-187.98828125
-148.4375,-104.00390625,-60.05859375,-305.6640625
0.9765625,112.3046875,-42.96875,39.55078125
32.71484375,53.7109375,-40.0390625,126.46484375
-3.90625,-19.53125,-47.36328125,75.1953125
-95.703125,-203.61328125,-60.546875,-163.0859375
-159.66796875,-160.15625,-69.3359375,-343.26171875
-28.80859375,112.79296875,-57.6171875,-8.7890625
32.71484375,76.66015625,-44.921875,131.8359375
6.8359375,-10.25390625,-39.55078125,100.09765625
-91.796875,-183.59375,-55.6640625,-119.62890625
-187.01171875,-192.3828125,-73.73046875,-353.02734375
-54.6875,83.0078125,-50.78125,-47.36328125
29.296875,73.73046875,-38.0859375,131.34765625
-1.46484375,-3.90625,-46.38671875,108.3984375
-83.0078125,-153.80859375,-53.7109375,-78.125
-175.29296875,-209.9609375,-66.40625,-347.16796875
-62.01171875,68.84765625,-49.8046875,-79.1015625
42.48046875,93.75,-32.2265625,136.23046875
27.34375,14.6484375,-31.25,110.83984375
-53.22265625,-120.60546875,-41.015625,-46.38671875
-168.9453125,-245.60546875,-57.6171875,-331.54296875
-86.42578125,1.46484375,-56.15234375,-135.7421875
31.25,97.65625,-49.31640625,119.140625
18.06640625,18.5546875,-45.8984375,115.234375
-50.78125,-129.39453125,-49.31640625,-12.20703125
-174.8046875,-265.625,-66.40625,-305.6640625
-123.046875,-13.671875,-60.546875,-174.8046875
7.8125,104.00390625,-41.9921875,104.4921875
5.37109375,25.87890625,-40.0390625,108.3984375
-41.015625,-94.7265625,-44.921875,10.7421875
-166.9921875,-254.39453125,-60.546875,-292.48046875
-131.34765625,-16.11328125,-59.08203125,-221.19140625
17.578125,125.48828125,-41.015625,105.46875
19.04296875,11.71875,-41.015625,131.34765625
-27.34375,-98.14453125,-52.734375,55.6640625
-141.11328125,-252.9296875,-65.91796875,-244.62890625
-137.20703125,-74.21875,-61.03515625,-253.90625
13.18359375,109.86328125,-37.59765625,86.9140625
40.52734375,31.73828125,-24.90234375,132.8125
3.41796875,-67.3828125,-27.34375,68.359375
-108.3984375,-236.81640625,-46.875,-210.44921875
-153.3203125,-119.62890625,-61.5234375,-296.875
-6.8359375,115.72265625,-39.55078125,49.8046875
43.9453125,63.96484375,-32.71484375,134.765625
7.32421875,-49.8046875,-38.0859375,101.07421875
-106.4453125,-225.09765625,-50.78125,-150.390625
-166.9921875,-145.01953125,-63.96484375,-311.03515625
-7.32421875,113.28125,-49.8046875,44.43359375
56.640625,75.1953125,-41.015625,170.41015625
4.39453125,-18.06640625,-38.0859375,110.83984375
-112.79296875,-192.3828125,-43.45703125,-134.27734375
-194.82421875,-194.3359375,-55.6640625,-351.07421875
-65.4296875,78.61328125,-39.55078125,-44.921875
19.53125,52.24609375,-25.390625,126.953125
0.9765625,-21.97265625,-33.203125,104.4921875
-81.54296875,-159.1796875,-41.50390625,-78.61328125
-178.22265625,-221.19140625,-52.734375,-320.80078125
-63.96484375,46.38671875,-43.45703125,-69.3359375
31.25,85.9375,-24.4140625,139.6484375
16.6015625,6.8359375,-28.80859375,136.71875
-54.19921875,-145.99609375,-56.640625,-27.34375
-172.8515625,-229.4921875,-70.80078125,-325.68359375
-79.58984375,17.08984375,-42.48046875,-104.4921875
45.41015625,82.03125,-12.6953125,147.4609375
33.203125,15.13671875,-9.27734375,136.23046875
-39.0625,-133.30078125,-24.90234375,7.8125
-157.71484375,-241.69921875,-46.875,-291.015625
-80.078125,23.4375,-46.38671875,-152.34375
45.41015625,89.35546875,-28.3203125,107.421875
33.69140625,-4.8828125,-25.87890625,106.4453125
-30.76171875,-107.91015625,-42.96875,7.8125
-155.76171875,-247.55859375,-64.94140625,-277.83203125
-117.1875,-35.64453125,-55.6640625,-205.078125
17.578125,117.1875,-36.1328125,88.37890625
23.92578125,34.1796875,-31.25,128.90625
-26.85546875,-74.70703125,-34.66796875,53.22265625
-156.25,-242.67578125,-53.22265625,-250.9765625
-155.2734375,-91.796875,-53.22265625,-256.34765625
0.48828125,116.69921875,-40.52734375,71.77734375
26.85546875,60.05859375,-42.48046875,124.51171875
-23.92578125,-80.078125,-35.15625,68.359375
-131.8359375,-257.32421875,-39.0625,-204.58984375
-162.109375,-107.91015625,-52.734375,-276.85546875
-11.71875,96.6796875,-41.9921875,57.6171875
42.48046875,52.24609375,-35.15625,126.953125
5.859375,-22.4609375,-31.25,86.42578125
-107.91015625,-237.3046875,-43.45703125,-160.15625
-162.109375,-152.34375,-63.4765625,-310.05859375
-11.23046875,116.69921875,-45.41015625,19.53125
44.921875,64.94140625,-41.9921875,129.39453125
24.90234375,-8.30078125,-51.26953125,105.46875
-77.1484375,-178.7109375,-59.08203125,-114.2578125
-161.1328125,-174.31640625,-64.94140625,-325.68359375
-18.06640625,74.70703125,-40.0390625,-8.30078125
54.19921875,63.4765625,-29.78515625,125.0
30.2734375,-2.9296875,-41.015625,83.984375
-64.453125,-171.875,-58.10546875,-80.078125
-171.875,-211.42578125,-82.03125,-316.40625
-52.24609375,79.1015625,-70.3125,-38.57421875
38.0859375,99.609375,-46.38671875,142.578125
24.4140625,18.06640625,-41.50390625,121.58203125
-55.6640625,-141.11328125,-56.640625,-47.8515625
-163.0859375,-225.5859375,-74.21875,-330.56640625
-57.6171875,62.5,-58.10546875,-96.19140625
45.41015625,93.75,-33.203125,133.7890625
29.78515625,8.7890625,-28.3203125,133.7890625
-44.43359375,-108.3984375,-42.96875,-2.44140625
-160.64453125,-245.1171875,-62.98828125,-302.24609375
-93.75,6.8359375,-63.4765625,-139.6484375
22.94921875,102.05078125,-50.78125,117.1875
34.66796875,48.828125,-39.55078125,120.60546875
-34.66796875,-94.7265625,-43.45703125,11.71875
-175.78125,-267.578125,-64.94140625,-305.17578125
-122.55859375,-23.92578125,-61.03515625,-222.16796875
34.66796875,115.234375,-38.0859375,77.1484375
36.62109375,37.59765625,-37.109375,108.88671875
-14.6484375,-99.12109375,-45.8984375,35.15625
-132.8125,-265.13671875,-57.6171875,-258.7890625
-128.90625,-47.36328125,-63.4765625,-243.1640625
25.87890625,116.2109375,-40.52734375,76.66015625
37.109375,39.55078125,-28.3203125,111.81640625
-15.13671875,-45.8984375,-34.1796875,43.45703125
-128.90625,-239.2578125,-56.640625,-222.65625
-145.99609375,-106.93359375,-65.91796875,-261.23046875
-0.9765625,98.6328125,-44.921875,63.96484375
16.6015625,25.390625,-34.66796875,106.4453125
-20.99609375,-46.38671875,-30.76171875,66.40625
-112.79296875,-203.61328125,-38.0859375,-156.73828125
-166.50390625,-151.85546875,-52.734375,-304.19921875
-28.80859375,80.56640625,-43.9453125,-1.46484375
24.4140625,49.8046875,-37.109375,97.16796875
-5.37109375,-21.484375,-41.015625,77.1484375
-110.3515625,-190.4296875,-42.48046875,-131.8359375
-182.12890625,-158.203125,-51.26953125,-317.3828125
-33.203125,99.12109375,-40.0390625,-9.27734375
42.48046875,65.4296875,-30.76171875,129.39453125
20.99609375,4.8828125,-33.69140625,104.98046875
-70.80078125,-174.8046875,-37.109375,-78.125
-164.0625,-195.3125,-47.8515625,-312.98828125
-33.69140625,114.2578125,-37.109375,-43.45703125
53.7109375,78.61328125,-29.296875,132.32421875
25.390625,-32.2265625,-41.9921875,102.05078125
-62.5,-161.62109375,-43.9453125,-53.22265625
-168.45703125,-220.703125,-58.10546875,-321.2890625
-62.98828125,48.828125,-55.17578125,-100.09765625
43.45703125,97.16796875,-34.66796875,127.44140625
30.76171875,18.06640625,-36.1328125,113.28125
-46.875,-131.8359375,-55.6640625,-25.87890625
-173.828125,-232.421875,-71.77734375,-326.171875
-92.7734375,16.6015625,-55.17578125,-167.48046875
40.0390625,107.421875,-31.25,100.5859375
31.73828125,41.9921875,-26.3671875,113.76953125
-44.921875,-117.1875,-39.55078125,-0.48828125
-178.22265625,-276.3671875,-63.96484375,-296.875
-119.140625,-34.1796875,-55.17578125,-189.453125
28.80859375,107.91015625,-29.78515625,84.47265625
20.5078125,19.53125,-33.203125,91.796875
-33.203125,-95.21484375,-38.57421875,16.6015625
-157.2265625,-234.375,-53.7109375,-264.16015625
-142.08984375,-52.734375,-61.03515625,-233.88671875
16.11328125,103.515625,-42.96875,71.2890625
43.45703125,43.45703125,-39.0625,101.5625
-11.23046875,-75.1953125,-44.921875,39.55078125
-121.58203125,-236.328125,-58.10546875,-232.91015625
-125.0,-81.0546875,-66.89453125,-254.39453125
11.23046875,102.05078125,-53.22265625,61.5234375
58.10546875,49.8046875,-44.43359375,112.3046875
27.34375,-53.22265625,-38.57421875,74.70703125
-101.07421875,-229.00390625,-48.33984375,-190.4296875
-140.625,-119.140625,-59.08203125,-287.109375
21.97265625,120.60546875,-45.8984375,46.875
68.359375,66.89453125,-42.96875,136.71875
35.15625,-14.6484375,-41.015625,106.93359375
-83.984375,-205.078125,-47.8515625,-125.48828125
-170.8984375,-165.0390625,-64.94140625,-302.734375
-17.578125,104.98046875,-52.24609375,6.8359375
49.8046875,48.828125,-46.875,132.32421875
14.6484375,-33.203125,-54.6875,111.328125
-72.265625,-187.5,-53.7109375,-79.58984375
-158.203125,-196.2890625,-50.78125,-311.5234375
-49.8046875,86.9140625,-36.62109375,-62.01171875
33.203125,81.0546875,-26.85546875,97.16796875
7.8125,-11.23046875,-37.109375,95.703125
-82.51953125,-165.0390625,-48.33984375,-66.89453125
-184.08203125,-236.81640625,-58.10546875,-327.1484375
-61.5234375,48.828125,-57.12890625,-97.65625
58.59375,77.63671875,-51.7578125,103.515625
37.59765625,8.7890625,-46.38671875,83.0078125
-51.26953125,-134.27734375,-48.33984375,-55.6640625
-174.31640625,-271.97265625,-61.03515625,-318.84765625
-83.984375,4.39453125,-53.22265625,-131.8359375
39.0625,89.84375,-41.015625,110.3515625
28.80859375,-8.30078125,-45.8984375,97.16796875
-42.96875,-147.94921875,-57.6171875,-14.16015625
-165.52734375,-270.01953125,-72.265625,-289.55078125
-104.00390625,-22.4609375,-59.5703125,-164.0625
33.203125,102.05078125,-32.2265625,107.91015625
29.78515625,13.18359375,-31.25,108.3984375
-30.2734375,-112.3046875,-46.38671875,25.390625
-169.921875,-253.90625,-65.4296875,-260.7421875
-141.11328125,-49.31640625,-69.82421875,-224.609375
18.06640625,88.8671875,-50.29296875,70.3125
30.2734375,25.87890625,-42.96875,104.4921875
-30.2734375,-81.0546875,-50.78125,28.3203125
-159.1796875,-251.46484375,-67.3828125,-252.9296875
-157.2265625,-72.265625,-68.84765625,-262.6953125
14.6484375,123.046875,-48.828125,54.19921875
39.55078125,45.8984375,-47.36328125,102.05078125
-3.41796875,-47.8515625,-51.7578125,53.7109375
-119.62890625,-226.5625,-56.15234375,-199.70703125
-161.62109375,-123.046875,-60.546875,-279.78515625
4.8828125,119.140625,-46.38671875,47.36328125
40.0390625,40.52734375,-34.1796875,125.9765625
-5.859375,-67.3828125,-34.1796875,95.703125
-115.234375,-203.61328125,-53.22265625,-138.18359375
-185.05859375,-144.53125,-59.08203125,-294.43359375
-28.3203125,109.86328125,-36.62109375,25.87890625
43.9453125,77.1484375,-33.69140625,129.8828125
5.859375,-16.6015625,-41.9921875,86.9140625
-98.6328125,-188.96484375,-57.6171875,-110.83984375
-181.640625,-186.03515625,-69.3359375,-321.77734375
-31.73828125,92.7734375,-49.8046875,-41.50390625
56.640625,97.16796875,-33.203125,110.83984375
20.01953125,35.64453125,-32.2265625,83.49609375
-76.171875,-163.57421875,-39.0625,-74.70703125
-188.4765625,-224.12109375,-53.22265625,-322.75390625
-61.5234375,78.61328125,-45.41015625,-88.8671875
50.29296875,78.61328125,-36.1328125,110.3515625
26.85546875,8.7890625,-33.203125,101.07421875
-55.6640625,-131.34765625,-36.62109375,-46.875
-169.43359375,-232.421875,-59.5703125,-313.4765625
-68.84765625,41.50390625,-54.19921875,-102.5390625
53.22265625,105.46875,-38.57421875,111.81640625
39.55078125,22.4609375,-39.0625,89.35546875
-29.296875,-107.91015625,-41.9921875,-7.32421875
-156.73828125,-215.8203125,-50.29296875,-273.92578125
-91.30859375,5.859375,-40.52734375,-154.78515625
45.41015625,96.19140625,-26.3671875,94.7265625
42.48046875,21.484375,-25.87890625,104.98046875
-31.25,-123.046875,-33.69140625,13.671875
-172.36328125,-256.8359375,-50.29296875,-263.18359375
-126.46484375,-29.78515625,-59.08203125,-197.265625
19.53125,87.890625,-47.8515625,75.1953125
27.34375,38.0859375,-35.64453125,101.07421875
-20.99609375,-58.10546875,-33.69140625,37.59765625
-154.78515625,-247.55859375,-51.7578125,-248.046875
-147.94921875,-60.05859375,-58.10546875,-247.0703125
17.578125,141.11328125,-39.55078125,69.3359375
36.62109375,31.73828125,-28.3203125,102.05078125
-10.7421875,-87.40234375,-26.85546875,50.29296875
-131.34765625,-257.8125,-36.62109375,-196.2890625
-159.66796875,-116.69921875,-51.26953125,-268.06640625
0.9765625,114.74609375,-43.45703125,52.734375
40.52734375,42.96875,-36.62109375,116.2109375
8.7890625,-43.9453125,-38.0859375,77.63671875
-102.5390625,-210.9375,-50.78125,-151.85546875
-167.96875,-138.18359375,-65.91796875,-291.015625
-8.30078125,110.3515625,-58.10546875,23.92578125
58.10546875,66.40625,-45.8984375,119.62890625
20.5078125,6.34765625,-42.48046875,98.14453125
-92.7734375,-187.5,-43.9453125,-109.375
-181.15234375,-203.125,-48.828125,-316.40625
-39.0625,77.1484375,-43.9453125,-21.97265625
36.1328125,73.73046875,-36.1328125,117.67578125
22.4609375,6.8359375,-34.66796875,98.14453125
-72.265625,-163.57421875,-47.36328125,-73.73046875
-190.4296875,-209.9609375,-60.05859375,-311.5234375
-63.4765625,62.98828125,-42.96875,-66.89453125
36.1328125,89.35546875,-41.015625,108.3984375
20.99609375,10.25390625,-50.29296875,90.33203125
-54.6875,-141.6015625,-54.19921875,-54.19921875
-184.5703125,-212.890625,-67.87109375,-307.6171875
-80.078125,56.640625,-56.15234375,-100.09765625
43.45703125,80.078125,-34.1796875,112.79296875
23.4375,-5.859375,-36.62109375,99.12109375
-40.0390625,-134.27734375,-49.8046875,-9.27734375
-165.0390625,-261.23046875,-64.453125,-288.0859375
-96.6796875,-6.8359375,-64.94140625,-147.4609375
48.828125,111.328125,-53.7109375,108.3984375
41.50390625,21.484375,-43.9453125,107.91015625
-32.2265625,-112.3046875,-44.43359375,19.53125
-166.015625,-253.41796875,-71.77734375,-271.97265625
-126.46484375,-23.4375,-67.3828125,-203.61328125
35.64453125,134.765625,-39.55078125,81.54296875
47.8515625,11.23046875,-40.52734375,94.23828125
-4.39453125,-114.74609375,-38.57421875,33.203125
-136.71875,-257.8125,-49.8046875,-230.46875
-131.8359375,-72.75390625,-52.734375,-221.6796875
8.7890625,109.375,-39.55078125,69.82421875
34.1796875,44.43359375,-47.8515625,102.5390625
-3.41796875,-56.15234375,-54.19921875,51.26953125
-140.625,-240.72265625,-58.10546875,-208.0078125
-166.015625,-96.19140625,-56.640625,-261.71875
-7.32421875,117.1875,-41.9921875,44.921875
36.62109375,63.4765625,-45.8984375,98.6328125
5.37109375,-21.97265625,-47.8515625,55.17578125
-106.93359375,-235.3515625,-49.31640625,-174.31640625
-163.57421875,-152.34375,-54.19921875,-282.71484375
-6.34765625,113.76953125,-37.59765625,36.62109375
44.43359375,54.19921875,-31.73828125,121.58203125
16.6015625,-9.765625,-34.1796875,95.21484375
-90.33203125,-183.10546875,-59.08203125,-101.07421875
-186.5234375,-188.4765625,-83.49609375,-288.0859375
-38.0859375,91.30859375,-58.10546875,-8.7890625
47.36328125,84.9609375,-40.52734375,122.0703125
21.484375,-5.37109375,-36.62109375,106.93359375
-80.078125,-188.4765625,-44.43359375,-76.171875
-185.546875,-199.70703125,-64.453125,-308.59375
-49.31640625,69.82421875,-43.9453125,-55.17578125
50.78125,79.58984375,-25.87890625,109.375
9.765625,11.71875,-40.0390625,93.75
-77.1484375,-154.296875,-50.29296875,-54.19921875
-188.4765625,-226.5625,-60.05859375,-318.359375
-83.984375,49.31640625,-45.8984375,-97.16796875
43.9453125,96.19140625,-30.2734375,117.67578125
28.3203125,28.3203125,-33.69140625,88.8671875
-54.6875,-122.0703125,-46.38671875,-49.31640625
-174.31640625,-248.53515625,-65.4296875,-309.5703125
-100.5859375,27.83203125,-60.546875,-141.6015625
28.80859375,114.2578125,-41.015625,106.93359375
32.71484375,4.39453125,-37.109375,110.3515625
-36.62109375,-138.671875,-36.62109375,8.7890625
-173.33984375,-258.7890625,-54.6875,-275.87890625
-129.39453125,-15.625,-58.10546875,-187.98828125
28.80859375,118.65234375,-37.109375,88.8671875
36.62109375,34.66796875,-38.0859375,101.5625
-23.4375,-89.84375,-46.875,11.71875
-151.85546875,-257.8125,-59.5703125,-266.11328125
-144.04296875,-66.40625,-61.03515625,-235.3515625
7.32421875,112.3046875,-42.48046875,62.01171875
20.01953125,33.203125,-43.9453125,92.7734375
-27.83203125,-62.5,-44.43359375,36.1328125
-145.01953125,-252.9296875,-47.8515625,-222.16796875
-167.48046875,-130.859375,-55.6640625,-262.6953125
-5.37109375,97.16796875,-43.45703125,47.8515625
31.25,47.8515625,-38.57421875,103.02734375
-3.90625,-30.76171875,-50.78125,63.96484375
-119.62890625,-208.0078125,-63.4765625,-172.8515625
-166.50390625,-128.41796875,-65.4296875,-292.48046875
-8.7890625,101.5625,-48.828125,16.6015625
34.66796875,56.640625,-43.9453125,108.88671875
-1.953125,-24.4140625,-48.828125,75.68359375
-112.79296875,-195.3125,-55.6640625,-131.8359375
-174.31640625,-143.5546875,-54.6875,-281.73828125
-22.94921875,92.28515625,-33.203125,20.99609375
32.2265625,53.7109375,-35.15625,116.2109375
14.6484375,4.39453125,-44.43359375,85.9375
-86.9140625,-173.828125,-53.7109375,-89.84375
-187.01171875,-187.98828125,-64.94140625,-299.8046875
-34.66796875,104.4921875,-52.734375,-38.57421875
49.31640625,99.609375,-42.48046875,107.421875
10.7421875,26.3671875,-43.45703125,98.14453125
-76.171875,-151.85546875,-60.546875,-64.453125
-180.17578125,-225.09765625,-77.1484375,-323.2421875
-53.22265625,73.73046875,-66.89453125,-87.890625
66.40625,118.1640625,-55.6640625,115.72265625
41.50390625,21.97265625,-47.36328125,98.6328125
-49.31640625,-150.87890625,-47.36328125,-38.57421875
-174.8046875,-240.234375,-61.5234375,-304.19921875
-83.984375,29.78515625,-49.8046875,-130.37109375
42.96875,107.91015625,-34.66796875,96.6796875
37.59765625,31.25,-40.52734375,94.23828125
-37.109375,-126.953125,-45.41015625,-6.8359375
-184.5703125,-273.92578125,-62.01171875,-294.921875
-120.60546875,-9.27734375,-64.94140625,-182.6171875
34.1796875,112.79296875,-51.26953125,90.8203125
38.0859375,31.73828125,-47.8515625,106.4453125
-26.85546875,-72.265625,-47.8515625,27.83203125
-170.41015625,-271.484375,-60.05859375,-260.7421875
-146.484375,-76.66015625,-56.640625,-227.5390625
9.765625,104.4921875,-35.64453125,64.94140625
33.69140625,35.15625,-36.62109375,100.5859375
-19.53125,-75.1953125,-48.828125,44.43359375
-153.80859375,-265.625,-69.82421875,-211.42578125
-149.4140625,-102.05078125,-66.89453125,-235.3515625
15.625,121.58203125,-43.45703125,63.4765625
38.57421875,61.5234375,-46.38671875,111.81640625
-1.953125,-53.22265625,-57.12890625,64.453125
-120.60546875,-227.5390625,-58.59375,-179.19921875
-150.87890625,-100.5859375,-56.640625,-278.3203125
-0.9765625,105.95703125,-49.8046875,21.484375
38.57421875,34.1796875,-47.36328125,109.375
5.37109375,-34.66796875,-44.921875,85.9375
-104.4921875,-210.44921875,-60.546875,-140.625
-170.8984375,-157.2265625,-68.359375,-299.31640625
-16.11328125,106.93359375,-41.015625,16.6015625
56.640625,59.08203125,-30.2734375,121.09375
23.92578125,-16.11328125,-40.0390625,89.84375
-73.2421875,-180.17578125,-54.19921875,-81.0546875
-167.48046875,-182.6171875,-64.94140625,-302.24609375
-32.2265625,100.5859375,-50.78125,-41.015625
49.8046875,104.00390625,-44.921875,112.79296875
26.85546875,17.08984375,-42.48046875,107.91015625
-52.734375,-171.38671875,-41.9921875,-58.59375
-166.9921875,-219.7265625,-64.94140625,-315.91796875
-54.19921875,67.3828125,-52.24609375,-68.359375
44.921875,88.37890625,-34.66796875,111.328125
18.06640625,-4.8828125,-38.0859375,77.1484375
-66.89453125,-149.4140625,-44.43359375,-39.55078125
-189.94140625,-238.76953125,-62.01171875,-297.8515625
-106.4453125,35.64453125,-67.87109375,-133.7890625
30.76171875,106.4453125,-53.22265625,87.40234375
35.15625,29.78515625,-52.24609375,86.42578125
-40.0390625,-91.796875,-57.6171875,-13.18359375
-168.9453125,-267.08984375,-70.3125,-285.15625
-107.91015625,-22.94921875,-73.73046875,-165.52734375
43.9453125,135.25390625,-57.6171875,101.07421875
50.29296875,31.25,-48.828125,105.95703125
-22.94921875,-110.3515625,-51.26953125,0.0
-157.71484375,-264.16015625,-59.5703125,-274.90234375
-123.53515625,-45.41015625,-56.640625,-221.6796875
24.90234375,115.234375,-40.52734375,69.3359375
32.71484375,33.69140625,-38.0859375,103.515625
-22.4609375,-83.49609375,-47.36328125,31.25
-153.80859375,-258.7890625,-61.5234375,-230.46875
-147.94921875,-68.359375,-63.4765625,-233.3984375
21.97265625,113.76953125,-53.22265625,69.3359375
50.29296875,8.7890625,-46.875,109.375
-7.8125,-70.3125,-44.921875,63.4765625
-137.6953125,-230.46875,-58.10546875,-191.89453125
-166.9921875,-111.328125,-69.3359375,-274.4140625
-4.8828125,123.53515625,-50.78125,44.921875
41.9921875,42.96875,-40.0390625,105.95703125
10.25390625,-41.9921875,-36.62109375,67.87109375
-101.5625,-214.35546875,-52.24609375,-157.71484375
-160.64453125,-152.34375,-65.4296875,-303.22265625
4.8828125,117.67578125,-40.52734375,22.94921875
68.84765625,83.984375,-26.3671875,129.39453125
32.71484375,-8.30078125,-30.76171875,100.5859375
-77.63671875,-195.3125,-46.875,-97.65625
-162.109375,-183.59375,-56.640625,-300.29296875
-14.6484375,104.4921875,-36.1328125,-13.18359375
57.6171875,97.16796875,-25.87890625,127.9296875
31.25,20.99609375,-32.2265625,103.515625
-71.2890625,-163.0859375,-45.8984375,-75.68359375
-185.05859375,-215.33203125,-61.03515625,-322.265625
-49.8046875,91.796875,-47.8515625,-61.03515625
49.31640625,85.9375,-35.15625,116.2109375
18.06640625,7.8125,-34.1796875,88.8671875
-61.5234375,-120.60546875,-33.203125,-38.0859375
-192.87109375,-250.9765625,-45.8984375,-298.33984375
-94.23828125,36.62109375,-48.828125,-108.3984375
41.50390625,117.1875,-34.1796875,113.28125
22.94921875,18.5546875,-33.69140625,101.5625
-57.6171875,-137.6953125,-48.828125,-22.94921875
-179.6875,-260.7421875,-66.40625,-300.29296875
-94.7265625,13.671875,-53.7109375,-153.3203125
64.453125,131.8359375,-38.0859375,113.28125
69.3359375,49.31640625,-37.109375,118.65234375
-26.3671875,-111.328125,-37.109375,7.8125
-177.734375,-258.30078125,-51.7578125,-280.76171875
-128.90625,-8.30078125,-53.7109375,-202.1484375
27.34375,116.69921875,-40.52734375,86.9140625
30.76171875,3.41796875,-41.9921875,106.93359375
-21.484375,-108.88671875,-42.48046875,36.62109375
-156.73828125,-267.08984375,-49.31640625,-232.421875
-147.4609375,-70.80078125,-56.15234375,-230.46875
16.6015625,125.48828125,-39.0625,78.125
36.1328125,47.8515625,-27.34375,120.1171875
-14.16015625,-70.80078125,-33.69140625,64.94140625
-147.94921875,-256.34765625,-56.640625,-196.2890625
-175.78125,-128.41796875,-66.89453125,-268.06640625
-11.71875,102.5390625,-49.8046875,35.15625
37.109375,70.3125,-44.921875,108.88671875
-1.953125,-46.875,-49.8046875,71.77734375
-131.34765625,-226.5625,-64.453125,-178.22265625
-187.5,-132.32421875,-71.77734375,-311.5234375
-19.04296875,91.796875,-49.31640625,-2.9296875
41.50390625,47.36328125,-41.9921875,102.5390625
2.44140625,-35.15625,-45.8984375,78.61328125
-101.07421875,-203.125,-47.36328125,-126.953125
-176.26953125,-168.9453125,-53.7109375,-311.5234375
-26.3671875,89.84375,-43.9453125,-19.04296875
51.7578125,51.7578125,-29.296875,116.69921875
20.01953125,0.0,-32.71484375,99.609375
-70.80078125,-143.06640625,-46.38671875,-75.1953125
-171.38671875,-208.0078125,-63.4765625,-316.40625
-53.7109375,70.80078125,-56.15234375,-62.01171875
35.64453125,96.6796875,-40.52734375,112.79296875
25.390625,18.06640625,-37.59765625,97.16796875
-49.8046875,-121.09375,-50.29296875,-48.33984375
-175.29296875,-213.8671875,-74.21875,-310.546875
-74.21875,36.62109375,-62.5,-105.95703125
48.828125,94.7265625,-37.59765625,114.2578125
40.52734375,14.16015625,-40.0390625,104.98046875
-46.38671875,-126.953125,-50.78125,-26.3671875
-170.8984375,-242.1875,-69.82421875,-297.8515625
-64.94140625,31.25,-62.98828125,-133.30078125
57.6171875,112.79296875,-36.62109375,120.1171875
24.90234375,-8.7890625,-32.2265625,94.7265625
-53.7109375,-125.48828125,-30.76171875,-17.08984375
-180.6640625,-266.11328125,-38.0859375,-285.64453125
-130.859375,-55.17578125,-42.96875,-203.125
14.6484375,94.7265625,-34.66796875,85.44921875
31.73828125,12.20703125,-26.85546875,109.375
-23.92578125,-107.421875,-28.80859375,18.06640625
-157.2265625,-269.53125,-45.41015625,-258.30078125
-140.625,-87.40234375,-49.8046875,-224.609375
10.7421875,105.95703125,-33.69140625,78.125
20.99609375,42.96875,-30.76171875,116.69921875
-18.5546875,-82.51953125,-33.203125,76.66015625
-144.53125,-278.3203125,-45.8984375,-195.3125
-163.57421875,-115.234375,-51.7578125,-253.90625
-2.44140625,108.3984375,-37.59765625,57.6171875
23.4375,42.48046875,-38.57421875,109.86328125
-6.8359375,-53.7109375,-39.55078125,69.3359375
-117.67578125,-248.53515625,-55.6640625,-177.734375
-179.19921875,-149.4140625,-73.2421875,-297.8515625
-22.4609375,106.93359375,-53.7109375,18.06640625
34.1796875,47.8515625,-42.48046875,104.4921875
4.39453125,-18.5546875,-45.8984375,71.2890625
-101.07421875,-181.15234375,-52.24609375,-127.44140625
-181.640625,-178.22265625,-59.08203125,-302.734375
-34.66796875,73.73046875,-43.45703125,-36.1328125
43.9453125,61.5234375,-32.71484375,92.28515625
20.99609375,-10.25390625,-28.80859375,90.33203125
-89.35546875,-187.98828125,-39.0625,-83.49609375
-199.21875,-215.8203125,-59.08203125,-302.734375
-58.10546875,72.75390625,-41.9921875,-45.41015625
36.62109375,84.47265625,-30.76171875,128.41796875
23.4375,0.48828125,-33.69140625,116.69921875
-61.03515625,-161.62109375,-36.1328125,-45.41015625
-187.5,-218.75,-47.8515625,-287.59765625
-61.5234375,78.125,-41.9921875,-75.68359375
46.875,96.19140625,-31.73828125,107.91015625
20.5078125,-6.34765625,-32.2265625,89.84375
-45.41015625,-115.234375,-38.0859375,-28.80859375
-177.734375,-231.93359375,-58.10546875,-291.9921875
-97.16796875,8.7890625,-56.640625,-140.625
50.29296875,108.88671875,-41.015625,100.09765625
43.9453125,33.203125,-42.48046875,109.86328125
-30.76171875,-106.4453125,-44.921875,-6.34765625
-162.109375,-261.71875,-57.6171875,-291.50390625
-99.609375,-6.34765625,-55.6640625,-170.8984375
46.38671875,145.5078125,-40.52734375,103.515625
47.8515625,45.8984375,-33.69140625,121.58203125
-8.30078125,-118.65234375,-27.34375,41.015625
-149.90234375,-286.1328125,-35.15625,-241.69921875
-129.8828125,-68.84765625,-35.64453125,-192.3828125
21.97265625,102.05078125,-24.90234375,86.42578125
37.59765625,37.59765625,-28.3203125,93.75
-12.6953125,-62.98828125,-39.0625,42.48046875
-149.90234375,-268.06640625,-52.24609375,-210.44921875
-161.62109375,-117.1875,-60.05859375,-236.81640625
0.0,100.5859375,-47.36328125,74.70703125
37.109375,35.64453125,-40.0390625,111.81640625
-3.90625,-46.875,-50.29296875,65.91796875
-113.76953125,-205.56640625,-59.5703125,-170.8984375
-158.203125,-116.69921875,-56.640625,-269.53125
-10.25390625,105.95703125,-41.9921875,36.1328125
46.875,57.6171875,-34.66796875,111.328125
14.16015625,-21.97265625,-28.80859375,90.33203125
-104.98046875,-192.3828125,-47.36328125,-129.8828125
-175.29296875,-152.34375,-67.3828125,-303.22265625
-11.23046875,92.7734375,-52.734375,-1.46484375
51.26953125,65.4296875,-34.1796875,112.79296875
19.53125,-1.46484375,-30.76171875,83.0078125
-86.42578125,-200.1953125,-48.33984375,-98.6328125
-189.94140625,-211.42578125,-62.5,-303.7109375
-30.76171875,111.81640625,-55.17578125,-39.55078125
61.5234375,88.37890625,-51.7578125,122.55859375
32.71484375,-7.8125,-51.26953125,100.5859375
-67.87109375,-159.66796875,-57.6171875,-61.03515625
-183.59375,-212.40234375,-71.77734375,-302.734375
-54.6875,82.51953125,-59.08203125,-83.49609375
53.7109375,101.5625,-48.33984375,106.4453125
34.1796875,17.578125,-46.38671875,96.6796875
-57.6171875,-129.8828125,-48.828125,-33.69140625
-184.5703125,-233.3984375,-61.03515625,-303.22265625
-74.21875,28.80859375,-48.828125,-127.9296875
62.01171875,97.16796875,-41.015625,105.95703125
33.203125,31.25,-47.36328125,94.7265625
-47.36328125,-118.65234375,-55.17578125,-11.71875
-154.296875,-272.94921875,-63.96484375,-259.765625
-98.14453125,-20.01953125,-50.78125,-146.97265625
4.39453125,102.5390625,-35.64453125,71.77734375
3.90625,22.94921875,-34.1796875,76.171875
-36.1328125,-102.05078125,-39.55078125,8.30078125
-166.50390625,-243.65234375,-56.15234375,-274.4140625
-141.11328125,-45.41015625,-54.19921875,-223.6328125
14.6484375,94.7265625,-36.62109375,73.73046875
35.15625,30.2734375,-28.80859375,91.30859375
-13.18359375,-87.890625,-33.203125,31.25
-154.78515625,-242.1875,-54.6875,-227.05078125
-163.57421875,-82.51953125,-62.01171875,-242.1875
9.765625,97.16796875,-45.8984375,65.91796875
45.41015625,39.0625,-36.1328125,110.3515625
-0.48828125,-64.94140625,-37.59765625,64.453125
-129.8828125,-250.48828125,-54.6875,-181.640625
-156.73828125,-136.71875,-61.03515625,-267.578125
5.859375,106.93359375,-47.36328125,40.0390625
34.1796875,48.828125,-38.57421875,109.86328125
7.32421875,-30.76171875,-29.78515625,87.40234375
-101.5625,-222.65625,-44.921875,-122.55859375
-174.8046875,-177.734375,-61.03515625,-277.34375
-5.37109375,115.72265625,-41.015625,4.8828125
62.01171875,80.56640625,-29.296875,103.515625
16.6015625,-33.69140625,-39.0625,85.9375
-85.44921875,-209.9609375,-52.24609375,-101.5625
-169.43359375,-209.47265625,-67.87109375,-291.9921875
-28.3203125,94.23828125,-56.15234375,-7.32421875
53.22265625,100.5859375,-37.59765625,129.39453125
26.85546875,1.953125,-36.1328125,104.00390625
-71.2890625,-171.875,-51.7578125,-64.94140625
-190.4296875,-221.19140625,-74.21875,-317.3828125
-65.4296875,62.01171875,-58.59375,-85.44921875
39.0625,81.54296875,-33.203125,103.02734375
19.04296875,27.34375,-27.83203125,97.16796875
-61.5234375,-152.34375,-36.1328125,-28.80859375
-190.4296875,-268.5546875,-56.15234375,-291.9921875
-86.42578125,32.2265625,-44.43359375,-116.69921875
32.2265625,91.796875,-31.25,95.21484375
16.6015625,9.765625,-41.50390625,86.9140625
-50.78125,-125.9765625,-46.875,-14.16015625
-185.05859375,-272.94921875,-61.03515625,-289.0625
-118.65234375,-3.90625,-57.6171875,-169.43359375
24.4140625,122.0703125,-46.38671875,83.984375
25.390625,9.765625,-46.38671875,94.7265625
-43.45703125,-121.09375,-47.8515625,5.859375
-175.29296875,-242.1875,-58.10546875,-269.04296875
-129.39453125,-41.015625,-49.8046875,-208.984375
30.2734375,100.09765625,-35.64453125,55.6640625
47.8515625,30.2734375,-34.1796875,92.28515625
-10.7421875,-81.54296875,-35.64453125,41.50390625
-158.203125,-254.8828125,-52.734375,-235.3515625
-152.83203125,-79.58984375,-64.453125,-244.62890625
14.16015625,106.93359375,-48.828125,58.59375
35.15625,21.97265625,-33.69140625,89.84375
-2.9296875,-75.68359375,-35.15625,35.15625
-121.09375,-234.375,-50.78125,-195.3125
-151.85546875,-69.3359375,-59.08203125,-255.859375
12.6953125,146.97265625,-44.43359375,39.0625
55.6640625,52.734375,-37.59765625,90.8203125
10.25390625,-46.38671875,-34.1796875,57.6171875
-112.79296875,-241.2109375,-46.38671875,-156.25
-176.26953125,-167.96875,-64.453125,-299.31640625
-7.32421875,118.1640625,-43.9453125,-1.46484375
66.89453125,69.3359375,-41.015625,101.07421875
32.2265625,-14.6484375,-51.26953125,74.21875
-93.26171875,-189.453125,-53.7109375,-112.3046875
-182.6171875,-181.640625,-62.98828125,-297.8515625
-19.04296875,120.60546875,-53.22265625,-14.6484375
70.3125,104.4921875,-42.96875,118.65234375
34.66796875,8.30078125,-44.921875,80.56640625
-81.0546875,-197.75390625,-53.7109375,-84.47265625
-192.3828125,-229.00390625,-72.265625,-307.12890625
-60.546875,91.796875,-61.5234375,-71.77734375
52.734375,90.33203125,-40.52734375,105.95703125
36.62109375,6.8359375,-41.9921875,92.7734375
-60.05859375,-145.99609375,-48.828125,-43.45703125
-191.89453125,-226.07421875,-64.94140625,-298.828125
-80.078125,60.05859375,-65.4296875,-116.2109375
56.15234375,116.2109375,-49.31640625,100.09765625
52.24609375,17.578125,-41.015625,87.890625
-32.2265625,-134.765625,-44.921875,-39.55078125
-168.45703125,-225.09765625,-54.19921875,-274.90234375
-76.66015625,45.41015625,-46.875,-128.41796875
59.5703125,103.02734375,-33.203125,93.75
43.45703125,15.625,-35.64453125,104.98046875
-34.66796875,-104.98046875,-48.828125,6.34765625
-172.36328125,-256.34765625,-52.734375,-266.11328125
-133.7890625,-12.6953125,-49.8046875,-187.98828125
16.6015625,111.328125,-41.9921875,76.171875
32.71484375,26.85546875,-41.015625,95.21484375
-22.4609375,-84.47265625,-48.828125,22.94921875
-166.50390625,-272.94921875,-60.05859375,-252.44140625
-157.71484375,-75.1953125,-58.59375,-240.234375
30.76171875,143.5546875,-42.48046875,62.01171875
53.7109375,41.015625,-38.57421875,101.07421875
-0.48828125,-82.03125,-42.48046875,39.55078125
-139.16015625,-241.69921875,-56.15234375,-208.0078125
-173.828125,-106.93359375,-62.01171875,-253.41796875
6.34765625,122.55859375,-47.8515625,49.8046875
47.8515625,52.24609375,-45.41015625,105.95703125
16.6015625,-59.5703125,-49.8046875,77.1484375
-92.28515625,-238.28125,-51.7578125,-132.8125
-175.29296875,-139.16015625,-50.29296875,-253.41796875
-24.4140625,112.79296875,-33.203125,37.59765625
40.0390625,72.75390625,-19.53125,107.91015625
-2.9296875,2.9296875,-19.53125,58.10546875
-121.58203125,-218.75,-34.1796875,-131.34765625
-217.28515625,-209.9609375,-52.734375,-295.8984375
-47.36328125,110.3515625,-43.9453125,-18.06640625
41.50390625,72.75390625,-35.64453125,87.40234375
18.06640625,-17.08984375,-37.109375,70.80078125
-86.42578125,-184.5703125,-49.31640625,-90.8203125
-196.2890625,-228.515625,-64.94140625,-311.5234375
-41.9921875,84.47265625,-45.41015625,-54.6875
50.78125,100.09765625,-32.71484375,111.328125
22.4609375,15.625,-37.59765625,108.3984375
-65.91796875,-150.87890625,-40.52734375,-27.34375
-186.03515625,-227.5390625,-50.29296875,-289.55078125
-61.5234375,61.5234375,-43.45703125,-84.47265625
55.6640625,70.80078125,-31.73828125,117.67578125
44.921875,1.953125,-41.50390625,104.4921875
-32.71484375,-123.53515625,-60.546875,-16.11328125
-184.5703125,-257.32421875,-67.87109375,-280.76171875
-91.796875,20.01953125,-47.8515625,-133.30078125
53.7109375,111.81640625,-31.25,95.21484375
38.0859375,24.90234375,-28.80859375,85.44921875
-28.80859375,-113.76953125,-35.15625,-6.8359375
-173.828125,-279.296875,-49.8046875,-272.94921875
-123.046875,-22.94921875,-47.8515625,-178.22265625
40.52734375,140.625,-31.73828125,94.23828125
37.109375,5.859375,-31.73828125,89.84375
-36.62109375,-136.23046875,-43.9453125,1.46484375
-169.921875,-273.4375,-54.6875,-252.44140625
-144.04296875,-78.125,-58.59375,-229.98046875
22.4609375,119.62890625,-43.45703125,64.94140625
36.1328125,29.78515625,-35.15625,103.02734375
-14.16015625,-93.26171875,-43.45703125,42.96875
-158.69140625,-268.5546875,-58.10546875,-208.0078125
-172.36328125,-109.86328125,-55.6640625,-240.234375
16.6015625,118.65234375,-37.109375,63.96484375
52.24609375,47.36328125,-28.3203125,110.83984375
4.39453125,-58.59375,-30.76171875,69.3359375
-127.9296875,-254.39453125,-49.8046875,-152.34375
-179.19921875,-138.671875,-65.91796875,-260.7421875
-2.44140625,120.60546875,-49.8046875,23.92578125
62.98828125,57.12890625,-41.015625,102.5390625
23.92578125,-21.97265625,-39.0625,79.58984375
-101.07421875,-208.49609375,-57.12890625,-124.51171875
-181.15234375,-192.3828125,-72.265625,-283.203125
-34.1796875,89.84375,-41.9921875,-1.46484375
37.109375,74.70703125,-27.34375,113.76953125
11.23046875,-11.71875,-32.2265625,94.7265625
-91.30859375,-179.6875,-41.015625,-87.40234375
-203.125,-172.8515625,-57.6171875,-292.96875
-60.546875,88.37890625,-49.8046875,-52.24609375
41.9921875,68.84765625,-32.2265625,96.19140625
27.83203125,18.06640625,-29.296875,91.30859375
-62.98828125,-155.2734375,-40.52734375,-53.7109375
-195.80078125,-241.69921875,-63.96484375,-292.48046875
-72.75390625,67.87109375,-61.5234375,-90.33203125
57.12890625,108.3984375,-49.8046875,92.28515625
42.48046875,10.25390625,-50.29296875,86.42578125
-43.9453125,-141.6015625,-57.6171875,-29.78515625
-177.734375,-264.6484375,-69.82421875,-285.64453125
-90.8203125,35.64453125,-51.26953125,-132.32421875
46.875,141.6015625,-27.83203125,91.796875
31.73828125,17.578125,-43.45703125,81.0546875
-39.55078125,-128.90625,-56.15234375,-11.23046875
-173.828125,-260.25390625,-59.5703125,-261.23046875
-119.62890625,-17.578125,-55.17578125,-169.921875
34.1796875,112.3046875,-32.2265625,81.0546875
36.62109375,25.390625,-22.94921875,88.8671875
-40.52734375,-104.98046875,-26.3671875,26.3671875
-185.05859375,-269.53125,-46.38671875,-229.98046875
-142.08984375,-56.15234375,-57.12890625,-218.75
24.4140625,114.2578125,-42.96875,40.52734375
40.0390625,52.24609375,-28.3203125,83.984375
-0.9765625,-59.08203125,-24.90234375,42.96875
-141.11328125,-258.7890625,-52.734375,-215.33203125
-155.2734375,-109.86328125,-63.96484375,-245.1171875
14.16015625,105.95703125,-34.1796875,48.828125
42.96875,36.1328125,-30.76171875,92.28515625
-2.9296875,-62.98828125,-36.62109375,60.546875
-130.37109375,-250.48828125,-47.8515625,-165.52734375
-172.8515625,-143.06640625,-65.91796875,-254.39453125
2.44140625,108.3984375,-54.6875,46.38671875
53.22265625,56.15234375,-46.38671875,104.4921875
9.27734375,-33.69140625,-43.9453125,74.21875
-119.140625,-218.26171875,-52.734375,-125.0
-187.01171875,-132.32421875,-64.453125,-277.83203125
-14.6484375,119.140625,-43.45703125,4.39453125
55.17578125,60.05859375,-35.15625,99.12109375
23.4375,-7.32421875,-41.015625,84.47265625
-82.03125,-208.984375,-37.59765625,-78.125
-187.5,-219.7265625,-46.875,-276.85546875
-36.1328125,92.7734375,-44.43359375,-31.73828125
61.5234375,88.37890625,-32.71484375,100.09765625
22.94921875,-1.953125,-33.69140625,99.609375
-85.44921875,-175.78125,-54.6875,-57.12890625
-200.68359375,-222.16796875,-65.4296875,-300.29296875
-65.4296875,111.328125,-45.41015625,-64.453125
60.05859375,126.953125,-41.50390625,110.83984375
26.85546875,5.37109375,-41.9921875,92.28515625
-67.87109375,-159.66796875,-40.0390625,-36.62109375
-196.77734375,-261.23046875,-62.01171875,-295.41015625
-106.4453125,25.390625,-57.12890625,-117.67578125
32.2265625,115.234375,-29.78515625,108.88671875
32.2265625,38.0859375,-31.73828125,103.02734375
-32.71484375,-132.8125,-46.875,1.953125
-192.3828125,-279.78515625,-62.01171875,-267.578125
-126.46484375,-3.41796875,-51.7578125,-162.109375
40.52734375,116.2109375,-35.15625,85.44921875
35.15625,41.015625,-41.9921875,94.7265625
-37.109375,-97.16796875,-43.9453125,33.203125
-165.0390625,-287.109375,-55.6640625,-223.6328125
-109.86328125,-37.109375,-51.7578125,-183.10546875
41.50390625,138.671875,-37.109375,63.4765625
39.0625,44.921875,-48.828125,67.87109375
-17.578125,-70.3125,-55.6640625,23.4375
-152.83203125,-256.34765625,-75.1953125,-215.33203125
-150.390625,-73.2421875,-90.33203125,-233.3984375
20.5078125,163.57421875,-66.89453125,56.640625
50.29296875,99.12109375,-61.03515625,100.5859375
5.859375,-30.2734375,-67.87109375,44.921875
-136.23046875,-218.75,-81.0546875,-193.359375
-163.57421875,-61.5234375,-84.9609375,-251.953125
13.18359375,164.55078125,-67.87109375,43.45703125
55.17578125,86.42578125,-61.03515625,97.16796875
30.76171875,13.18359375,-61.5234375,79.58984375
-86.42578125,-164.55078125,-78.61328125,-148.4375
-156.25,-99.12109375,-87.890625,-299.8046875
1.953125,146.484375,-68.359375,-2.44140625
77.63671875,92.28515625,-52.24609375,101.07421875
55.17578125,10.7421875,-48.828125,76.66015625
-74.70703125,-162.59765625,-63.4765625,-117.1875
-181.15234375,-144.53125,-77.63671875,-304.6875
-18.06640625,153.3203125,-62.01171875,-34.1796875
64.453125,136.71875,-55.6640625,93.75
29.78515625,32.2265625,-58.59375,78.61328125
-68.84765625,-162.109375,-67.3828125,-80.56640625
-194.3359375,-214.84375,-81.0546875,-318.84765625
-66.89453125,87.40234375,-72.75390625,-86.42578125
48.828125,113.28125,-56.640625,88.37890625
29.78515625,24.4140625,-46.875,85.44921875
-65.91796875,-145.01953125,-57.6171875,-47.36328125
-203.61328125,-233.88671875,-73.2421875,-310.05859375
-91.796875,54.19921875,-62.98828125,-116.2109375
39.55078125,110.83984375,-47.8515625,100.09765625
24.90234375,31.73828125,-48.33984375,94.7265625
-53.22265625,-100.5859375,-61.5234375,-18.5546875
-186.5234375,-252.44140625,-79.1015625,-293.45703125
-105.46875,-4.39453125,-78.125,-156.73828125
43.45703125,119.62890625,-54.6875,92.28515625
45.8984375,31.25,-41.50390625,88.8671875
-21.484375,-106.4453125,-48.828125,5.37109375
-158.203125,-258.7890625,-68.359375,-273.4375
-116.2109375,-28.80859375,-64.453125,-201.171875
33.69140625,114.2578125,-49.31640625,82.51953125
46.875,39.55078125,-41.9921875,105.95703125
-11.23046875,-78.61328125,-40.0390625,44.43359375
-149.90234375,-248.046875,-56.15234375,-229.4921875
-138.671875,-54.6875,-55.17578125,-230.95703125
13.671875,111.328125,-49.8046875,52.734375
33.203125,29.296875,-54.6875,100.5859375
-6.8359375,-63.96484375,-43.9453125,59.5703125
-132.8125,-240.72265625,-53.7109375,-191.40625
-165.52734375,-98.6328125,-60.05859375,-263.18359375
-2.44140625,134.27734375,-36.1328125,38.0859375
37.59765625,48.33984375,-26.3671875,103.02734375
-9.27734375,-51.7578125,-34.66796875,64.94140625
-129.8828125,-236.81640625,-58.59375,-174.8046875
-170.41015625,-160.15625,-59.08203125,-296.875
-9.27734375,120.1171875,-52.734375,14.16015625
28.80859375,70.3125,-60.546875,81.54296875
-3.90625,-36.1328125,-40.52734375,60.546875
-94.23828125,-215.8203125,-44.43359375,-123.046875
-161.1328125,-172.8515625,-66.40625,-297.8515625
-20.01953125,121.58203125,-57.12890625,0.48828125
40.52734375,80.56640625,-40.0390625,121.09375
13.671875,-4.8828125,-34.66796875,103.515625
-82.51953125,-175.78125,-41.50390625,-75.1953125
-193.359375,-207.03125,-61.5234375,-329.1015625
-59.08203125,90.8203125,-57.12890625,-73.2421875
48.828125,84.9609375,-44.43359375,108.88671875
30.2734375,15.13671875,-44.43359375,93.75
-60.05859375,-124.0234375,-51.7578125,-58.59375
-180.17578125,-235.83984375,-67.87109375,-317.87109375
-69.3359375,35.64453125,-60.05859375,-107.421875
53.7109375,106.93359375,-41.9921875,109.86328125
43.45703125,26.3671875,-34.66796875,111.81640625
-37.109375,-114.74609375,-46.38671875,-12.20703125
-166.9921875,-249.51171875,-65.4296875,-298.828125
-92.7734375,10.25390625,-49.8046875,-142.08984375
34.1796875,109.375,-30.2734375,111.328125
35.15625,20.99609375,-28.3203125,111.328125
-31.25,-113.28125,-29.78515625,11.71875
-172.36328125,-256.34765625,-43.9453125,-273.4375
-108.3984375,9.765625,-50.78125,-184.5703125
33.203125,125.0,-40.0390625,97.65625
26.3671875,6.8359375,-37.59765625,109.375
-27.34375,-100.09765625,-36.62109375,27.83203125
-159.1796875,-258.30078125,-41.015625,-247.0703125
-147.94921875,-57.6171875,-54.19921875,-229.00390625
13.18359375,117.1875,-38.0859375,72.265625
41.015625,40.0390625,-20.01953125,105.95703125
-8.30078125,-70.80078125,-26.85546875,40.52734375
-144.04296875,-253.41796875,-41.9921875,-223.14453125
-159.66796875,-100.09765625,-51.7578125,-257.32421875
3.41796875,120.60546875,-38.0859375,54.6875
31.25,75.68359375,-32.71484375,105.95703125
-8.30078125,-41.9921875,-36.62109375,78.125
-128.41796875,-248.046875,-48.828125,-176.26953125
-174.31640625,-134.765625,-59.08203125,-306.640625
-9.765625,107.421875,-42.48046875,27.34375
49.31640625,62.01171875,-38.0859375,119.140625
12.20703125,-6.34765625,-46.875,84.47265625
-100.09765625,-197.265625,-61.5234375,-128.90625
-170.8984375,-179.6875,-64.453125,-303.22265625
-24.4140625,93.75,-41.50390625,0.0
50.29296875,67.87109375,-34.1796875,117.1875
19.53125,-9.765625,-40.0390625,83.984375
-76.66015625,-154.78515625,-52.24609375,-101.07421875
-166.9921875,-183.10546875,-61.5234375,-317.87109375
-51.26953125,86.9140625,-49.31640625,-43.9453125
46.38671875,97.65625,-36.62109375,125.48828125
44.43359375,18.06640625,-34.1796875,119.140625
-56.640625,-148.92578125,-38.0859375,-41.50390625
-197.75390625,-227.05078125,-44.921875,-321.77734375
-105.46875,40.0390625,-31.25,-105.46875
18.5546875,75.1953125,-17.08984375,112.79296875
12.6953125,4.39453125,-20.5078125,120.60546875
-74.21875,-159.66796875,-34.1796875,-25.390625
-205.078125,-270.99609375,-48.828125,-326.171875
-114.2578125,31.73828125,-42.48046875,-160.15625
24.4140625,100.5859375,-30.76171875,93.75
12.20703125,-12.6953125,-31.25,96.6796875
-54.19921875,-139.16015625,-41.50390625,-17.08984375
-173.828125,-253.90625,-56.640625,-300.29296875
-123.53515625,-16.6015625,-51.26953125,-189.453125
15.13671875,90.33203125,-37.109375,88.8671875
19.04296875,-8.7890625,-38.0859375,94.7265625
-31.25,-112.3046875,-44.43359375,9.27734375
-162.109375,-247.55859375,-67.87109375,-267.578125
-137.6953125,-69.3359375,-68.359375,-229.98046875
18.5546875,90.33203125,-43.45703125,71.77734375
41.50390625,45.41015625,-38.57421875,117.1875
-13.671875,-78.61328125,-48.33984375,46.875
-151.85546875,-264.16015625,-62.98828125,-241.2109375
-156.73828125,-96.19140625,-62.5,-269.04296875
12.6953125,104.00390625,-51.26953125,50.78125
32.71484375,34.66796875,-48.33984375,102.5390625
-14.16015625,-42.48046875,-45.8984375,66.40625
-128.90625,-217.28515625,-60.05859375,-178.22265625
-166.50390625,-136.71875,-70.80078125,-296.38671875
-2.44140625,101.5625,-50.29296875,20.99609375
46.875,58.59375,-36.1328125,105.95703125
11.71875,-23.92578125,-34.1796875,76.66015625
-97.65625,-190.91796875,-48.33984375,-135.25390625
-165.52734375,-150.390625,-65.4296875,-295.41015625
-18.06640625,94.23828125,-54.6875,15.625
52.24609375,46.875,-43.45703125,127.9296875
27.83203125,-19.04296875,-35.15625,104.00390625
-89.35546875,-177.734375,-37.109375,-101.5625
-181.15234375,-195.3125,-48.33984375,-325.1953125
-33.203125,82.51953125,-40.52734375,-30.76171875
53.22265625,85.44921875,-35.15625,130.859375
36.62109375,1.46484375,-40.0390625,107.421875
-58.10546875,-166.50390625,-50.78125,-64.94140625
-185.05859375,-221.19140625,-63.4765625,-329.58984375
-57.6171875,83.984375,-51.7578125,-79.1015625
48.828125,90.33203125,-46.38671875,124.51171875
15.625,0.0,-48.828125,98.14453125
-65.91796875,-133.7890625,-47.36328125,-34.1796875
-193.359375,-261.71875,-52.24609375,-321.77734375
-102.5390625,9.765625,-42.48046875,-145.99609375
30.2734375,100.5859375,-31.25,114.2578125
18.5546875,12.20703125,-38.57421875,112.79296875
-40.52734375,-124.51171875,-50.29296875,-6.34765625
-162.59765625,-253.41796875,-63.4765625,-305.17578125
-115.72265625,-23.92578125,-59.08203125,-193.359375
23.92578125,98.6328125,-41.015625,73.73046875
26.85546875,40.52734375,-34.66796875,82.51953125
-41.50390625,-111.81640625,-36.1328125,3.41796875
-177.734375,-293.9453125,-51.26953125,-283.69140625
-142.08984375,-55.6640625,-48.828125,-222.16796875
11.71875,104.98046875,-28.3203125,79.1015625
27.34375,35.64453125,-28.3203125,111.328125
-18.06640625,-78.125,-33.69140625,44.921875
-161.62109375,-282.71484375,-48.828125,-248.046875
-165.52734375,-104.00390625,-57.12890625,-267.08984375
3.90625,95.21484375,-35.15625,61.5234375
26.3671875,29.78515625,-32.71484375,103.02734375
-20.99609375,-68.84765625,-37.109375,55.6640625
-139.16015625,-241.69921875,-48.33984375,-193.84765625
-178.7109375,-120.60546875,-53.7109375,-285.15625
-14.6484375,85.9375,-30.2734375,49.8046875
30.76171875,33.203125,-19.53125,128.41796875
-13.18359375,-39.0625,-23.4375,81.54296875
-119.62890625,-219.23828125,-42.48046875,-156.25
-176.26953125,-162.59765625,-57.12890625,-306.15234375
-19.53125,89.84375,-39.55078125,6.34765625
40.0390625,63.4765625,-40.52734375,107.91015625
16.11328125,-9.27734375,-42.96875,82.51953125
-86.9140625,-200.1953125,-51.7578125,-121.09375
-181.640625,-198.2421875,-71.77734375,-348.14453125
-43.9453125,97.65625,-53.22265625,-55.6640625
41.9921875,69.82421875,-29.296875,120.60546875
23.4375,-20.5078125,-26.3671875,106.93359375
-68.84765625,-167.48046875,-42.48046875,-70.80078125
-179.19921875,-224.609375,-62.5,-321.2890625
-54.19921875,73.73046875,-56.15234375,-64.453125
58.59375,98.6328125,-40.52734375,128.41796875
38.57421875,4.8828125,-33.69140625,112.3046875
-45.8984375,-144.53125,-44.43359375,-33.69140625
-168.45703125,-225.5859375,-65.91796875,-308.59375
-80.56640625,50.78125,-58.59375,-113.76953125
43.9453125,94.23828125,-42.96875,113.76953125
44.921875,28.3203125,-34.66796875,105.46875
-24.4140625,-114.74609375,-36.62109375,-18.5546875
-156.73828125,-278.3203125,-62.98828125,-311.03515625
-91.30859375,-0.9765625,-61.5234375,-171.875
52.734375,118.1640625,-40.52734375,94.7265625
41.50390625,26.3671875,-47.36328125,105.95703125
-22.4609375,-96.6796875,-53.7109375,14.16015625
-148.92578125,-257.8125,-68.84765625,-281.73828125
-106.4453125,-40.52734375,-65.91796875,-206.54296875
47.36328125,97.16796875,-39.55078125,84.47265625
49.31640625,24.90234375,-36.62109375,107.91015625
-7.32421875,-66.89453125,-39.55078125,43.45703125
-134.765625,-220.703125,-50.29296875,-230.46875
-134.27734375,-76.66015625,-55.17578125,-236.81640625
17.578125,97.65625,-39.0625,63.96484375
46.38671875,43.45703125,-33.69140625,114.2578125
-3.90625,-79.1015625,-37.109375,73.73046875
-132.8125,-257.8125,-51.7578125,-192.3828125
-160.15625,-119.62890625,-58.10546875,-270.99609375
0.48828125,111.81640625,-43.9453125,57.12890625
39.0625,51.26953125,-38.0859375,114.2578125
-5.37109375,-36.62109375,-40.52734375,62.01171875
-126.46484375,-226.07421875,-69.3359375,-165.0390625
-184.08203125,-137.20703125,-82.51953125,-297.8515625
-16.6015625,135.7421875,-45.41015625,25.87890625
37.59765625,53.7109375,-30.76171875,129.8828125
-2.9296875,-36.1328125,-37.109375,84.47265625
-111.328125,-207.03125,-49.8046875,-126.46484375
-193.84765625,-176.26953125,-57.12890625,-301.7578125
-50.78125,109.86328125,-40.52734375,-16.11328125
21.484375,62.5,-36.1328125,100.09765625
-5.37109375,-37.59765625,-38.57421875,79.1015625
-97.16796875,-190.91796875,-48.33984375,-101.5625
-197.75390625,-208.984375,-69.82421875,-339.35546875
-67.3828125,75.1953125,-62.5,-72.265625
27.34375,99.12109375,-48.33984375,120.60546875
13.18359375,33.203125,-49.31640625,112.3046875
-69.3359375,-154.296875,-61.03515625,-39.0625
-200.1953125,-249.0234375,-70.3125,-319.82421875
-88.8671875,45.41015625,-47.36328125,-117.1875
34.1796875,101.07421875,-33.203125,110.3515625
12.20703125,17.578125,-36.62109375,104.4921875
-62.5,-124.51171875,-44.43359375,-28.80859375
-178.7109375,-237.3046875,-60.05859375,-313.4765625
-101.5625,15.13671875,-55.17578125,-162.109375
37.59765625,117.1875,-45.8984375,101.5625
28.80859375,17.08984375,-39.0625,110.3515625
-26.3671875,-108.88671875,-41.9921875,15.625
-161.62109375,-239.74609375,-61.5234375,-276.3671875
-137.20703125,-42.48046875,-64.94140625,-212.890625
24.4140625,94.23828125,-45.8984375,74.70703125
41.9921875,28.3203125,-29.78515625,104.98046875
-19.04296875,-97.16796875,-32.2265625,33.69140625
-161.62109375,-254.8828125,-49.8046875,-237.79296875
-153.3203125,-68.84765625,-45.41015625,-224.12109375
17.578125,96.6796875,-28.3203125,74.21875
41.50390625,28.80859375,-39.55078125,112.3046875
-3.90625,-65.4296875,-43.9453125,58.10546875
-130.37109375,-239.74609375,-48.33984375,-203.61328125
-161.1328125,-91.796875,-53.7109375,-260.7421875
3.41796875,146.484375,-41.015625,62.01171875
47.36328125,58.10546875,-35.15625,115.72265625
9.27734375,-65.91796875,-35.15625,76.66015625
-113.76953125,-239.74609375,-51.26953125,-159.66796875
-169.921875,-143.06640625,-62.01171875,-291.015625
-10.7421875,112.3046875,-45.41015625,20.99609375
41.50390625,67.3828125,-47.8515625,109.375
13.18359375,-19.04296875,-49.31640625,79.58984375
-94.7265625,-202.1484375,-56.15234375,-144.53125
-175.78125,-163.57421875,-69.3359375,-313.4765625
-23.92578125,107.421875,-59.08203125,-14.16015625
44.921875,60.546875,-53.7109375,103.02734375
8.30078125,6.8359375,-49.8046875,81.54296875
-87.40234375,-170.41015625,-52.734375,-100.5859375
-186.5234375,-209.47265625,-69.82421875,-330.078125
-32.2265625,91.30859375,-70.3125,-53.22265625
74.21875,75.68359375,-49.31640625,136.71875
31.25,-3.41796875,-33.203125,110.3515625
-62.98828125,-149.90234375,-40.0390625,-53.7109375
-181.15234375,-232.91015625,-56.640625,-304.6875
-73.2421875,40.0390625,-43.45703125,-93.26171875
40.0390625,84.9609375,-28.80859375,88.37890625
28.3203125,-12.6953125,-28.3203125,78.125
-52.24609375,-141.6015625,-42.48046875,-40.0390625
-179.19921875,-238.76953125,-62.01171875,-320.3125
-103.02734375,-0.9765625,-44.43359375,-143.06640625
22.4609375,72.75390625,-26.85546875,106.93359375
21.97265625,-3.41796875,-36.1328125,96.19140625
-51.7578125,-123.046875,-49.8046875,-7.32421875
-186.5234375,-247.55859375,-65.91796875,-278.80859375
-124.0234375,-18.5546875,-58.59375,-179.19921875
31.73828125,95.21484375,-39.55078125,82.51953125
29.78515625,17.08984375,-34.66796875,80.078125
-24.4140625,-101.07421875,-39.0625,-1.46484375
-149.90234375,-265.13671875,-59.5703125,-260.25390625
-122.0703125,-61.03515625,-62.98828125,-230.46875
33.69140625,128.90625,-42.96875,70.80078125
44.43359375,35.64453125,-31.25,115.234375
0.9765625,-88.8671875,-34.1796875,52.24609375
-135.7421875,-253.90625,-49.31640625,-203.125
-150.390625,-91.796875,-49.8046875,-242.1875
12.6953125,110.83984375,-35.64453125,47.36328125
41.50390625,46.875,-41.015625,105.46875
-0.9765625,-48.828125,-47.36328125,64.94140625
-125.48828125,-221.6796875,-48.828125,-193.359375
-176.26953125,-130.859375,-57.12890625,-298.828125
-6.34765625,92.7734375,-46.875,13.18359375
32.71484375,64.94140625,-44.921875,100.5859375
6.34765625,5.859375,-40.0390625,87.890625
-99.609375,-208.0078125,-42.48046875,-135.25390625
-193.359375,-172.8515625,-55.6640625,-310.546875
-30.76171875,109.375,-45.41015625,-4.8828125
48.828125,66.40625,-38.0859375,110.3515625
8.30078125,-11.23046875,-36.1328125,80.56640625
-98.6328125,-187.01171875,-45.41015625,-100.09765625
-198.2421875,-202.63671875,-60.05859375,-314.94140625
-56.15234375,77.63671875,-44.921875,-58.59375
25.87890625,74.21875,-37.109375,95.21484375
-1.46484375,-2.9296875,-42.96875,81.54296875
-82.03125,-147.4609375,-46.38671875,-70.80078125
-199.70703125,-202.1484375,-66.40625,-313.96484375
-75.1953125,68.84765625,-60.05859375,-82.51953125
42.48046875,82.51953125,-42.48046875,103.515625
15.625,-0.48828125,-37.109375,82.51953125
-60.546875,-143.5546875,-33.203125,-32.2265625
-184.08203125,-248.53515625,-60.05859375,-291.015625
-98.6328125,27.34375,-69.3359375,-127.9296875
35.15625,103.02734375,-41.9921875,105.46875
21.97265625,17.578125,-31.25,99.12109375
-50.78125,-116.69921875,-40.0390625,2.44140625
-178.7109375,-261.23046875,-55.17578125,-267.578125
-114.2578125,-8.30078125,-52.24609375,-159.66796875
31.73828125,135.7421875,-35.64453125,112.3046875
35.15625,38.0859375,-36.1328125,107.91015625
-20.99609375,-100.5859375,-42.96875,17.08984375
-160.64453125,-264.6484375,-47.8515625,-246.58203125
-131.8359375,-54.6875,-46.875,-202.63671875
27.34375,108.88671875,-38.57421875,82.51953125
40.0390625,27.34375,-37.109375,112.3046875
-19.53125,-69.82421875,-41.50390625,50.29296875
-160.64453125,-259.765625,-58.59375,-218.26171875
-159.1796875,-91.30859375,-62.98828125,-250.9765625
15.625,111.81640625,-41.015625,47.36328125
41.015625,41.9921875,-36.62109375,89.84375
-3.90625,-28.80859375,-40.52734375,52.734375
-135.7421875,-236.81640625,-52.734375,-190.91796875
-169.921875,-147.94921875,-52.734375,-282.2265625
-1.46484375,118.1640625,-38.57421875,28.3203125
33.203125,51.26953125,-40.0390625,89.35546875
6.8359375,-19.53125,-37.59765625,65.4296875
-96.6796875,-197.75390625,-52.24609375,-140.625
-182.6171875,-167.96875,-73.73046875,-300.78125
-33.203125,100.09765625,-60.546875,-0.9765625
42.96875,50.78125,-49.31640625,107.421875
27.83203125,-9.765625,-41.9921875,95.703125
-88.8671875,-176.7578125,-42.96875,-93.26171875
-191.40625,-164.55078125,-65.91796875,-313.4765625
-34.66796875,102.05078125,-59.5703125,-46.38671875
45.41015625,64.94140625,-36.1328125,99.609375
12.6953125,1.953125,-33.203125,94.23828125
-72.265625,-178.7109375,-46.875,-48.33984375
-191.89453125,-233.3984375,-63.4765625,-302.24609375
-77.63671875,65.91796875,-57.12890625,-103.02734375
40.0390625,85.44921875,-51.7578125,85.9375
16.11328125,21.484375,-57.6171875,76.66015625
-57.12890625,-120.1171875,-61.03515625,-47.8515625
-185.05859375,-240.72265625,-74.70703125,-300.29296875
-97.16796875,44.921875,-71.77734375,-131.34765625
41.015625,135.7421875,-55.6640625,83.49609375
37.109375,18.5546875,-51.26953125,71.2890625
-43.9453125,-139.16015625,-52.24609375,-27.83203125
-182.12890625,-257.32421875,-72.265625,-300.29296875
-100.5859375,8.7890625,-68.84765625,-183.59375
50.29296875,113.76953125,-45.41015625,82.51953125
47.36328125,29.78515625,-42.48046875,94.23828125
-19.04296875,-94.7265625,-45.8984375,6.34765625
-171.875,-257.8125,-62.98828125,-259.27734375
-133.30078125,-31.73828125,-64.94140625,-190.91796875
42.48046875,118.1640625,-52.734375,84.9609375
50.78125,36.1328125,-59.5703125,102.5390625
-1.46484375,-59.08203125,-60.546875,29.296875
-131.34765625,-251.953125,-64.453125,-238.76953125
-144.04296875,-114.2578125,-62.5,-242.67578125
21.484375,110.3515625,-38.57421875,64.94140625
58.10546875,64.453125,-33.203125,116.2109375
8.7890625,-42.48046875,-43.9453125,71.2890625
-122.55859375,-241.69921875,-56.640625,-184.5703125
-154.78515625,-111.328125,-57.6171875,-272.4609375
6.34765625,123.046875,-38.57421875,36.1328125
46.38671875,50.78125,-38.57421875,107.91015625
15.13671875,-29.78515625,-52.734375,92.28515625
-103.515625,-226.5625,-69.82421875,-139.16015625
-167.96875,-143.06640625,-71.2890625,-286.1328125
3.90625,118.65234375,-36.62109375,23.92578125
56.640625,61.03515625,-22.94921875,106.4453125
25.390625,0.9765625,-33.203125,77.1484375
-87.40234375,-201.171875,-44.921875,-105.46875
-186.03515625,-190.4296875,-59.5703125,-304.6875
-38.0859375,100.5859375,-51.7578125,-38.57421875
43.45703125,77.1484375,-46.875,96.6796875
15.625,-0.9765625,-52.734375,78.125
-91.796875,-153.80859375,-60.546875,-86.9140625
-207.03125,-208.0078125,-63.96484375,-313.4765625
-67.3828125,75.68359375,-42.48046875,-58.10546875
47.36328125,107.91015625,-37.59765625,117.1875
20.99609375,2.9296875,-42.48046875,84.47265625
-61.5234375,-177.734375,-46.875,-63.96484375
-180.6640625,-244.140625,-57.6171875,-314.453125
-73.73046875,45.8984375,-45.41015625,-114.74609375
46.38671875,110.3515625,-39.55078125,97.16796875
27.83203125,44.43359375,-44.921875,87.890625
-44.43359375,-125.9765625,-56.640625,-20.01953125
-189.94140625,-269.53125,-71.2890625,-288.57421875
-127.44140625,-4.39453125,-47.36328125,-156.25
23.92578125,93.75,-26.3671875,91.30859375
33.69140625,17.08984375,-25.87890625,92.28515625
-35.15625,-95.21484375,-34.66796875,7.32421875
-178.7109375,-270.01953125,-64.453125,-262.20703125
-139.6484375,-57.6171875,-60.546875,-199.70703125
20.99609375,117.1875,-37.109375,75.68359375
39.0625,46.38671875,-40.52734375,98.6328125
4.8828125,-80.078125,-44.43359375,48.33984375
-137.6953125,-262.6953125,-58.59375,-212.40234375
-140.625,-86.42578125,-59.5703125,-218.26171875
30.76171875,99.12109375,-34.1796875,63.96484375
40.0390625,19.53125,-27.83203125,83.984375
-1.46484375,-83.49609375,-31.73828125,41.015625
-137.6953125,-250.9765625,-44.43359375,-213.37890625
-187.5,-98.14453125,-50.78125,-285.15625
-20.99609375,108.88671875,-35.15625,9.27734375
20.5078125,24.90234375,-32.2265625,71.2890625
-10.25390625,-57.6171875,-32.2265625,58.10546875
-136.23046875,-233.88671875,-47.8515625,-160.15625
-199.70703125,-156.25,-62.98828125,-291.015625
-25.390625,88.37890625,-38.57421875,21.97265625
40.52734375,43.45703125,-20.01953125,119.140625
1.953125,-26.3671875,-22.4609375,70.80078125
-108.88671875,-204.58984375,-41.50390625,-134.765625
-191.89453125,-193.359375,-61.03515625,-304.6875
-49.8046875,91.796875,-49.31640625,-16.6015625
48.828125,96.6796875,-33.69140625,121.09375
23.4375,-1.46484375,-36.62109375,101.5625
-86.9140625,-209.9609375,-53.7109375,-73.2421875
-184.5703125,-229.00390625,-57.6171875,-298.33984375
-48.828125,85.44921875,-43.9453125,-49.8046875
54.19921875,96.6796875,-41.9921875,121.09375
22.4609375,-4.8828125,-40.0390625,99.609375
-71.2890625,-161.1328125,-38.57421875,-57.12890625
-191.40625,-223.14453125,-62.5,-315.4296875
-82.03125,51.26953125,-55.17578125,-90.33203125
41.015625,88.8671875,-33.69140625,125.9765625
26.85546875,17.08984375,-37.59765625,104.4921875
-55.17578125,-118.65234375,-39.55078125,-14.6484375
-196.2890625,-276.3671875,-52.24609375,-291.9921875
-111.81640625,-2.44140625,-44.43359375,-149.90234375
37.59765625,116.2109375,-26.85546875,101.07421875
27.34375,7.8125,-28.3203125,94.7265625
-46.38671875,-115.72265625,-34.1796875,-8.30078125
-183.59375,-256.8359375,-50.78125,-274.90234375
-123.046875,-18.5546875,-54.6875,-188.4765625
35.64453125,115.234375,-34.1796875,82.03125
41.9921875,26.3671875,-26.3671875,98.6328125
-11.23046875,-82.51953125,-30.2734375,29.296875
-160.64453125,-238.28125,-46.38671875,-233.88671875
-150.390625,-45.41015625,-53.7109375,-227.5390625
16.6015625,110.3515625,-48.33984375,60.546875
35.64453125,22.4609375,-52.734375,100.5859375
-13.671875,-69.82421875,-52.24609375,43.9453125
-149.90234375,-243.1640625,-58.59375,-216.796875
-168.45703125,-85.9375,-62.01171875,-259.765625
3.90625,126.46484375,-45.8984375,42.48046875
34.66796875,30.76171875,-39.55078125,80.56640625
-0.9765625,-63.4765625,-46.875,50.29296875
-128.41796875,-241.2109375,-56.15234375,-162.109375
-180.6640625,-131.34765625,-60.546875,-267.08984375
-7.32421875,118.65234375,-52.24609375,25.390625
48.33984375,76.66015625,-45.8984375,112.79296875
20.99609375,-20.99609375,-40.52734375,99.12109375
-107.91015625,-219.7265625,-44.43359375,-104.4921875
-187.01171875,-166.015625,-61.03515625,-282.2265625
-13.671875,97.16796875,-57.6171875,-13.671875
56.640625,65.91796875,-49.31640625,97.65625
28.80859375,1.46484375,-46.38671875,83.984375
-80.078125,-183.59375,-60.05859375,-94.7265625
-198.73046875,-188.96484375,-72.75390625,-312.98828125
-49.8046875,101.5625,-55.6640625,-51.26953125
57.12890625,86.9140625,-55.17578125,104.4921875
29.296875,18.5546875,-56.15234375,81.54296875
-60.05859375,-126.953125,-49.8046875,-50.29296875
-171.875,-214.35546875,-57.12890625,-291.9921875
-62.5,47.36328125,-55.6640625,-101.5625
52.734375,102.05078125,-41.50390625,98.14453125
42.96875,24.4140625,-31.73828125,102.5390625
-45.41015625,-139.16015625,-43.9453125,-23.92578125
-187.98828125,-259.27734375,-66.89453125,-280.2734375
-99.12109375,18.5546875,-62.5,-120.60546875
54.19921875,105.95703125,-40.0390625,106.4453125
46.38671875,28.80859375,-33.203125,113.76953125
-41.015625,-112.79296875,-43.9453125,12.20703125
-191.89453125,-252.9296875,-67.87109375,-275.87890625
-134.27734375,-2.9296875,-65.91796875,-181.15234375
26.3671875,95.703125,-44.921875,76.66015625
24.4140625,-3.90625,-40.52734375,76.66015625
-33.203125,-112.3046875,-47.36328125,0.0
-172.36328125,-264.6484375,-68.84765625,-259.27734375
-153.3203125,-54.19921875,-70.3125,-220.703125
14.16015625,115.234375,-46.875,57.6171875
34.66796875,37.109375,-38.0859375,86.9140625
-12.20703125,-78.125,-40.52734375,40.0390625
-151.85546875,-262.6953125,-58.10546875,-209.47265625
-167.96875,-108.88671875,-62.5,-239.74609375
1.953125,105.46875,-49.31640625,52.734375
38.0859375,59.08203125,-43.9453125,111.328125
2.44140625,-44.43359375,-40.52734375,76.66015625
-141.6015625,-240.72265625,-52.24609375,-169.43359375
-181.640625,-102.05078125,-54.6875,-263.18359375
7.8125,139.6484375,-36.1328125,30.76171875
49.8046875,59.08203125,-34.66796875,92.7734375
8.30078125,-22.94921875,-40.0390625,65.91796875
-110.3515625,-211.9140625,-47.36328125,-139.6484375
-188.4765625,-165.0390625,-55.17578125,-300.29296875
-17.08984375,112.79296875,-39.55078125,-16.11328125
63.4765625,74.21875,-40.52734375,96.19140625
33.203125,2.44140625,-41.50390625,87.40234375
-66.89453125,-171.38671875,-41.9921875,-82.03125
-170.8984375,-216.30859375,-57.6171875,-296.875
-29.78515625,74.70703125,-41.9921875,-42.96875
66.40625,80.078125,-28.80859375,111.81640625
34.1796875,0.0,-30.76171875,97.65625
-67.3828125,-141.6015625,-33.69140625,-57.6171875
-185.546875,-205.56640625,-42.96875,-301.7578125
-72.265625,49.8046875,-29.78515625,-87.890625
41.50390625,93.75,-12.20703125,103.02734375
27.83203125,19.04296875,-19.53125,100.5859375
-68.359375,-157.71484375,-31.73828125,-39.0625
-206.0546875,-249.51171875,-49.31640625,-289.55078125
-106.93359375,52.734375,-52.734375,-108.3984375
25.390625,88.37890625,-45.8984375,86.9140625
28.3203125,3.90625,-47.36328125,72.265625
-41.015625,-111.328125,-41.50390625,-25.390625
-187.01171875,-251.953125,-53.22265625,-281.25
-120.1171875,-1.953125,-59.08203125,-173.33984375
30.76171875,113.76953125,-42.48046875,73.73046875
49.31640625,22.4609375,-43.45703125,89.35546875
-13.18359375,-105.46875,-50.78125,21.484375
-154.296875,-262.6953125,-60.546875,-234.375
-118.1640625,-61.5234375,-61.5234375,-205.078125
45.8984375,117.1875,-43.9453125,67.3828125
67.87109375,61.03515625,-37.109375,103.515625
19.53125,-77.63671875,-41.9921875,60.05859375
-122.0703125,-266.11328125,-55.17578125,-186.5234375
-145.99609375,-91.796875,-59.08203125,-223.6328125
17.578125,113.28125,-42.96875,47.8515625
44.921875,42.48046875,-35.15625,89.84375
-11.71875,-87.890625,-39.0625,45.8984375
-144.53125,-262.20703125,-45.8984375,-188.4765625
-180.17578125,-121.58203125,-47.36328125,-266.6015625
0.9765625,108.3984375,-34.66796875,29.78515625
42.48046875,33.203125,-29.78515625,93.75
-4.8828125,-46.875,-38.57421875,60.05859375
-119.140625,-201.66015625,-51.7578125,-137.6953125
-179.19921875,-154.296875,-53.22265625,-256.8359375
-8.7890625,79.58984375,-36.62109375,27.34375
51.26953125,43.45703125,-35.15625,105.46875
15.625,-32.71484375,-37.109375,84.9609375
-93.75,-207.03125,-42.48046875,-83.984375
-200.1953125,-195.3125,-55.6640625,-284.66796875
-45.8984375,102.05078125,-44.921875,-32.2265625
49.31640625,83.49609375,-34.1796875,96.19140625
12.20703125,-12.20703125,-36.62109375,71.2890625
-88.37890625,-171.875,-43.9453125,-82.03125
-207.51953125,-218.26171875,-57.12890625,-309.5703125
-79.1015625,88.8671875,-46.38671875,-76.171875
47.8515625,93.75,-35.15625,106.4453125
37.59765625,6.34765625,-45.8984375,89.84375
-47.36328125,-134.27734375,-49.8046875,-29.296875
-176.26953125,-261.71875,-55.6640625,-277.34375
-71.2890625,35.64453125,-39.55078125,-101.07421875
56.640625,114.2578125,-24.90234375,113.28125
34.1796875,20.99609375,-30.2734375,108.88671875
-44.43359375,-122.55859375,-37.109375,-7.32421875
-184.5703125,-254.8828125,-51.7578125,-276.3671875
-116.69921875,-1.46484375,-51.26953125,-161.1328125
28.3203125,105.46875,-38.57421875,69.82421875
20.01953125,36.1328125,-38.57421875,69.82421875
-44.43359375,-110.83984375,-40.0390625,-6.34765625
-187.98828125,-284.66796875,-66.89453125,-256.34765625
-136.23046875,-34.66796875,-70.3125,-181.15234375
36.1328125,108.3984375,-37.59765625,80.56640625
39.0625,23.4375,-30.76171875,86.9140625
-19.04296875,-87.890625,-40.0390625,22.94921875
-166.015625,-280.76171875,-62.98828125,-240.234375
-162.109375,-89.84375,-68.359375,-251.953125
14.6484375,121.58203125,-41.9921875,36.1328125
46.38671875,45.41015625,-40.0390625,84.47265625
2.44140625,-47.36328125,-48.828125,53.22265625
-126.953125,-214.84375,-63.96484375,-174.8046875
-157.2265625,-117.1875,-63.4765625,-244.62890625
7.8125,101.5625,-44.43359375,47.36328125
48.828125,43.9453125,-44.43359375,102.5390625
4.39453125,-39.0625,-37.109375,73.2421875
-125.48828125,-225.09765625,-39.55078125,-136.23046875
-184.5703125,-160.64453125,-47.36328125,-282.2265625
-16.11328125,90.8203125,-40.52734375,-8.30078125
51.26953125,68.84765625,-35.15625,80.56640625
25.87890625,-1.953125,-34.66796875,71.2890625
-99.609375,-212.890625,-45.8984375,-105.46875
-194.3359375,-176.26953125,-62.98828125,-290.0390625
-23.92578125,119.62890625,-49.8046875,-23.92578125
69.82421875,67.87109375,-40.0390625,103.02734375
43.9453125,-11.23046875,-53.22265625,78.125
-64.453125,-165.52734375,-60.546875,-81.0546875
-178.7109375,-202.63671875,-61.03515625,-291.9921875
-39.55078125,89.84375,-42.96875,-62.01171875
63.4765625,89.84375,-28.80859375,101.5625
33.203125,3.41796875,-36.62109375,89.35546875
-62.98828125,-146.484375,-55.17578125,-50.29296875
-194.82421875,-233.88671875,-63.96484375,-296.875
-74.21875,54.6875,-45.8984375,-104.4921875
49.31640625,131.34765625,-35.15625,84.47265625
23.92578125,42.48046875,-41.50390625,62.5
-59.5703125,-130.37109375,-61.5234375,-44.43359375
-198.2421875,-264.16015625,-79.58984375,-291.50390625
-111.81640625,-3.90625,-62.98828125,-145.99609375
37.59765625,107.421875,-42.96875,85.9375
39.0625,37.59765625,-40.52734375,86.9140625
-39.0625,-109.375,-43.9453125,1.953125
-186.03515625,-267.578125,-61.03515625,-265.13671875
-127.44140625,-24.90234375,-59.08203125,-195.3125
44.921875,123.046875,-37.109375,69.3359375
43.9453125,24.4140625,-34.1796875,85.9375
-19.53125,-81.54296875,-34.66796875,21.97265625
-157.2265625,-219.23828125,-45.8984375,-226.07421875
-156.73828125,-66.40625,-57.12890625,-211.42578125
22.94921875,117.67578125,-41.015625,75.68359375
59.08203125,59.5703125,-37.109375,109.86328125
-4.8828125,-80.56640625,-42.96875,45.8984375
-148.4375,-254.39453125,-55.17578125,-197.75390625
-159.1796875,-103.02734375,-55.6640625,-239.2578125
15.625,120.1171875,-36.62109375,51.7578125
35.15625,53.22265625,-35.64453125,107.421875
-7.8125,-49.31640625,-39.0625,86.42578125
-131.34765625,-242.1875,-50.29296875,-137.6953125
-185.546875,-133.30078125,-58.10546875,-242.67578125
-5.37109375,147.94921875,-43.45703125,43.45703125
58.59375,78.61328125,-39.0625,97.16796875
16.6015625,-36.62109375,-45.41015625,77.63671875
-116.2109375,-214.35546875,-51.26953125,-112.79296875
-192.87109375,-184.08203125,-61.5234375,-291.50390625
-26.85546875,110.83984375,-38.0859375,-8.7890625
61.03515625,98.6328125,-33.69140625,116.2109375
30.2734375,-2.9296875,-46.38671875,91.30859375
-82.51953125,-168.9453125,-46.38671875,-71.77734375
-191.89453125,-208.49609375,-57.12890625,-290.52734375
-48.828125,79.1015625,-42.96875,-51.26953125
58.59375,99.609375,-27.34375,105.95703125
37.59765625,38.57421875,-27.83203125,81.54296875
-60.05859375,-148.4375,-42.96875,-66.89453125
-197.75390625,-249.0234375,-62.5,-306.15234375
-85.44921875,49.8046875,-52.734375,-93.75
51.26953125,108.88671875,-37.59765625,106.93359375
53.22265625,30.76171875,-34.1796875,110.83984375
-45.8984375,-141.11328125,-41.015625,-10.7421875
-171.875,-233.88671875,-55.17578125,-253.90625
-70.3125,60.05859375,-42.48046875,-84.47265625
57.6171875,119.62890625,-28.3203125,130.37109375
49.31640625,7.8125,-31.73828125,113.28125
-36.1328125,-125.9765625,-37.59765625,5.37109375
-171.38671875,-231.4453125,-52.24609375,-252.9296875
-109.86328125,-8.7890625,-49.31640625,-169.43359375
36.1328125,92.28515625,-29.78515625,87.40234375
29.78515625,37.59765625,-40.52734375,86.9140625
-37.59765625,-98.6328125,-55.17578125,2.44140625
-175.29296875,-281.73828125,-61.03515625,-254.8828125
-146.97265625,-52.24609375,-61.5234375,-218.75
34.66796875,118.65234375,-46.38671875,68.359375
61.5234375,32.2265625,-41.9921875,94.7265625
-0.48828125,-84.9609375,-44.921875,45.8984375
-153.3203125,-273.4375,-53.7109375,-207.03125
-175.29296875,-104.4921875,-53.22265625,-251.46484375
-3.90625,117.1875,-26.85546875,50.29296875
42.48046875,30.76171875,-22.4609375,103.515625
4.8828125,-67.3828125,-29.78515625,56.15234375
-141.6015625,-243.1640625,-42.96875,-186.5234375
-186.03515625,-139.6484375,-50.78125,-286.1328125
-0.9765625,104.00390625,-36.62109375,23.4375
44.43359375,60.546875,-38.0859375,114.2578125
4.8828125,-31.73828125,-41.015625,80.078125
-108.3984375,-228.02734375,-52.734375,-133.7890625
-192.87109375,-184.08203125,-64.453125,-293.9453125
-27.34375,96.6796875,-41.015625,-6.8359375
55.17578125,77.63671875,-29.78515625,103.515625
17.578125,1.953125,-35.64453125,89.35546875
-94.23828125,-185.05859375,-47.8515625,-82.03125
-192.87109375,-208.49609375,-47.8515625,-292.96875
-45.41015625,60.546875,-33.203125,-49.31640625
42.96875,59.5703125,-29.78515625,95.703125
18.5546875,3.41796875,-28.80859375,90.8203125
-77.1484375,-173.828125,-42.48046875,-63.4765625
-198.73046875,-248.046875,-65.91796875,-320.80078125
-75.1953125,55.17578125,-60.05859375,-101.5625
46.875,97.16796875,-42.96875,109.375
32.71484375,1.46484375,-45.8984375,100.09765625
-61.03515625,-138.18359375,-45.41015625,-29.296875
-199.21875,-229.00390625,-49.8046875,-284.1796875
-107.91015625,15.13671875,-47.8515625,-124.51171875
36.62109375,80.078125,-41.50390625,85.44921875
31.73828125,-2.9296875,-30.2734375,83.984375
-51.26953125,-125.9765625,-21.97265625,-11.23046875
-203.125,-244.62890625,-47.36328125,-291.9921875
-141.11328125,-4.8828125,-56.15234375,-188.4765625
23.92578125,102.5390625,-36.62109375,77.1484375
35.15625,21.484375,-39.55078125,86.42578125
-41.015625,-104.00390625,-48.33984375,-1.953125
-190.4296875,-258.30078125,-57.6171875,-260.25390625
-146.97265625,-36.1328125,-62.01171875,-213.37890625
19.53125,121.58203125,-44.43359375,70.80078125
34.1796875,22.94921875,-38.0859375,104.4921875
-16.11328125,-92.7734375,-40.52734375,39.0625
-160.15625,-270.5078125,-56.15234375,-218.26171875
-161.62109375,-103.02734375,-62.5,-247.0703125
18.5546875,104.4921875,-53.22265625,53.22265625
67.3828125,47.8515625,-48.33984375,97.16796875
11.23046875,-45.8984375,-41.015625,48.33984375
-148.4375,-230.95703125,-55.17578125,-182.6171875
-171.38671875,-111.328125,-63.4765625,-274.90234375
11.71875,103.02734375,-51.26953125,22.4609375
57.12890625,46.875,-45.41015625,101.07421875
19.04296875,-12.6953125,-43.45703125,68.84765625
-113.76953125,-221.19140625,-48.33984375,-142.578125
-185.546875,-180.6640625,-58.59375,-299.8046875
-10.25390625,95.21484375,-48.828125,-21.484375
56.640625,68.359375,-37.59765625,99.609375
28.3203125,0.9765625,-40.52734375,93.75
-98.14453125,-182.12890625,-56.15234375,-99.609375
-207.51953125,-183.59375,-65.91796875,-305.17578125
-38.57421875,100.5859375,-47.8515625,-34.1796875
46.875,94.7265625,-41.015625,99.12109375
22.94921875,14.6484375,-40.0390625,81.54296875
-75.68359375,-161.1328125,-43.45703125,-64.94140625
-201.171875,-212.40234375,-58.59375,-299.31640625
-64.94140625,68.359375,-51.26953125,-69.3359375
61.5234375,78.125,-37.59765625,126.46484375
39.55078125,4.8828125,-26.3671875,110.3515625
-59.08203125,-135.7421875,-39.0625,-30.76171875
-184.5703125,-232.421875,-63.4765625,-288.0859375
-77.1484375,37.59765625,-56.15234375,-115.72265625
49.8046875,102.05078125,-46.875,103.02734375
41.9921875,19.53125,-41.015625,93.75
-23.92578125,-113.28125,-44.43359375,-14.16015625
-168.9453125,-250.48828125,-71.77734375,-282.71484375
-102.5390625,-11.23046875,-69.3359375,-172.36328125
41.50390625,121.58203125,-37.59765625,82.51953125
31.25,25.87890625,-31.73828125,81.54296875
-42.96875,-112.3046875,-41.9921875,-13.18359375
-179.19921875,-253.41796875,-55.17578125,-270.01953125
-133.30078125,-43.9453125,-55.17578125,-208.49609375
33.203125,114.74609375,-38.0859375,57.6171875
46.38671875,27.34375,-36.62109375,85.44921875
-11.23046875,-89.35546875,-37.109375,37.109375
-149.90234375,-250.9765625,-44.43359375,-211.9140625
-150.87890625,-75.1953125,-46.875,-218.26171875
17.08984375,110.3515625,-38.0859375,64.453125
43.45703125,47.36328125,-36.62109375,107.91015625
12.20703125,-25.87890625,-37.109375,62.5
-121.09375,-235.83984375,-54.19921875,-186.03515625
-166.50390625,-134.765625,-62.5,-265.625
3.41796875,99.12109375,-39.55078125,23.4375
36.62109375,43.45703125,-36.62109375,91.796875
2.9296875,-31.73828125,-30.2734375,76.66015625
-116.2109375,-216.30859375,-30.76171875,-135.25390625
-187.01171875,-155.2734375,-47.36328125,-273.92578125
-15.625,104.4921875,-35.15625,13.671875
51.26953125,61.5234375,-27.83203125,100.5859375
24.4140625,-7.8125,-29.78515625,78.125
-93.75,-186.5234375,-48.828125,-108.3984375
-185.546875,-181.15234375,-59.08203125,-295.8984375
-28.80859375,85.9375,-31.25,-32.2265625
58.10546875,68.359375,-18.06640625,99.609375
35.64453125,-4.39453125,-17.578125,85.9375
-70.80078125,-169.43359375,-27.34375,-72.265625
-186.03515625,-206.0546875,-49.8046875,-288.57421875
-53.22265625,80.078125,-47.36328125,-60.05859375
47.8515625,82.51953125,-36.62109375,94.7265625
24.4140625,8.7890625,-45.41015625,73.73046875
-65.91796875,-137.6953125,-48.33984375,-65.91796875
-196.77734375,-260.7421875,-54.19921875,-314.453125
-81.0546875,27.83203125,-50.29296875,-125.9765625
60.546875,124.51171875,-28.80859375,101.07421875
46.875,23.92578125,-21.97265625,113.76953125
-35.15625,-129.8828125,-34.1796875,0.0
-169.921875,-243.1640625,-46.38671875,-264.6484375
-95.21484375,17.578125,-42.96875,-125.9765625
62.5,120.1171875,-30.76171875,110.83984375
55.17578125,28.80859375,-25.390625,103.02734375
-35.15625,-104.98046875,-35.15625,21.97265625
-183.10546875,-258.7890625,-54.19921875,-241.2109375
-130.859375,-41.9921875,-50.29296875,-182.12890625
23.4375,92.28515625,-42.96875,64.453125
30.2734375,43.9453125,-45.8984375,90.8203125
-15.625,-69.3359375,-50.29296875,42.96875
-150.87890625,-271.484375,-56.640625,-218.75
-145.01953125,-99.12109375,-44.921875,-207.03125
14.6484375,86.42578125,-24.4140625,69.82421875
40.52734375,35.15625,-30.2734375,92.28515625
-8.7890625,-65.91796875,-42.48046875,36.1328125
-146.484375,-249.51171875,-61.5234375,-207.51953125
-167.96875,-118.1640625,-62.98828125,-260.7421875
8.30078125,97.65625,-41.50390625,37.59765625
58.59375,43.9453125,-37.109375,102.5390625
19.53125,-49.31640625,-37.59765625,72.265625
-113.76953125,-221.19140625,-49.8046875,-150.87890625
-168.9453125,-116.2109375,-61.5234375,-272.4609375
-6.8359375,100.5859375,-46.38671875,20.01953125
63.4765625,65.91796875,-39.55078125,105.95703125
25.390625,-0.9765625,-40.52734375,72.75390625
-112.79296875,-203.125,-58.10546875,-123.046875
-203.125,-160.64453125,-82.51953125,-304.6875
-34.66796875,107.421875,-71.2890625,-26.85546875
55.17578125,82.03125,-59.08203125,109.86328125
21.97265625,11.23046875,-52.734375,78.61328125
-91.30859375,-165.0390625,-63.4765625,-91.30859375
-208.0078125,-191.40625,-80.078125,-308.59375
-60.05859375,79.58984375,-64.94140625,-75.1953125
54.6875,91.796875,-44.921875,78.61328125
23.92578125,17.08984375,-41.015625,63.4765625
-73.2421875,-168.45703125,-47.8515625,-66.40625
-185.05859375,-217.28515625,-60.546875,-298.828125
-73.73046875,64.94140625,-52.734375,-105.46875
46.875,98.14453125,-38.0859375,80.56640625
34.1796875,24.4140625,-41.50390625,76.171875
-55.17578125,-144.53125,-51.7578125,-34.66796875
-187.5,-253.41796875,-62.98828125,-291.50390625
-104.98046875,22.4609375,-60.546875,-140.625
36.1328125,106.93359375,-43.9453125,93.75
31.73828125,19.04296875,-39.55078125,95.703125
-41.50390625,-92.28515625,-47.36328125,4.8828125
-187.98828125,-257.32421875,-59.08203125,-266.6015625
-133.30078125,-38.0859375,-47.8515625,-184.08203125
32.71484375,108.88671875,-33.69140625,75.68359375
46.38671875,31.25,-29.296875,84.9609375
-9.765625,-81.0546875,-29.296875,32.2265625
-161.1328125,-243.65234375,-49.31640625,-215.33203125
-160.15625,-64.453125,-51.26953125,-203.61328125
14.6484375,108.3984375,-31.25,60.546875
41.9921875,42.96875,-29.296875,84.47265625
-8.7890625,-76.171875,-32.2265625,55.6640625
-149.4140625,-261.71875,-48.33984375,-181.640625
-166.015625,-88.37890625,-60.05859375,-228.515625
8.30078125,109.375,-47.36328125,54.19921875
43.9453125,22.94921875,-41.9921875,101.07421875
11.71875,-47.36328125,-32.71484375,67.87109375
-122.0703125,-234.375,-41.50390625,-165.52734375
-171.38671875,-125.9765625,-60.05859375,-274.90234375
5.37109375,120.1171875,-44.921875,20.5078125
58.10546875,49.8046875,-33.69140625,95.21484375
19.53125,-29.78515625,-45.41015625,72.75390625
-100.5859375,-204.1015625,-54.6875,-115.72265625
-177.734375,-169.43359375,-53.7109375,-283.203125
-23.92578125,103.02734375,-34.1796875,-16.11328125
45.8984375,98.14453125,-23.92578125,89.35546875
4.39453125,0.0,-32.2265625,83.49609375
-109.86328125,-203.125,-46.38671875,-90.8203125
-202.63671875,-199.21875,-61.03515625,-321.77734375
-53.7109375,95.21484375,-50.29296875,-62.01171875
46.875,85.9375,-41.50390625,95.21484375
27.83203125,8.7890625,-40.0390625,78.125
-70.80078125,-156.73828125,-53.22265625,-69.3359375
-199.70703125,-225.5859375,-77.63671875,-306.15234375
-71.2890625,78.125,-64.94140625,-95.21484375
53.22265625,96.6796875,-46.38671875,85.9375
29.78515625,18.06640625,-46.38671875,82.51953125
-48.33984375,-105.95703125,-44.43359375,-22.94921875
-183.10546875,-260.25390625,-51.26953125,-280.76171875
-88.37890625,18.06640625,-44.921875,-128.41796875
62.01171875,132.32421875,-32.71484375,96.19140625
47.36328125,22.4609375,-38.57421875,92.28515625
-43.45703125,-120.60546875,-45.41015625,-8.7890625
-178.22265625,-258.30078125,-55.17578125,-271.97265625
-104.4921875,2.9296875,-50.78125,-166.9921875
46.38671875,119.62890625,-37.59765625,86.42578125
41.9921875,24.4140625,-35.15625,95.703125
-19.53125,-101.5625,-39.55078125,22.4609375
-161.1328125,-268.06640625,-54.19921875,-235.83984375
-136.23046875,-41.015625,-56.15234375,-194.82421875
31.25,113.76953125,-35.15625,80.078125
40.0390625,19.04296875,-32.2265625,93.75
-24.90234375,-93.26171875,-42.48046875,31.25
-162.109375,-271.97265625,-52.24609375,-200.68359375
-157.2265625,-79.1015625,-57.12890625,-230.46875
12.6953125,129.39453125,-41.9921875,48.33984375
37.59765625,19.04296875,-38.0859375,102.05078125
-2.44140625,-63.96484375,-44.43359375,64.94140625
-129.8828125,-229.98046875,-55.17578125,-166.9921875
-175.29296875,-123.53515625,-62.01171875,-264.6484375
-11.71875,125.0,-47.36328125,17.08984375
40.52734375,73.2421875,-44.43359375,84.9609375
7.8125,-36.62109375,-41.015625,61.5234375
-109.375,-226.07421875,-44.43359375,-132.32421875
-182.12890625,-160.15625,-54.19921875,-271.484375
-21.97265625,103.02734375,-42.48046875,5.37109375
49.31640625,62.98828125,-32.2265625,104.00390625
22.4609375,-16.6015625,-34.1796875,89.35546875
-89.84375,-202.63671875,-51.7578125,-84.9609375
-192.87109375,-190.91796875,-67.3828125,-287.109375
-32.71484375,117.1875,-51.7578125,-38.0859375
55.17578125,72.75390625,-39.55078125,86.9140625
30.2734375,-3.90625,-39.55078125,73.73046875
-62.98828125,-140.625,-51.7578125,-69.82421875
-195.3125,-219.7265625,-66.40625,-302.24609375
-71.2890625,61.03515625,-57.12890625,-85.44921875
51.26953125,106.4453125,-41.015625,101.07421875
37.59765625,18.06640625,-40.52734375,84.47265625
-41.9921875,-144.04296875,-46.875,-44.921875
-182.12890625,-248.53515625,-59.08203125,-299.8046875
-91.30859375,37.59765625,-54.19921875,-128.41796875
43.45703125,104.00390625,-44.921875,84.9609375
18.06640625,8.30078125,-39.55078125,72.75390625
