TP9,AF7,AF8,TP10
-54.6875,-63.96484375,-60.05859375,-49.8046875
-47.8515625,-106.93359375,-73.73046875,-45.41015625
-11.71875,-64.453125,-52.24609375,-32.2265625
-15.13671875,0.0,-31.25,-47.8515625
-50.78125,1.953125,-40.0390625,-66.40625
-72.265625,-47.8515625,-59.5703125,-69.82421875
-69.3359375,-88.8671875,-72.265625,-66.40625
-35.64453125,-66.40625,-55.17578125,-48.33984375
-20.01953125,-4.8828125,-37.109375,-45.41015625
-36.62109375,0.9765625,-35.15625,-51.7578125
-53.7109375,-61.03515625,-54.19921875,-50.29296875
-70.80078125,-106.4453125,-70.3125,-61.03515625
-65.4296875,-83.984375,-62.5,-62.5
-43.45703125,-16.11328125,-41.015625,-49.8046875
-52.24609375,8.7890625,-39.55078125,-53.22265625
-76.171875,-47.36328125,-58.10546875,-63.4765625
-78.61328125,-95.703125,-63.4765625,-61.03515625
-60.05859375,-75.1953125,-56.640625,-47.8515625
-43.45703125,-12.20703125,-46.38671875,-42.96875
-50.78125,17.08984375,-40.0390625,-54.6875
-77.63671875,-29.296875,-45.41015625,-64.453125
-86.9140625,-87.890625,-57.6171875,-60.05859375
-58.10546875,-85.44921875,-62.01171875,-47.8515625
-25.87890625,-26.85546875,-46.875,-35.64453125
-26.3671875,0.0,-34.66796875,-38.0859375
-51.7578125,-32.2265625,-43.9453125,-50.29296875
-68.359375,-75.1953125,-61.03515625,-55.17578125
-53.7109375,-87.890625,-60.546875,-50.29296875
-30.76171875,-31.25,-38.0859375,-41.9921875
-35.64453125,17.08984375,-32.2265625,-47.36328125
-63.4765625,-17.08984375,-46.875,-58.59375
-80.078125,-84.47265625,-63.4765625,-59.5703125
-79.58984375,-107.91015625,-66.40625,-48.828125
-55.6640625,-44.43359375,-44.43359375,-31.25
-49.31640625,4.8828125,-40.0390625,-38.57421875
-69.3359375,-19.53125,-52.24609375,-55.17578125
-77.63671875,-68.359375,-56.15234375,-53.22265625
-68.359375,-99.12109375,-55.17578125,-45.41015625
-28.80859375,-52.24609375,-36.1328125,-32.71484375
-28.80859375,2.9296875,-27.34375,-36.62109375
-53.7109375,-15.13671875,-34.66796875,-55.17578125
-62.5,-74.21875,-50.78125,-54.19921875
-55.6640625,-101.07421875,-62.01171875,-47.36328125
-20.01953125,-49.8046875,-43.45703125,-34.66796875
-15.625,14.16015625,-29.78515625,-30.2734375
-42.48046875,3.41796875,-40.52734375,-44.921875
-62.5,-60.546875,-56.640625,-52.734375
-67.3828125,-106.93359375,-62.98828125,-47.36328125
-41.015625,-66.89453125,-52.24609375,-37.59765625
-10.25390625,4.39453125,-36.1328125,-36.1328125
-24.90234375,12.20703125,-38.57421875,-46.875
-64.94140625,-47.8515625,-61.03515625,-57.6171875
-75.1953125,-97.16796875,-69.3359375,-50.78125
-54.6875,-70.3125,-51.7578125,-39.0625
-41.50390625,-5.37109375,-28.3203125,-34.1796875
-55.17578125,6.34765625,-29.296875,-41.50390625
-79.1015625,-44.921875,-51.26953125,-53.7109375
-80.078125,-96.19140625,-66.40625,-52.734375
-49.31640625,-83.49609375,-56.15234375,-36.62109375
-19.04296875,-9.27734375,-31.25,-22.94921875
-27.34375,18.06640625,-26.85546875,-33.203125
-56.640625,-40.0390625,-47.8515625,-52.734375
-61.5234375,-100.09765625,-68.359375,-56.640625
-25.87890625,-89.35546875,-60.546875,-40.52734375
8.30078125,-20.5078125,-29.78515625,-23.92578125
-4.39453125,14.6484375,-22.94921875,-34.1796875
-35.64453125,-27.83203125,-41.9921875,-51.7578125
-52.734375,-88.8671875,-58.10546875,-50.78125
-49.8046875,-96.19140625,-57.6171875,-44.43359375
-37.109375,-33.69140625,-36.62109375,-39.55078125
-46.875,9.27734375,-26.3671875,-44.921875
-64.94140625,-26.3671875,-43.9453125,-61.5234375
-78.125,-84.47265625,-64.453125,-65.4296875
-69.3359375,-99.12109375,-66.40625,-54.6875
-36.1328125,-41.9921875,-48.33984375,-42.48046875
-26.3671875,9.27734375,-31.25,-40.52734375
-54.6875,-11.23046875,-35.64453125,-47.8515625
-73.73046875,-67.3828125,-53.7109375,-49.31640625
-59.5703125,-99.12109375,-62.98828125,-42.48046875
-31.73828125,-45.8984375,-44.921875,-31.73828125
-22.94921875,12.20703125,-25.390625,-28.80859375
-43.45703125,-15.625,-34.1796875,-40.52734375
-61.03515625,-75.68359375,-54.6875,-47.36328125
-46.875,-100.09765625,-56.640625,-41.015625
-21.97265625,-62.98828125,-42.48046875,-44.43359375
-21.97265625,-10.7421875,-28.80859375,-52.24609375
-41.015625,-6.34765625,-23.4375,-57.12890625
-66.89453125,-56.640625,-45.8984375,-65.91796875
-66.40625,-90.33203125,-62.98828125,-61.03515625
-21.97265625,-41.50390625,-51.26953125,-50.78125
-0.9765625,16.6015625,-38.57421875,-58.10546875
-27.34375,10.7421875,-44.921875,-67.3828125
-62.98828125,-49.31640625,-57.12890625,-64.94140625
-71.77734375,-96.19140625,-62.5,-51.26953125
-52.24609375,-69.3359375,-54.19921875,-34.1796875
-38.0859375,-7.32421875,-35.15625,-27.83203125
-58.10546875,0.9765625,-33.69140625,-38.57421875
-98.14453125,-54.19921875,-52.734375,-49.31640625
-104.00390625,-93.26171875,-63.4765625,-38.0859375
-75.1953125,-79.58984375,-55.17578125,-31.73828125
-44.921875,-20.01953125,-31.73828125,-32.71484375
-45.8984375,10.25390625,-22.4609375,-37.59765625
-70.80078125,-43.45703125,-42.48046875,-46.38671875
-78.61328125,-98.6328125,-61.03515625,-51.7578125
-61.5234375,-87.40234375,-59.5703125,-54.6875
-30.2734375,-17.578125,-36.62109375,-42.48046875
-38.0859375,14.16015625,-31.25,-54.6875
-64.94140625,-30.76171875,-42.96875,-69.82421875
-62.01171875,-82.51953125,-55.6640625,-62.5
-41.50390625,-86.9140625,-60.546875,-53.7109375
-13.671875,-25.390625,-39.55078125,-45.8984375
-13.671875,21.484375,-24.4140625,-41.9921875
-50.29296875,-21.97265625,-41.50390625,-51.7578125
-72.265625,-85.9375,-59.08203125,-57.12890625
-64.94140625,-89.84375,-54.6875,-40.52734375
-41.015625,-25.390625,-36.1328125,-30.2734375
-38.0859375,14.6484375,-23.92578125,-37.59765625
-62.5,-21.484375,-35.64453125,-55.6640625
-76.171875,-79.58984375,-58.59375,-64.94140625
-74.70703125,-113.76953125,-70.80078125,-58.59375
-39.0625,-53.7109375,-47.8515625,-44.921875
-26.85546875,11.23046875,-29.78515625,-51.7578125
-61.5234375,-13.18359375,-40.52734375,-69.82421875
-83.49609375,-71.2890625,-56.15234375,-71.77734375
-72.75390625,-99.609375,-62.01171875,-58.10546875
-39.55078125,-41.9921875,-44.921875,-47.8515625
-44.921875,12.6953125,-43.9453125,-79.1015625
-68.84765625,-6.8359375,-67.87109375,-104.00390625
-66.89453125,-61.03515625,-77.63671875,-83.49609375
-87.40234375,-103.515625,-73.2421875,-91.30859375
-87.890625,-70.80078125,-62.01171875,-107.91015625
-74.70703125,-5.859375,-45.41015625,-98.6328125
-104.00390625,-2.44140625,-41.50390625,-113.76953125
-155.2734375,-79.1015625,-62.5,-144.04296875
-167.96875,-133.30078125,-74.70703125,-143.06640625
-140.625,-98.6328125,-56.15234375,-139.16015625
-140.625,-38.57421875,-31.73828125,-155.76171875
-169.921875,-33.69140625,-30.2734375,-173.828125
-195.3125,-104.98046875,-46.38671875,-174.8046875
-187.98828125,-158.69140625,-48.828125,-159.1796875
-160.15625,-125.0,-26.3671875,-146.97265625
-141.6015625,-56.640625,-9.27734375,-142.578125
-149.90234375,-35.15625,-4.39453125,-143.06640625
-178.7109375,-88.37890625,-13.18359375,-140.13671875
-188.4765625,-154.296875,-26.3671875,-133.7890625
-163.0859375,-148.4375,-17.578125,-119.62890625
-125.9765625,-74.21875,8.30078125,-100.09765625
-117.67578125,-40.0390625,11.71875,-96.19140625
-150.390625,-98.6328125,-10.7421875,-112.79296875
-158.203125,-156.73828125,-23.4375,-105.46875
-117.1875,-152.34375,-12.20703125,-73.2421875
-83.984375,-84.47265625,10.25390625,-71.77734375
-82.51953125,-44.43359375,14.16015625,-83.0078125
-98.6328125,-96.19140625,-0.9765625,-69.82421875
-106.93359375,-163.57421875,-15.13671875,-58.10546875
-89.35546875,-168.45703125,-10.25390625,-47.36328125
-53.7109375,-91.796875,4.8828125,-46.38671875
-43.9453125,-33.203125,12.6953125,-52.24609375
-78.61328125,-64.94140625,0.0,-52.734375
-101.07421875,-137.20703125,-18.5546875,-44.43359375
-85.9375,-161.1328125,-20.99609375,-31.25
-50.29296875,-84.9609375,-8.30078125,-36.1328125
-19.04296875,-18.06640625,-2.44140625,-27.83203125
-34.66796875,-40.0390625,-11.71875,-17.578125
-71.2890625,-115.72265625,-31.25,-29.296875
-66.40625,-157.71484375,-40.52734375,-7.32421875
-9.765625,-90.8203125,-17.08984375,22.4609375
18.06640625,-11.23046875,1.46484375,13.671875
1.46484375,-17.08984375,-10.25390625,8.30078125
-15.625,-90.8203125,-30.2734375,11.71875
-23.4375,-145.01953125,-35.15625,19.53125
24.4140625,-85.9375,-23.92578125,29.78515625
67.3828125,5.37109375,-20.5078125,29.78515625
43.45703125,9.765625,-24.4140625,23.92578125
4.8828125,-66.89453125,-36.1328125,25.87890625
0.9765625,-132.32421875,-47.8515625,43.45703125
38.57421875,-90.8203125,-44.43359375,43.45703125
61.03515625,1.953125,-37.109375,17.08984375
52.734375,15.625,-39.0625,14.16015625
7.32421875,-66.89453125,-52.734375,23.4375
-27.34375,-128.41796875,-63.4765625,30.2734375
10.7421875,-82.51953125,-56.15234375,39.0625
59.5703125,9.27734375,-41.50390625,31.25
54.19921875,38.57421875,-42.48046875,11.23046875
-1.953125,-26.3671875,-57.12890625,11.23046875
-31.25,-96.6796875,-62.98828125,30.2734375
3.41796875,-76.66015625,-56.640625,35.64453125
57.6171875,12.6953125,-44.921875,19.04296875
54.19921875,47.8515625,-46.38671875,-7.8125
-7.8125,-20.5078125,-61.03515625,-10.25390625
-33.69140625,-93.26171875,-65.91796875,11.23046875
-9.765625,-90.8203125,-60.05859375,13.671875
44.43359375,0.48828125,-45.41015625,5.37109375
50.78125,55.6640625,-46.875,-13.18359375
-15.13671875,-1.46484375,-63.96484375,-29.296875
-55.17578125,-84.47265625,-77.1484375,-14.6484375
-37.109375,-96.19140625,-72.75390625,-0.9765625
20.5078125,-5.859375,-60.05859375,-16.11328125
39.0625,55.17578125,-55.6640625,-32.71484375
-13.671875,0.9765625,-62.01171875,-32.2265625
-57.6171875,-81.54296875,-68.84765625,-10.25390625
-44.43359375,-102.5390625,-65.91796875,7.32421875
14.6484375,-18.06640625,-57.12890625,-7.32421875
41.015625,58.59375,-51.26953125,-25.390625
-2.9296875,18.5546875,-60.546875,-35.15625
-50.29296875,-76.171875,-69.82421875,-24.90234375
-53.22265625,-112.79296875,-67.3828125,-8.30078125
7.8125,-28.3203125,-54.6875,-12.6953125
44.921875,56.640625,-46.875,-29.296875
2.9296875,36.1328125,-51.7578125,-40.52734375
-59.5703125,-57.6171875,-65.4296875,-33.203125
-79.58984375,-116.69921875,-69.82421875,-14.16015625
-10.7421875,-49.8046875,-57.6171875,-23.4375
42.96875,42.48046875,-48.33984375,-44.921875
6.34765625,33.203125,-55.17578125,-49.31640625
-60.546875,-62.5,-69.82421875,-36.1328125
-75.68359375,-121.58203125,-69.82421875,-11.71875
-7.8125,-57.6171875,-56.15234375,-11.71875
46.38671875,38.0859375,-46.38671875,-29.78515625
22.94921875,46.875,-45.41015625,-35.64453125
-47.36328125,-46.38671875,-50.78125,-23.4375
-81.54296875,-120.1171875,-57.6171875,0.9765625
-29.296875,-79.58984375,-55.17578125,2.9296875
27.34375,15.13671875,-46.38671875,-18.5546875
22.94921875,48.828125,-43.9453125,-32.2265625
-46.875,-37.109375,-56.640625,-43.9453125
-93.26171875,-119.62890625,-60.05859375,-33.203125
-43.45703125,-86.42578125,-50.29296875,-20.5078125
27.34375,18.5546875,-42.96875,-35.64453125
29.78515625,66.89453125,-46.875,-43.9453125
-25.87890625,-10.25390625,-61.03515625,-35.15625
-74.70703125,-108.3984375,-64.94140625,-24.90234375
-65.4296875,-103.515625,-55.17578125,-39.0625
11.23046875,8.7890625,-44.921875,-51.7578125
37.109375,67.87109375,-44.921875,-52.24609375
-36.1328125,-13.671875,-58.10546875,-49.8046875
-100.09765625,-114.2578125,-60.05859375,-44.43359375
-79.58984375,-125.0,-55.17578125,-40.0390625
10.7421875,-21.484375,-45.8984375,-44.921875
36.62109375,54.6875,-41.9921875,-65.4296875
-40.0390625,-4.39453125,-51.7578125,-65.91796875
-98.14453125,-102.5390625,-58.10546875,-39.0625
-82.03125,-131.8359375,-54.6875,-14.16015625
1.953125,-31.73828125,-41.50390625,-16.11328125
41.9921875,57.6171875,-38.0859375,-37.59765625
-21.97265625,13.18359375,-46.38671875,-43.45703125
-87.40234375,-89.35546875,-55.17578125,-30.76171875
-96.19140625,-141.6015625,-58.10546875,-36.1328125
-16.6015625,-52.24609375,-52.734375,-51.26953125
32.71484375,44.43359375,-48.828125,-71.77734375
-23.92578125,12.6953125,-51.7578125,-83.0078125
-100.09765625,-86.9140625,-61.5234375,-60.546875
-122.0703125,-145.5078125,-64.453125,-43.45703125
-40.52734375,-64.453125,-53.7109375,-49.31640625
24.4140625,42.48046875,-39.55078125,-59.08203125
-12.6953125,27.83203125,-39.55078125,-51.26953125
-85.44921875,-75.68359375,-49.8046875,-35.15625
-114.74609375,-144.53125,-50.78125,-21.97265625
-32.2265625,-79.58984375,-43.45703125,-25.87890625
45.41015625,32.71484375,-39.0625,-43.45703125
15.625,46.875,-43.45703125,-48.33984375
-73.73046875,-55.6640625,-49.8046875,-36.62109375
-113.28125,-139.16015625,-50.78125,-12.6953125
-41.9921875,-78.61328125,-40.52734375,-14.6484375
29.296875,36.62109375,-26.85546875,-38.0859375
17.08984375,62.01171875,-31.73828125,-51.26953125
-64.453125,-37.109375,-45.41015625,-43.45703125
-114.2578125,-133.30078125,-50.78125,-25.390625
-58.10546875,-93.75,-41.9921875,-27.83203125
28.80859375,24.4140625,-29.296875,-38.57421875
33.69140625,64.94140625,-29.78515625,-48.33984375
-60.05859375,-32.2265625,-39.0625,-45.41015625
-126.953125,-126.953125,-44.921875,-22.4609375
-75.1953125,-105.46875,-43.45703125,-25.390625
21.484375,12.20703125,-31.25,-44.921875
36.1328125,74.70703125,-27.34375,-53.22265625
-50.78125,-3.41796875,-38.57421875,-54.6875
-123.046875,-116.2109375,-54.6875,-48.828125
-92.7734375,-122.0703125,-56.15234375,-45.41015625
-2.9296875,-5.37109375,-45.41015625,-58.59375
30.76171875,62.01171875,-46.875,-72.75390625
-49.8046875,-12.20703125,-58.59375,-74.70703125
-125.0,-117.1875,-56.640625,-52.734375
-103.02734375,-135.7421875,-53.7109375,-41.9921875
-6.8359375,-24.90234375,-47.8515625,-53.7109375
39.55078125,67.3828125,-40.52734375,-60.05859375
-30.2734375,11.23046875,-50.78125,-58.59375
-114.2578125,-101.5625,-63.4765625,-47.8515625
-125.9765625,-141.11328125,-62.5,-31.25
-30.76171875,-41.9921875,-57.12890625,-44.921875
26.85546875,56.640625,-53.7109375,-65.91796875
-37.59765625,19.53125,-56.640625,-66.89453125
-110.3515625,-91.30859375,-62.01171875,-60.05859375
-125.48828125,-146.484375,-58.10546875,-45.41015625
-25.87890625,-43.9453125,-45.41015625,-43.45703125
46.875,60.546875,-43.9453125,-49.31640625
-12.20703125,25.87890625,-49.31640625,-46.38671875
-104.98046875,-89.84375,-52.734375,-35.15625
-137.20703125,-165.0390625,-57.6171875,-21.484375
-47.8515625,-83.984375,-52.24609375,-33.203125
26.3671875,36.62109375,-44.43359375,-62.01171875
-11.71875,39.0625,-47.8515625,-67.87109375
-105.95703125,-65.91796875,-58.10546875,-52.734375
-153.3203125,-152.83203125,-62.98828125,-41.015625
-70.80078125,-87.40234375,-55.17578125,-49.31640625
13.18359375,38.0859375,-48.828125,-75.68359375
-10.25390625,46.38671875,-53.22265625,-87.40234375
-109.86328125,-74.70703125,-61.5234375,-75.1953125
-166.50390625,-169.921875,-68.84765625,-56.640625
-81.0546875,-117.67578125,-54.6875,-34.66796875
20.5078125,4.39453125,-39.55078125,-47.8515625
12.20703125,46.38671875,-41.50390625,-66.89453125
-81.54296875,-53.22265625,-47.36328125,-61.5234375
-142.08984375,-158.203125,-55.6640625,-46.875
-87.890625,-126.46484375,-50.29296875,-30.2734375
12.6953125,0.0,-38.57421875,-41.50390625
24.90234375,52.24609375,-41.9921875,-61.03515625
-64.94140625,-30.76171875,-50.78125,-56.640625
-135.25390625,-140.625,-57.6171875,-54.19921875
-97.16796875,-143.06640625,-60.546875,-57.12890625
10.25390625,-14.6484375,-50.29296875,-63.96484375
42.48046875,59.5703125,-45.41015625,-79.58984375
-49.31640625,-18.5546875,-51.7578125,-72.75390625
-131.8359375,-125.48828125,-56.640625,-44.921875
-105.46875,-139.16015625,-55.17578125,-36.1328125
-0.9765625,-20.99609375,-51.7578125,-53.22265625
38.0859375,67.3828125,-51.26953125,-68.359375
-46.875,-3.41796875,-59.08203125,-67.3828125
-136.23046875,-118.1640625,-62.5,-56.15234375
-130.37109375,-146.484375,-58.10546875,-43.9453125
-18.5546875,-38.57421875,-51.7578125,-51.7578125
37.59765625,61.03515625,-47.36328125,-72.265625
-36.1328125,17.578125,-48.828125,-66.40625
-124.0234375,-104.98046875,-59.08203125,-52.734375
-136.71875,-160.15625,-58.59375,-50.78125
-34.1796875,-54.19921875,-45.41015625,-60.546875
31.73828125,51.7578125,-42.96875,-79.1015625
-36.1328125,14.16015625,-48.33984375,-81.0546875
-138.18359375,-104.98046875,-55.17578125,-60.05859375
-167.48046875,-174.8046875,-61.5234375,-40.52734375
-68.84765625,-78.125,-55.6640625,-50.29296875
3.41796875,44.43359375,-46.38671875,-81.54296875
-43.9453125,28.3203125,-57.6171875,-98.14453125
-140.13671875,-92.28515625,-71.77734375,-73.2421875
-180.6640625,-174.31640625,-66.40625,-52.734375
-86.9140625,-101.5625,-59.08203125,-72.75390625
6.8359375,22.94921875,-53.7109375,-98.14453125
-18.5546875,37.109375,-52.734375,-101.07421875
-117.1875,-74.70703125,-58.59375,-82.03125
-171.38671875,-169.921875,-64.453125,-59.08203125
-89.84375,-109.86328125,-61.5234375,-56.15234375
10.7421875,21.97265625,-48.828125,-71.2890625
-2.44140625,51.7578125,-48.828125,-83.49609375
-105.95703125,-57.6171875,-58.10546875,-58.59375
-159.66796875,-156.25,-62.01171875,-21.97265625
-87.890625,-116.69921875,-52.24609375,-18.5546875
21.97265625,8.7890625,-34.1796875,-38.57421875
33.69140625,53.22265625,-37.59765625,-68.359375
-61.5234375,-45.41015625,-45.41015625,-47.8515625
-126.46484375,-140.625,-45.41015625,-12.20703125
-93.75,-119.62890625,-49.8046875,-31.73828125
12.6953125,13.18359375,-46.875,-48.828125
46.875,88.37890625,-39.55078125,-64.94140625
-41.015625,-6.8359375,-49.31640625,-70.3125
-116.2109375,-124.51171875,-64.94140625,-40.52734375
-93.75,-124.0234375,-62.01171875,-37.109375
16.11328125,-0.9765625,-51.7578125,-55.6640625
61.03515625,81.54296875,-51.7578125,-66.40625
-22.94921875,6.8359375,-58.10546875,-57.12890625
-108.3984375,-115.72265625,-64.453125,-30.2734375
-98.14453125,-138.18359375,-65.91796875,-15.13671875
17.578125,-13.18359375,-56.640625,-22.4609375
74.70703125,85.9375,-49.8046875,-41.015625
-12.20703125,26.3671875,-58.10546875,-50.29296875
-100.09765625,-90.33203125,-60.05859375,-40.0390625
-114.74609375,-145.5078125,-61.5234375,-36.1328125
-6.34765625,-36.62109375,-52.24609375,-58.59375
66.89453125,82.51953125,-41.50390625,-76.66015625
-11.23046875,33.69140625,-49.31640625,-72.265625
-112.79296875,-98.6328125,-57.6171875,-50.29296875
-142.578125,-168.9453125,-63.4765625,-30.2734375
-29.296875,-62.5,-51.26953125,-32.71484375
62.5,62.98828125,-37.59765625,-54.19921875
7.32421875,33.203125,-41.9921875,-56.15234375
-105.46875,-95.21484375,-50.29296875,-33.69140625
-138.671875,-170.8984375,-50.29296875,-9.27734375
-32.71484375,-77.1484375,-44.43359375,-17.08984375
55.6640625,61.5234375,-38.0859375,-41.50390625
28.3203125,64.94140625,-36.62109375,-46.875
-77.63671875,-60.05859375,-45.8984375,-30.2734375
-131.34765625,-153.3203125,-53.7109375,-6.8359375
-33.203125,-84.9609375,-52.24609375,-17.08984375
69.3359375,50.78125,-41.9921875,-35.15625
47.36328125,77.63671875,-41.015625,-44.43359375
-69.82421875,-43.45703125,-53.22265625,-41.50390625
-139.16015625,-155.2734375,-56.15234375,-20.5078125
-65.91796875,-105.95703125,-55.6640625,-29.296875
39.55078125,32.71484375,-50.78125,-49.8046875
41.015625,81.0546875,-47.8515625,-55.17578125
-71.77734375,-33.203125,-63.4765625,-46.38671875
-150.390625,-154.296875,-65.91796875,-23.92578125
-87.890625,-113.28125,-53.22265625,-13.18359375
21.97265625,23.4375,-42.48046875,-37.109375
37.59765625,71.77734375,-46.875,-60.546875
-46.875,-23.92578125,-59.5703125,-42.96875
-127.44140625,-140.625,-56.15234375,-24.90234375
-113.28125,-148.4375,-44.921875,-46.38671875
-3.41796875,-14.16015625,-37.109375,-63.4765625
34.1796875,71.77734375,-33.203125,-68.84765625
-66.89453125,-21.97265625,-38.57421875,-65.4296875
-145.5078125,-147.4609375,-47.36328125,-36.62109375
-124.0234375,-162.109375,-45.8984375,-26.85546875
-6.34765625,-28.80859375,-41.015625,-49.8046875
50.29296875,72.75390625,-40.0390625,-66.89453125
-38.57421875,4.39453125,-42.96875,-60.05859375
-126.953125,-122.0703125,-46.875,-38.57421875
-129.39453125,-166.015625,-48.33984375,-22.4609375
-14.16015625,-45.41015625,-41.9921875,-38.57421875
62.01171875,71.77734375,-33.69140625,-62.5
-16.6015625,21.97265625,-42.96875,-60.05859375
-124.0234375,-111.81640625,-51.26953125,-34.1796875
-146.97265625,-172.36328125,-47.8515625,-16.11328125
-25.390625,-53.7109375,-44.43359375,-28.3203125
63.4765625,68.359375,-38.57421875,-44.921875
0.0,33.203125,-42.48046875,-66.40625
-99.609375,-89.35546875,-51.7578125,-59.5703125
-133.30078125,-171.38671875,-57.12890625,-27.83203125
-24.4140625,-77.1484375,-47.8515625,-25.390625
80.56640625,62.01171875,-34.66796875,-37.59765625
31.73828125,49.31640625,-41.9921875,-38.57421875
-92.28515625,-88.37890625,-55.17578125,-32.2265625
-136.23046875,-177.24609375,-50.29296875,-31.73828125
-28.3203125,-85.9375,-39.55078125,-39.0625
69.82421875,49.31640625,-34.66796875,-55.6640625
37.59765625,58.59375,-36.62109375,-66.40625
-84.47265625,-69.3359375,-47.36328125,-45.8984375
-145.99609375,-166.9921875,-48.33984375,-20.5078125
-62.98828125,-100.09765625,-43.9453125,-25.390625
33.203125,30.76171875,-38.0859375,-45.41015625
21.484375,61.03515625,-35.64453125,-67.87109375
-92.28515625,-53.7109375,-44.921875,-64.453125
-164.0625,-161.1328125,-52.734375,-39.0625
-89.84375,-117.67578125,-48.828125,-53.7109375
26.3671875,27.83203125,-40.52734375,-82.51953125
34.66796875,84.47265625,-40.0390625,-93.26171875
-95.703125,-38.57421875,-51.7578125,-88.8671875
-180.6640625,-154.296875,-60.05859375,-62.98828125
-126.953125,-127.44140625,-55.17578125,-65.4296875
-19.04296875,4.8828125,-52.734375,-96.19140625
-7.32421875,76.171875,-61.03515625,-124.0234375
-131.8359375,-26.3671875,-73.73046875,-131.34765625
-229.4921875,-159.66796875,-77.1484375,-118.1640625
-188.96484375,-162.109375,-77.63671875,-108.3984375
-79.58984375,-23.4375,-73.73046875,-137.6953125
-60.546875,64.453125,-67.3828125,-176.7578125
-165.52734375,-18.5546875,-67.87109375,-174.8046875
-263.18359375,-148.4375,-69.3359375,-157.2265625
-254.39453125,-185.546875,-69.3359375,-150.390625
-131.34765625,-54.19921875,-55.17578125,-166.9921875
-63.96484375,58.10546875,-42.48046875,-186.5234375
-147.4609375,-11.71875,-51.26953125,-186.5234375
-242.67578125,-139.16015625,-60.546875,-171.875
-231.93359375,-178.7109375,-50.78125,-141.6015625
-97.16796875,-50.78125,-42.96875,-148.4375
-19.53125,67.87109375,-43.9453125,-170.8984375
-90.8203125,22.4609375,-46.38671875,-158.69140625
-197.265625,-105.46875,-51.7578125,-129.8828125
-225.09765625,-171.38671875,-43.9453125,-96.19140625
-104.98046875,-68.359375,-34.1796875,-106.93359375
-13.18359375,52.24609375,-34.1796875,-136.71875
-76.66015625,33.203125,-35.64453125,-134.27734375
-176.26953125,-99.12109375,-44.921875,-107.91015625
-198.2421875,-183.10546875,-44.921875,-78.61328125
-78.61328125,-80.56640625,-30.76171875,-74.21875
35.64453125,58.10546875,-32.71484375,-83.984375
5.859375,51.7578125,-40.52734375,-83.49609375
-105.95703125,-84.9609375,-41.9921875,-62.5
-149.4140625,-180.17578125,-43.45703125,-31.25
-46.875,-100.09765625,-37.109375,-28.80859375
65.91796875,37.59765625,-24.90234375,-45.8984375
60.05859375,57.6171875,-32.71484375,-50.78125
-62.01171875,-63.4765625,-46.38671875,-33.203125
-124.0234375,-165.52734375,-43.9453125,0.48828125
-33.203125,-104.00390625,-36.1328125,8.30078125
77.63671875,39.0625,-34.1796875,-11.23046875
82.51953125,85.44921875,-36.62109375,-22.94921875
-26.85546875,-38.57421875,-41.50390625,-10.25390625
-104.4921875,-166.50390625,-46.875,14.6484375
-41.9921875,-123.046875,-43.45703125,17.578125
78.125,26.85546875,-37.59765625,-9.765625
99.12109375,90.33203125,-40.52734375,-26.3671875
-5.859375,-13.18359375,-47.36328125,-10.25390625
-93.75,-140.13671875,-50.29296875,28.3203125
-52.734375,-136.23046875,-48.33984375,44.921875
79.58984375,10.7421875,-37.109375,16.6015625
115.234375,94.7265625,-41.015625,-9.765625
9.27734375,1.46484375,-48.828125,2.9296875
-73.73046875,-117.1875,-47.8515625,24.90234375
-53.22265625,-136.23046875,-45.41015625,26.85546875
64.94140625,-19.04296875,-43.45703125,1.953125
119.140625,80.56640625,-46.38671875,-17.578125
31.73828125,14.6484375,-41.50390625,-0.48828125
-68.84765625,-126.46484375,-41.50390625,30.2734375
-69.3359375,-160.64453125,-44.43359375,41.9921875
57.6171875,-23.4375,-40.0390625,18.5546875
127.9296875,88.8671875,-34.1796875,-10.7421875
38.0859375,29.78515625,-39.55078125,-12.20703125
-65.91796875,-102.05078125,-46.875,11.71875
-77.1484375,-156.25,-48.828125,26.3671875
39.0625,-32.71484375,-41.015625,8.7890625
111.328125,91.796875,-42.48046875,-22.4609375
34.1796875,49.31640625,-49.8046875,-31.25
-76.66015625,-83.49609375,-48.828125,-7.8125
-114.74609375,-162.59765625,-48.828125,10.7421875
-13.671875,-62.98828125,-45.41015625,-2.44140625
79.58984375,70.80078125,-39.0625,-26.3671875
27.34375,59.08203125,-37.59765625,-37.109375
-99.609375,-74.70703125,-49.8046875,-34.66796875
-153.3203125,-169.43359375,-56.640625,-15.13671875
-49.8046875,-88.8671875,-50.29296875,-15.625
53.22265625,48.828125,-43.9453125,-44.921875
33.69140625,69.3359375,-44.921875,-48.33984375
-89.84375,-64.94140625,-54.19921875,-26.85546875
-154.78515625,-178.7109375,-59.5703125,-10.25390625
-51.7578125,-107.91015625,-50.29296875,-9.765625
69.82421875,31.73828125,-38.0859375,-15.625
64.94140625,69.82421875,-37.59765625,-23.92578125
-68.84765625,-46.875,-47.36328125,-25.390625
-149.4140625,-160.64453125,-45.41015625,-1.953125
-65.91796875,-117.1875,-45.8984375,-4.8828125
54.6875,25.87890625,-49.8046875,-25.390625
70.80078125,85.44921875,-41.9921875,-38.57421875
-41.50390625,-26.85546875,-46.875,-33.69140625
-135.7421875,-150.390625,-55.6640625,-9.765625
-75.1953125,-127.44140625,-52.734375,-11.71875
57.6171875,17.08984375,-42.96875,-50.78125
82.51953125,91.796875,-39.0625,-69.3359375
-39.0625,-10.25390625,-51.26953125,-54.19921875
-144.53125,-141.11328125,-59.5703125,-24.4140625
-112.3046875,-143.06640625,-55.6640625,-11.71875
19.53125,-0.48828125,-43.45703125,-44.43359375
69.82421875,95.703125,-38.57421875,-76.171875
-34.66796875,12.20703125,-49.8046875,-65.91796875
-133.7890625,-118.1640625,-54.19921875,-32.2265625
-124.0234375,-153.80859375,-58.10546875,-17.578125
-7.32421875,-21.97265625,-53.22265625,-36.62109375
57.12890625,89.35546875,-45.8984375,-57.12890625
-28.80859375,18.06640625,-46.875,-48.33984375
-130.37109375,-113.28125,-51.26953125,-27.83203125
-143.06640625,-171.38671875,-61.03515625,-24.90234375
-16.11328125,-56.640625,-57.12890625,-44.921875
67.87109375,75.68359375,-49.8046875,-61.5234375
-18.5546875,32.2265625,-55.6640625,-59.5703125
-128.41796875,-104.98046875,-68.359375,-33.203125
-152.34375,-170.41015625,-64.94140625,-15.13671875
-30.2734375,-59.5703125,-48.828125,-32.71484375
62.01171875,67.87109375,-40.0390625,-60.05859375
3.90625,54.19921875,-39.0625,-61.03515625
-112.3046875,-73.2421875,-46.38671875,-37.59765625
-158.203125,-166.50390625,-50.78125,-24.90234375
-48.33984375,-79.58984375,-44.43359375,-37.109375
53.7109375,54.19921875,-39.55078125,-66.89453125
14.6484375,62.5,-40.52734375,-77.1484375
-99.609375,-63.4765625,-43.45703125,-51.26953125
-162.109375,-173.828125,-50.78125,-26.85546875
-73.2421875,-104.98046875,-51.7578125,-28.3203125
41.50390625,40.0390625,-44.921875,-51.26953125
22.4609375,64.94140625,-41.015625,-62.01171875
-91.796875,-65.4296875,-41.9921875,-31.73828125
-158.69140625,-171.875,-41.015625,-1.46484375
-84.47265625,-107.91015625,-42.48046875,-19.53125
27.83203125,32.2265625,-34.66796875,-55.17578125
40.52734375,83.49609375,-30.2734375,-66.40625
-71.2890625,-24.4140625,-43.45703125,-55.17578125
-155.76171875,-146.484375,-50.29296875,-20.99609375
-83.49609375,-122.0703125,-39.55078125,-1.46484375
32.71484375,18.06640625,-32.71484375,-29.296875
52.24609375,85.44921875,-34.66796875,-61.03515625
-50.78125,-13.18359375,-41.50390625,-65.91796875
-140.13671875,-141.11328125,-54.19921875,-49.31640625
-113.28125,-151.85546875,-61.03515625,-47.36328125
7.8125,-8.7890625,-56.640625,-77.63671875
54.6875,84.9609375,-45.41015625,-98.14453125
-55.17578125,-13.18359375,-49.31640625,-85.9375
-149.90234375,-142.578125,-54.6875,-58.59375
-129.39453125,-154.78515625,-50.29296875,-41.50390625
-6.8359375,-17.08984375,-45.8984375,-48.33984375
42.96875,79.58984375,-46.875,-70.80078125
-45.8984375,8.7890625,-51.7578125,-65.4296875
-129.39453125,-111.81640625,-47.8515625,-28.3203125
-129.8828125,-152.34375,-44.43359375,-16.6015625
-10.25390625,-27.83203125,-36.62109375,-37.59765625
64.453125,88.37890625,-35.15625,-56.640625
-16.11328125,35.64453125,-39.55078125,-56.640625
-117.67578125,-98.14453125,-47.36328125,-42.48046875
-136.23046875,-168.45703125,-53.7109375,-21.97265625
-14.16015625,-55.17578125,-44.43359375,-30.2734375
79.58984375,74.70703125,-38.0859375,-61.03515625
8.30078125,39.0625,-43.9453125,-70.3125
-102.05078125,-86.9140625,-41.50390625,-42.96875
-129.8828125,-163.0859375,-38.0859375,-10.7421875
-21.97265625,-70.3125,-38.0859375,-20.5078125
65.91796875,66.40625,-33.203125,-48.828125
12.20703125,61.5234375,-34.66796875,-53.7109375
-110.83984375,-76.66015625,-42.96875,-33.69140625
-157.71484375,-172.36328125,-45.8984375,-4.39453125
-53.22265625,-97.65625,-45.8984375,-7.32421875
40.52734375,33.203125,-43.9453125,-34.66796875
14.16015625,58.59375,-37.109375,-44.43359375
-93.26171875,-61.03515625,-37.59765625,-31.73828125
-153.80859375,-169.43359375,-43.45703125,-18.06640625
-72.265625,-115.72265625,-44.921875,-26.3671875
33.203125,24.90234375,-40.0390625,-48.828125
32.2265625,70.3125,-38.0859375,-64.94140625
-79.1015625,-46.875,-43.9453125,-62.5
-154.78515625,-167.96875,-45.41015625,-40.52734375
-82.51953125,-131.34765625,-41.50390625,-29.78515625
35.15625,15.13671875,-35.64453125,-45.8984375
41.50390625,76.66015625,-38.0859375,-66.89453125
-63.96484375,-29.296875,-48.33984375,-54.6875
-140.13671875,-148.4375,-52.24609375,-29.296875
-85.44921875,-140.625,-50.29296875,-27.34375
36.1328125,0.9765625,-38.57421875,-47.8515625
62.5,89.35546875,-37.59765625,-58.59375
-40.52734375,-4.8828125,-47.8515625,-47.36328125
-133.30078125,-139.16015625,-51.7578125,-18.5546875
-107.421875,-150.87890625,-49.31640625,-2.44140625
17.08984375,-13.671875,-42.96875,-25.390625
65.4296875,82.03125,-38.0859375,-49.31640625
-40.0390625,1.46484375,-48.33984375,-52.24609375
-142.08984375,-136.71875,-58.10546875,-44.921875
-126.953125,-166.50390625,-53.7109375,-34.1796875
-2.44140625,-24.4140625,-49.31640625,-50.29296875
58.59375,85.44921875,-50.29296875,-85.44921875
-27.83203125,18.06640625,-54.19921875,-93.26171875
-126.953125,-115.72265625,-56.640625,-68.359375
-136.71875,-172.36328125,-51.26953125,-43.45703125
-13.18359375,-50.29296875,-39.55078125,-51.26953125
63.4765625,74.21875,-40.52734375,-71.77734375
-6.34765625,32.71484375,-44.43359375,-62.5
-115.234375,-104.4921875,-52.24609375,-42.48046875
-151.3671875,-185.546875,-64.94140625,-33.69140625
-34.66796875,-76.171875,-57.6171875,-43.45703125
55.6640625,66.40625,-42.48046875,-65.4296875
-2.9296875,50.29296875,-45.8984375,-63.4765625
-113.28125,-80.56640625,-50.29296875,-38.0859375
-161.1328125,-170.8984375,-52.24609375,-15.625
-54.6875,-83.0078125,-45.41015625,-19.04296875
51.26953125,61.5234375,-38.57421875,-43.9453125
18.06640625,69.3359375,-42.48046875,-64.94140625
-96.19140625,-64.94140625,-49.8046875,-57.6171875
-159.1796875,-174.31640625,-56.640625,-39.0625
-68.359375,-104.98046875,-52.734375,-44.921875
41.50390625,43.9453125,-44.921875,-70.80078125
19.53125,72.75390625,-50.29296875,-83.49609375
-101.07421875,-57.12890625,-59.5703125,-68.359375
-167.96875,-167.48046875,-59.5703125,-41.015625
-92.28515625,-117.67578125,-58.10546875,-41.015625
20.5078125,21.97265625,-52.24609375,-64.94140625
33.69140625,73.2421875,-51.26953125,-79.58984375
-77.63671875,-37.109375,-55.17578125,-62.5
-157.2265625,-162.109375,-56.15234375,-38.0859375
-96.19140625,-140.13671875,-53.22265625,-39.55078125
16.11328125,8.30078125,-47.36328125,-58.59375
33.69140625,80.078125,-49.31640625,-75.68359375
-72.265625,-21.484375,-55.6640625,-67.3828125
-154.78515625,-145.01953125,-61.03515625,-48.828125
-111.328125,-148.4375,-60.05859375,-42.96875
14.16015625,-8.30078125,-49.31640625,-54.19921875
57.6171875,83.49609375,-46.875,-75.68359375
-32.71484375,0.0,-52.24609375,-62.5
-125.0,-127.44140625,-57.6171875,-36.62109375
-111.328125,-155.76171875,-58.59375,-23.4375
17.08984375,-25.87890625,-51.26953125,-34.1796875
71.2890625,79.1015625,-46.875,-63.4765625
-25.390625,7.8125,-49.8046875,-62.01171875
-121.58203125,-121.09375,-56.15234375,-33.203125
-121.58203125,-159.1796875,-48.828125,-13.18359375
-3.90625,-35.64453125,-37.109375,-29.78515625
61.5234375,75.1953125,-47.8515625,-71.77734375
-33.69140625,8.30078125,-67.87109375,-86.9140625
-141.11328125,-124.51171875,-66.40625,-60.05859375
-145.5078125,-176.26953125,-52.24609375,-21.97265625
-28.80859375,-61.03515625,-41.50390625,-21.484375
51.7578125,72.75390625,-38.57421875,-44.921875
-16.6015625,47.36328125,-47.8515625,-74.70703125
-120.1171875,-87.40234375,-50.78125,-63.4765625
-145.99609375,-170.8984375,-47.36328125,-31.73828125
-39.55078125,-74.70703125,-41.9921875,-47.36328125
53.7109375,65.4296875,-43.45703125,-73.2421875
9.765625,57.6171875,-49.8046875,-77.1484375
-106.4453125,-81.54296875,-60.546875,-59.5703125
-152.34375,-167.48046875,-59.08203125,-41.9921875
-46.875,-81.0546875,-45.41015625,-43.9453125
43.45703125,53.22265625,-44.921875,-71.77734375
18.06640625,69.3359375,-49.8046875,-85.9375
-83.0078125,-53.22265625,-52.734375,-64.453125
-144.04296875,-154.296875,-56.640625,-34.66796875
-56.640625,-94.7265625,-49.8046875,-30.2734375
43.9453125,34.66796875,-41.9921875,-56.640625
34.1796875,67.3828125,-43.9453125,-67.3828125
-68.84765625,-38.57421875,-44.921875,-54.19921875
-141.6015625,-154.296875,-51.26953125,-35.64453125
-83.0078125,-127.44140625,-54.6875,-31.73828125
20.99609375,15.13671875,-45.8984375,-48.33984375
26.85546875,79.58984375,-48.33984375,-67.3828125
-77.1484375,-29.78515625,-55.6640625,-64.453125
-151.85546875,-152.34375,-59.08203125,-36.1328125
-105.46875,-139.16015625,-56.15234375,-23.4375
6.34765625,-4.39453125,-44.43359375,-46.875
31.73828125,73.73046875,-43.9453125,-71.77734375
-64.453125,-17.578125,-53.7109375,-69.82421875
-144.04296875,-139.6484375,-61.03515625,-46.38671875
-107.91015625,-140.625,-54.6875,-28.3203125
3.90625,-11.71875,-48.828125,-59.08203125
48.33984375,72.75390625,-50.29296875,-93.75
-28.80859375,2.9296875,-51.26953125,-75.68359375
-116.69921875,-120.1171875,-54.19921875,-40.52734375
-114.74609375,-156.25,-53.22265625,-24.4140625
-4.8828125,-37.109375,-47.36328125,-36.1328125
52.24609375,62.98828125,-44.43359375,-51.26953125
-24.90234375,5.37109375,-44.921875,-42.96875
-118.1640625,-110.83984375,-48.828125,-25.390625
-129.39453125,-161.62109375,-49.31640625,-15.13671875
-20.5078125,-52.24609375,-37.109375,-22.4609375
48.33984375,65.4296875,-33.69140625,-45.8984375
-23.92578125,22.94921875,-42.48046875,-55.17578125
-114.74609375,-106.4453125,-52.24609375,-35.64453125
-131.34765625,-163.57421875,-54.19921875,-15.13671875
-42.48046875,-57.12890625,-50.29296875,-33.203125
29.296875,67.3828125,-44.43359375,-60.546875
-14.16015625,50.78125,-43.9453125,-63.4765625
-105.95703125,-75.1953125,-58.10546875,-49.8046875
-146.484375,-161.62109375,-58.10546875,-40.0390625
-52.24609375,-80.078125,-46.875,-49.8046875
41.50390625,51.26953125,-41.015625,-72.75390625
10.7421875,57.6171875,-41.9921875,-78.61328125
-87.890625,-58.59375,-49.8046875,-49.8046875
-141.11328125,-156.25,-53.22265625,-29.296875
-59.5703125,-99.12109375,-46.875,-33.69140625
38.0859375,36.1328125,-36.62109375,-53.22265625
19.53125,66.89453125,-38.57421875,-69.3359375
-86.9140625,-46.875,-50.29296875,-62.01171875
-146.484375,-152.34375,-56.640625,-46.875
-82.03125,-119.140625,-55.17578125,-40.52734375
17.578125,8.30078125,-47.36328125,-53.7109375
25.87890625,62.98828125,-42.48046875,-63.96484375
-69.82421875,-40.52734375,-49.31640625,-46.38671875
-142.08984375,-152.34375,-54.6875,-33.203125
-101.07421875,-127.44140625,-54.19921875,-41.9921875
6.34765625,-2.44140625,-46.875,-60.546875
41.015625,61.03515625,-42.96875,-72.265625
-56.640625,-31.73828125,-55.17578125,-70.3125
-140.625,-147.94921875,-63.4765625,-52.24609375
-110.83984375,-149.4140625,-59.08203125,-29.78515625
1.953125,-15.13671875,-47.8515625,-36.62109375
32.71484375,64.94140625,-42.48046875,-55.17578125
-62.5,-18.06640625,-50.29296875,-60.546875
-127.9296875,-121.58203125,-55.6640625,-46.875
-116.2109375,-150.390625,-55.6640625,-26.85546875
-13.18359375,-32.71484375,-45.8984375,-41.015625
40.0390625,67.3828125,-38.0859375,-67.3828125
-38.0859375,8.7890625,-47.36328125,-67.3828125
-123.046875,-111.81640625,-61.5234375,-47.36328125
-124.0234375,-159.66796875,-63.4765625,-14.6484375
-35.64453125,-53.7109375,-50.29296875,-30.2734375
18.06640625,58.59375,-44.921875,-65.91796875
-37.109375,23.4375,-45.41015625,-61.03515625
-124.51171875,-100.5859375,-48.33984375,-55.17578125
-145.01953125,-168.9453125,-53.7109375,-49.8046875
-38.57421875,-62.98828125,-45.41015625,-48.828125
46.38671875,61.03515625,-40.52734375,-53.7109375
-5.37109375,37.109375,-41.9921875,-50.78125
-104.00390625,-85.9375,-53.22265625,-51.7578125
-139.16015625,-159.1796875,-58.59375,-48.828125
-46.875,-77.63671875,-50.78125,-47.8515625
38.57421875,40.52734375,-46.38671875,-68.359375
12.20703125,45.8984375,-43.9453125,-74.21875
-82.51953125,-70.3125,-49.31640625,-44.921875
-134.27734375,-160.64453125,-51.7578125,-23.4375
-49.8046875,-87.40234375,-40.52734375,-29.296875
44.921875,40.52734375,-32.71484375,-52.24609375
35.15625,61.5234375,-36.1328125,-57.6171875
-66.40625,-47.36328125,-42.96875,-36.1328125
-133.7890625,-152.83203125,-48.33984375,-18.5546875
-60.05859375,-102.5390625,-43.45703125,-12.6953125
36.1328125,23.92578125,-40.0390625,-35.64453125
38.0859375,61.5234375,-41.015625,-56.640625
-58.59375,-36.62109375,-45.8984375,-43.9453125
-128.41796875,-148.4375,-48.828125,-19.04296875
-78.61328125,-127.44140625,-48.828125,-14.16015625
19.04296875,2.9296875,-43.9453125,-38.57421875
39.55078125,72.265625,-39.55078125,-55.6640625
-50.29296875,-16.6015625,-50.29296875,-57.12890625
-126.46484375,-128.41796875,-60.546875,-44.43359375
-88.37890625,-127.44140625,-57.6171875,-35.64453125
15.13671875,-3.90625,-49.8046875,-50.29296875
44.921875,79.58984375,-46.875,-66.89453125
-43.45703125,-2.9296875,-52.24609375,-61.5234375
-126.953125,-131.8359375,-59.5703125,-41.015625
-101.5625,-153.3203125,-59.5703125,-34.1796875
4.39453125,-24.90234375,-47.8515625,-51.7578125
46.38671875,67.3828125,-39.0625,-72.75390625
-39.0625,-0.9765625,-44.43359375,-70.3125
-128.90625,-119.140625,-51.26953125,-46.875
-123.046875,-156.25,-52.24609375,-28.3203125
-23.4375,-41.9921875,-43.45703125,-37.59765625
31.73828125,66.40625,-38.57421875,-62.01171875
-36.62109375,17.08984375,-44.43359375,-67.3828125
-123.53515625,-103.02734375,-50.29296875,-41.015625
-135.25390625,-161.62109375,-52.734375,-21.484375
-27.83203125,-61.03515625,-42.96875,-32.2265625
48.828125,59.5703125,-31.73828125,-53.7109375
-13.18359375,27.83203125,-39.0625,-57.12890625
-111.328125,-100.5859375,-50.78125,-44.43359375
-139.6484375,-170.8984375,-48.33984375,-32.71484375
-43.9453125,-73.73046875,-38.57421875,-33.203125
39.0625,51.26953125,-29.296875,-41.9921875
0.0,39.0625,-34.66796875,-43.9453125
-99.609375,-82.51953125,-54.6875,-40.52734375
-144.04296875,-162.109375,-60.05859375,-41.50390625
-63.96484375,-86.42578125,-51.26953125,-51.26953125
23.92578125,32.2265625,-50.29296875,-69.3359375
5.37109375,43.45703125,-47.8515625,-70.80078125
-91.796875,-72.75390625,-48.828125,-45.41015625
-149.90234375,-170.41015625,-56.640625,-25.87890625
-77.1484375,-109.375,-53.7109375,-35.15625
24.4140625,25.390625,-40.0390625,-47.36328125
20.5078125,65.4296875,-37.59765625,-55.6640625
-85.9375,-46.38671875,-52.24609375,-57.12890625
-154.296875,-155.76171875,-60.05859375,-47.8515625
-83.49609375,-119.140625,-57.6171875,-41.50390625
27.34375,10.7421875,-47.36328125,-40.52734375
24.4140625,65.91796875,-38.57421875,-49.8046875
-83.49609375,-30.76171875,-46.38671875,-47.8515625
-150.87890625,-147.94921875,-55.6640625,-27.83203125
-101.5625,-133.7890625,-46.38671875,-22.4609375
5.859375,-12.20703125,-39.55078125,-45.8984375
36.62109375,58.10546875,-37.109375,-68.359375
-51.7578125,-18.5546875,-38.0859375,-60.05859375
-132.8125,-131.8359375,-44.921875,-33.69140625
-113.28125,-143.5546875,-43.9453125,-19.53125
-9.765625,-20.5078125,-36.1328125,-27.34375
38.57421875,67.3828125,-32.71484375,-53.7109375
-42.96875,-5.859375,-41.9921875,-62.01171875
-124.51171875,-120.60546875,-48.33984375,-41.9921875
-116.2109375,-153.80859375,-47.36328125,-38.57421875
-14.16015625,-39.0625,-40.52734375,-55.17578125
32.2265625,61.03515625,-41.015625,-69.3359375
-45.41015625,-2.44140625,-50.78125,-67.3828125
-125.48828125,-118.65234375,-54.19921875,-48.33984375
-130.859375,-160.15625,-52.24609375,-37.109375
-26.3671875,-47.36328125,-40.0390625,-52.24609375
38.0859375,65.91796875,-34.66796875,-66.89453125
-26.85546875,24.4140625,-42.96875,-67.87109375
-117.67578125,-98.14453125,-47.36328125,-57.6171875
-140.625,-161.1328125,-50.78125,-32.2265625
-32.2265625,-59.08203125,-44.43359375,-28.3203125
51.7578125,63.96484375,-35.64453125,-53.7109375
0.0,39.0625,-41.9921875,-72.75390625
-101.07421875,-89.84375,-49.8046875,-53.22265625
-135.7421875,-161.62109375,-49.8046875,-25.87890625
-32.2265625,-72.265625,-43.45703125,-30.76171875
60.05859375,50.29296875,-41.015625,-43.9453125
22.4609375,52.734375,-41.50390625,-52.734375
-78.61328125,-62.5,-49.31640625,-43.45703125
-126.46484375,-152.34375,-58.10546875,-24.90234375
-45.8984375,-88.37890625,-53.22265625,-33.203125
42.48046875,36.62109375,-45.8984375,-50.78125
20.99609375,62.98828125,-46.875,-51.26953125
-83.984375,-48.828125,-53.7109375,-45.8984375
-147.4609375,-156.25,-56.640625,-31.25
-74.21875,-108.88671875,-51.26953125,-35.15625
28.80859375,24.4140625,-39.0625,-58.10546875
34.66796875,70.3125,-35.64453125,-65.91796875
-59.5703125,-27.34375,-40.52734375,-54.19921875
-128.90625,-135.7421875,-43.45703125,-32.71484375
-83.49609375,-113.76953125,-43.45703125,-30.2734375
19.53125,14.6484375,-38.0859375,-47.8515625
39.0625,69.82421875,-43.9453125,-69.82421875
-59.08203125,-24.4140625,-54.19921875,-63.96484375
-132.32421875,-126.46484375,-51.26953125,-31.25
-96.19140625,-123.046875,-46.38671875,-20.99609375
0.0,-15.13671875,-45.8984375,-39.0625
32.2265625,56.640625,-43.45703125,-54.6875
-45.8984375,-16.6015625,-46.38671875,-53.22265625
-125.9765625,-126.46484375,-53.7109375,-44.43359375
-109.86328125,-141.11328125,-57.12890625,-38.0859375
4.39453125,-21.97265625,-44.921875,-41.015625
55.6640625,66.89453125,-40.0390625,-57.6171875
-32.71484375,-2.44140625,-53.22265625,-65.91796875
-112.79296875,-112.79296875,-56.15234375,-34.1796875
-111.81640625,-150.390625,-51.26953125,-11.23046875
-16.6015625,-43.9453125,-46.875,-28.80859375
42.96875,65.91796875,-43.45703125,-49.8046875
-33.69140625,6.34765625,-56.15234375,-66.40625
-119.140625,-114.74609375,-68.359375,-62.5
-131.34765625,-161.1328125,-63.96484375,-42.96875
-30.2734375,-55.17578125,-53.7109375,-44.43359375
40.52734375,59.08203125,-51.26953125,-62.01171875
-24.4140625,26.85546875,-54.6875,-65.4296875
-119.62890625,-94.23828125,-60.05859375,-45.8984375
-141.11328125,-166.9921875,-60.546875,-26.3671875
-37.109375,-77.1484375,-51.26953125,-34.1796875
46.875,44.43359375,-45.8984375,-51.26953125
7.32421875,42.48046875,-48.828125,-55.17578125
-95.21484375,-78.61328125,-59.5703125,-42.48046875
-138.18359375,-170.41015625,-66.89453125,-31.73828125
-34.1796875,-88.37890625,-59.5703125,-27.34375
46.875,34.1796875,-51.7578125,-38.0859375
4.39453125,38.0859375,-49.8046875,-56.640625
-90.8203125,-71.2890625,-53.22265625,-41.50390625
-144.04296875,-156.25,-55.6640625,-21.97265625
-69.3359375,-101.07421875,-48.33984375,-31.25
19.53125,14.16015625,-40.52734375,-55.17578125
4.39453125,49.31640625,-42.48046875,-69.3359375
-89.84375,-48.828125,-46.38671875,-52.24609375
-144.53125,-146.484375,-44.921875,-29.78515625
-79.1015625,-115.234375,-40.52734375,-30.2734375
20.99609375,4.39453125,-33.69140625,-46.38671875
25.87890625,55.6640625,-35.15625,-58.59375
-70.3125,-42.96875,-41.50390625,-44.43359375
-133.7890625,-149.4140625,-43.45703125,-27.83203125
-84.9609375,-127.9296875,-38.0859375,-18.06640625
11.71875,-2.44140625,-35.15625,-32.2265625
28.3203125,56.640625,-36.62109375,-54.6875
-58.10546875,-25.87890625,-41.50390625,-49.31640625
-130.37109375,-131.8359375,-46.875,-35.15625
-103.515625,-141.11328125,-44.43359375,-36.1328125
0.9765625,-12.6953125,-34.1796875,-60.546875
38.0859375,66.89453125,-31.73828125,-86.42578125
-48.33984375,-16.11328125,-40.0390625,-78.61328125
-126.46484375,-129.39453125,-43.45703125,-47.36328125
-114.74609375,-149.4140625,-42.48046875,-30.76171875
-8.7890625,-27.34375,-36.1328125,-41.9921875
43.9453125,70.3125,-36.62109375,-64.453125
-28.80859375,12.6953125,-44.43359375,-66.40625
-116.2109375,-101.5625,-46.875,-44.43359375
-121.58203125,-145.99609375,-49.8046875,-21.97265625
-16.6015625,-42.96875,-47.8515625,-32.2265625
45.8984375,61.5234375,-41.9921875,-64.453125
-19.53125,25.390625,-41.50390625,-68.359375
-110.83984375,-95.21484375,-49.31640625,-44.43359375
-136.71875,-163.57421875,-57.6171875,-18.06640625
-43.45703125,-72.265625,-60.05859375,-25.87890625
25.87890625,40.52734375,-56.640625,-73.73046875
-20.01953125,31.73828125,-53.22265625,-99.12109375
-108.3984375,-79.58984375,-56.15234375,-76.171875
-143.5546875,-157.2265625,-53.7109375,-41.9921875
-51.7578125,-80.078125,-45.41015625,-48.828125
34.66796875,39.0625,-38.57421875,-75.1953125
2.44140625,43.45703125,-41.50390625,-73.2421875
-98.14453125,-69.82421875,-51.26953125,-58.59375
-142.578125,-155.2734375,-57.12890625,-42.48046875
-54.6875,-89.84375,-51.26953125,-41.50390625
31.73828125,24.90234375,-47.36328125,-65.4296875
10.7421875,37.109375,-53.22265625,-76.171875
-90.33203125,-70.3125,-62.01171875,-58.10546875
-145.5078125,-163.0859375,-55.17578125,-26.3671875
-74.21875,-118.1640625,-48.828125,-18.5546875
15.625,7.32421875,-45.41015625,-40.52734375
15.13671875,48.828125,-41.015625,-61.5234375
-78.125,-54.19921875,-50.78125,-52.734375
-146.97265625,-151.3671875,-55.6640625,-19.04296875
-87.890625,-118.1640625,-44.43359375,-19.53125
21.97265625,13.18359375,-35.64453125,-48.828125
35.15625,65.91796875,-39.55078125,-66.89453125
-60.05859375,-32.71484375,-47.8515625,-51.7578125
-138.671875,-137.20703125,-52.734375,-20.99609375
-104.98046875,-128.41796875,-52.24609375,-20.01953125
6.8359375,-1.46484375,-41.015625,-56.15234375
39.0625,71.77734375,-38.0859375,-88.37890625
-54.19921875,-9.765625,-44.43359375,-84.9609375
-126.46484375,-122.0703125,-49.8046875,-57.6171875
-111.81640625,-139.6484375,-50.29296875,-40.0390625
-6.34765625,-23.92578125,-43.45703125,-44.921875
49.31640625,64.94140625,-41.015625,-66.40625
-36.1328125,3.41796875,-42.96875,-77.1484375
-127.44140625,-108.3984375,-51.7578125,-61.03515625
-126.953125,-151.3671875,-62.5,-38.57421875
-14.6484375,-40.0390625,-51.7578125,-46.38671875
41.015625,64.453125,-43.45703125,-69.82421875
-34.66796875,17.08984375,-49.31640625,-64.453125
-123.046875,-95.21484375,-51.26953125,-41.9921875
-132.32421875,-152.34375,-50.78125,-18.5546875
-22.94921875,-47.8515625,-49.8046875,-33.203125
42.48046875,67.3828125,-48.33984375,-69.82421875
-12.20703125,38.0859375,-49.31640625,-72.75390625
-103.515625,-80.56640625,-58.10546875,-52.24609375
-133.7890625,-146.97265625,-59.08203125,-35.64453125
-37.109375,-64.94140625,-53.22265625,-46.875
43.9453125,43.9453125,-49.8046875,-75.68359375
11.23046875,43.9453125,-47.36328125,-83.0078125
-89.35546875,-72.75390625,-53.7109375,-56.15234375
-137.20703125,-157.71484375,-55.6640625,-25.390625
-46.875,-80.56640625,-46.875,-30.76171875
37.59765625,34.1796875,-43.9453125,-61.03515625
4.8828125,42.96875,-48.828125,-75.68359375
-96.19140625,-59.08203125,-50.29296875,-47.8515625
-148.4375,-152.83203125,-54.6875,-23.92578125
-64.94140625,-96.6796875,-45.8984375,-27.83203125
33.203125,31.25,-32.71484375,-41.9921875
31.25,62.01171875,-34.66796875,-63.4765625
-68.359375,-50.78125,-48.33984375,-65.91796875
-135.7421875,-148.92578125,-57.12890625,-41.015625
-76.171875,-109.86328125,-53.7109375,-40.0390625
19.04296875,13.18359375,-49.8046875,-60.05859375
24.4140625,62.98828125,-49.31640625,-65.91796875
-75.68359375,-35.15625,-50.29296875,-53.22265625
-141.11328125,-136.23046875,-49.8046875,-26.85546875
-94.7265625,-123.046875,-48.828125,-20.99609375
8.30078125,0.0,-42.96875,-37.109375
33.203125,65.4296875,-39.0625,-51.7578125
-61.5234375,-21.484375,-49.31640625,-49.8046875
-138.671875,-127.9296875,-49.31640625,-37.109375
-111.81640625,-139.6484375,-43.9453125,-31.73828125
-4.8828125,-21.97265625,-42.96875,-48.828125
32.2265625,58.59375,-41.9921875,-71.2890625
-56.15234375,-14.6484375,-46.875,-75.1953125
-137.6953125,-123.53515625,-48.828125,-57.12890625
-129.39453125,-148.92578125,-45.8984375,-44.43359375
-16.6015625,-36.62109375,-39.55078125,-61.5234375
42.48046875,60.05859375,-33.203125,-82.03125
-35.15625,6.8359375,-37.59765625,-82.03125
-120.1171875,-108.3984375,-40.52734375,-53.7109375
-124.0234375,-145.99609375,-42.48046875,-22.4609375
-15.625,-43.45703125,-41.50390625,-32.2265625
48.33984375,55.17578125,-39.0625,-54.6875
-18.06640625,20.5078125,-45.8984375,-51.26953125
-113.76953125,-104.4921875,-61.03515625,-41.50390625
-140.625,-172.36328125,-62.5,-27.83203125
-32.2265625,-68.84765625,-43.9453125,-25.390625
52.24609375,52.734375,-40.52734375,-51.7578125
0.48828125,35.15625,-44.43359375,-62.5
-96.19140625,-84.47265625,-44.921875,-51.26953125
-125.48828125,-157.71484375,-42.96875,-33.203125
-32.2265625,-75.1953125,-34.66796875,-33.69140625
48.33984375,47.36328125,-39.0625,-60.05859375
7.8125,50.29296875,-45.8984375,-74.70703125
-93.75,-67.87109375,-50.29296875,-68.359375
-143.06640625,-159.1796875,-56.15234375,-47.36328125
-69.82421875,-98.6328125,-50.29296875,-42.48046875
21.97265625,28.80859375,-42.96875,-61.5234375
11.71875,55.17578125,-45.41015625,-59.08203125
-90.8203125,-57.12890625,-54.19921875,-47.8515625
-147.94921875,-158.203125,-54.6875,-44.43359375
-71.77734375,-109.375,-47.36328125,-36.1328125
30.2734375,18.06640625,-46.875,-59.5703125
33.203125,61.5234375,-48.33984375,-76.171875
-72.265625,-35.15625,-48.33984375,-56.15234375
-137.20703125,-139.6484375,-50.78125,-28.3203125
-74.70703125,-117.67578125,-45.41015625,-13.18359375
23.4375,0.0,-39.0625,-44.43359375
37.59765625,59.08203125,-41.9921875,-83.49609375
-53.22265625,-23.92578125,-44.921875,-70.3125
-131.34765625,-135.25390625,-53.7109375,-40.52734375
-93.26171875,-131.34765625,-56.640625,-30.2734375
16.6015625,-4.8828125,-45.41015625,-42.96875
52.24609375,79.58984375,-41.015625,-61.03515625
-30.76171875,0.48828125,-47.36328125,-51.26953125
-116.69921875,-124.0234375,-50.29296875,-20.5078125
-108.88671875,-138.18359375,-49.31640625,-17.08984375
3.41796875,-13.671875,-41.015625,-41.50390625
56.15234375,74.70703125,-41.50390625,-67.87109375
-25.87890625,5.859375,-51.26953125,-69.82421875
-115.234375,-113.28125,-55.6640625,-52.24609375
-117.1875,-154.296875,-49.8046875,-33.69140625
-10.7421875,-43.45703125,-42.48046875,-44.921875
47.8515625,59.5703125,-41.015625,-73.73046875
-24.90234375,9.27734375,-49.31640625,-76.66015625
-116.69921875,-104.98046875,-53.22265625,-43.9453125
-132.32421875,-162.109375,-50.29296875,-27.83203125
-24.4140625,-63.4765625,-46.38671875,-49.31640625
48.33984375,52.24609375,-43.45703125,-78.61328125
-10.7421875,23.92578125,-46.38671875,-83.49609375
-110.83984375,-99.12109375,-52.734375,-53.7109375
-140.13671875,-171.38671875,-57.12890625,-25.390625
-34.66796875,-79.1015625,-45.41015625,-27.83203125
52.24609375,39.55078125,-37.59765625,-53.22265625
16.6015625,38.57421875,-39.0625,-62.01171875
-79.58984375,-69.82421875,-44.921875,-42.48046875
-125.9765625,-155.76171875,-50.29296875,-16.11328125
-31.25,-79.1015625,-44.43359375,-8.30078125
60.05859375,46.875,-38.57421875,-35.15625
33.203125,60.05859375,-38.57421875,-53.22265625
-65.91796875,-51.26953125,-41.015625,-38.57421875
-124.0234375,-151.85546875,-41.015625,-22.94921875
-52.24609375,-105.95703125,-40.52734375,-33.69140625
38.57421875,19.53125,-37.109375,-64.94140625
27.34375,58.10546875,-37.59765625,-80.56640625
-77.1484375,-49.31640625,-49.31640625,-65.4296875
-140.13671875,-151.85546875,-55.6640625,-37.109375
-74.70703125,-111.81640625,-51.7578125,-27.34375
24.4140625,10.7421875,-44.921875,-55.17578125
38.57421875,55.17578125,-44.43359375,-69.3359375
-60.05859375,-36.62109375,-51.26953125,-45.41015625
-132.32421875,-139.16015625,-48.828125,-23.4375
-85.9375,-125.9765625,-42.48046875,-20.01953125
9.27734375,-0.9765625,-42.48046875,-40.52734375
35.15625,65.4296875,-40.52734375,-63.4765625
-52.734375,-18.06640625,-47.36328125,-60.05859375
-128.41796875,-130.37109375,-57.12890625,-41.015625
-100.5859375,-141.6015625,-53.7109375,-34.1796875
12.20703125,-18.06640625,-41.50390625,-40.52734375
51.7578125,68.359375,-44.43359375,-58.10546875
-36.62109375,-0.9765625,-52.734375,-49.8046875
-115.234375,-119.62890625,-53.7109375,-28.3203125
-102.05078125,-149.4140625,-56.15234375,-30.76171875
9.27734375,-27.34375,-49.31640625,-43.9453125
55.6640625,69.82421875,-39.55078125,-70.3125
-41.9921875,0.9765625,-45.41015625,-81.0546875
-131.34765625,-119.62890625,-52.24609375,-54.19921875
-135.25390625,-158.69140625,-47.8515625,-28.80859375
-35.64453125,-53.22265625,-40.0390625,-46.875
35.64453125,53.22265625,-33.69140625,-67.87109375
-28.80859375,14.16015625,-33.203125,-65.4296875
-131.8359375,-104.98046875,-47.36328125,-53.7109375
-157.71484375,-166.9921875,-52.734375,-33.69140625
-51.7578125,-67.3828125,-44.43359375,-41.9921875
32.71484375,52.24609375,-40.52734375,-64.94140625
-2.44140625,36.62109375,-41.9921875,-69.3359375
-104.4921875,-82.03125,-61.03515625,-57.6171875
-151.85546875,-165.0390625,-66.40625,-32.2265625
-50.29296875,-85.44921875,-51.26953125,-20.99609375
48.33984375,37.59765625,-42.96875,-43.9453125
23.92578125,44.43359375,-45.8984375,-70.3125
-78.61328125,-68.359375,-53.7109375,-53.22265625
-130.37109375,-157.2265625,-54.19921875,-27.34375
-51.26953125,-97.65625,-52.24609375,-37.109375
36.62109375,26.85546875,-51.26953125,-65.91796875
25.390625,53.22265625,-51.26953125,-78.61328125
-73.73046875,-58.10546875,-55.17578125,-53.7109375
-142.08984375,-156.25,-57.12890625,-22.4609375
-79.58984375,-109.86328125,-54.6875,-24.4140625
19.53125,14.6484375,-44.921875,-47.36328125
20.01953125,52.734375,-42.96875,-63.96484375
-83.0078125,-50.29296875,-50.78125,-45.41015625
-153.3203125,-150.390625,-53.7109375,-19.53125
-98.14453125,-122.55859375,-45.41015625,-19.04296875
6.8359375,3.90625,-38.57421875,-54.6875
30.2734375,64.94140625,-42.96875,-94.23828125
-58.59375,-23.92578125,-45.41015625,-79.1015625
-137.20703125,-136.23046875,-45.8984375,-46.38671875
-102.05078125,-138.671875,-49.8046875,-39.0625
11.23046875,-15.625,-44.43359375,-57.12890625
37.59765625,58.59375,-45.8984375,-74.70703125
-52.24609375,-20.01953125,-56.640625,-68.84765625
-126.46484375,-129.39453125,-55.17578125,-38.0859375
-112.79296875,-147.94921875,-52.734375,-19.53125
-5.37109375,-31.73828125,-49.8046875,-38.0859375
46.875,61.5234375,-48.828125,-65.4296875
-31.25,4.8828125,-51.7578125,-67.3828125
-123.046875,-110.83984375,-56.640625,-38.57421875
-130.37109375,-154.296875,-53.22265625,-23.4375
-14.6484375,-42.48046875,-41.50390625,-43.9453125
53.7109375,66.89453125,-35.15625,-63.96484375
-20.5078125,18.06640625,-43.45703125,-67.87109375
-117.1875,-97.16796875,-44.921875,-38.57421875
-139.6484375,-153.80859375,-41.50390625,-6.8359375
-37.109375,-66.89453125,-39.0625,-31.73828125
34.1796875,43.45703125,-40.0390625,-76.66015625
-15.13671875,27.83203125,-46.38671875,-88.37890625
-107.421875,-88.8671875,-51.26953125,-61.5234375
-136.71875,-163.0859375,-58.10546875,-24.90234375
-37.109375,-82.03125,-54.19921875,-31.25
45.41015625,38.0859375,-46.875,-60.05859375
11.71875,46.875,-45.41015625,-60.546875
-91.30859375,-66.40625,-48.33984375,-42.48046875
-139.16015625,-157.2265625,-50.29296875,-23.4375
-49.31640625,-84.9609375,-48.828125,-23.4375
39.0625,41.50390625,-46.38671875,-46.875
15.13671875,53.7109375,-44.921875,-72.265625
-83.49609375,-54.19921875,-53.22265625,-68.84765625
-136.71875,-146.97265625,-53.22265625,-41.50390625
-60.546875,-99.609375,-46.38671875,-33.69140625
32.2265625,20.99609375,-43.9453125,-52.734375
26.85546875,52.24609375,-45.8984375,-64.94140625
-65.91796875,-44.921875,-48.33984375,-38.57421875
-129.39453125,-142.578125,-44.921875,-16.6015625
-76.66015625,-119.62890625,-45.41015625,-27.34375
18.5546875,4.39453125,-49.8046875,-48.33984375
35.64453125,69.3359375,-45.41015625,-67.3828125
-57.6171875,-24.4140625,-49.31640625,-56.640625
-137.20703125,-142.08984375,-58.10546875,-29.78515625
-99.12109375,-132.32421875,-48.828125,-29.296875
4.39453125,-6.34765625,-42.48046875,-49.31640625
32.71484375,63.96484375,-41.50390625,-70.3125
-54.6875,-16.11328125,-43.45703125,-62.5
-131.34765625,-125.48828125,-46.38671875,-36.1328125
-110.3515625,-139.6484375,-47.8515625,-24.90234375
-2.9296875,-25.390625,-45.41015625,-43.45703125
35.64453125,62.98828125,-39.0625,-65.4296875
-49.8046875,-3.90625,-42.48046875,-57.6171875
-132.32421875,-118.1640625,-49.31640625,-33.203125
-129.39453125,-147.94921875,-50.78125,-26.85546875
-18.5546875,-43.45703125,-48.33984375,-53.22265625
40.0390625,54.6875,-44.921875,-74.70703125
-31.25,8.30078125,-47.36328125,-62.01171875
-119.140625,-110.83984375,-47.36328125,-25.390625
-127.9296875,-161.1328125,-44.43359375,-11.23046875
-14.6484375,-52.734375,-40.0390625,-34.66796875
55.17578125,62.5,-41.015625,-57.6171875
-9.765625,32.71484375,-45.8984375,-57.12890625
-107.421875,-89.35546875,-49.31640625,-41.9921875
-133.30078125,-156.73828125,-52.24609375,-28.80859375
-31.73828125,-62.98828125,-47.36328125,-44.921875
44.921875,52.24609375,-38.0859375,-74.21875
-5.37109375,32.2265625,-39.55078125,-78.61328125
-107.91015625,-84.9609375,-45.8984375,-55.17578125
-154.296875,-165.52734375,-49.8046875,-26.3671875
-62.01171875,-90.33203125,-41.9921875,-22.4609375
31.73828125,39.55078125,-36.1328125,-45.41015625
-3.41796875,49.8046875,-44.921875,-70.3125
-106.4453125,-64.94140625,-55.17578125,-61.03515625
-148.92578125,-156.73828125,-58.10546875,-35.15625
-58.10546875,-98.14453125,-48.33984375,-30.2734375
40.52734375,24.90234375,-44.43359375,-54.6875
31.73828125,61.03515625,-45.41015625,-76.171875
-62.01171875,-39.55078125,-48.828125,-59.08203125
-129.39453125,-145.5078125,-51.26953125,-29.296875
-68.84765625,-112.3046875,-46.875,-22.94921875
33.69140625,11.71875,-44.43359375,-46.875
60.546875,68.84765625,-43.9453125,-50.29296875
-38.0859375,-25.87890625,-45.41015625,-34.66796875
-137.6953125,-145.01953125,-43.9453125,-29.296875
-99.609375,-132.32421875,-44.43359375,-34.66796875
11.23046875,-3.41796875,-42.96875,-56.640625
36.62109375,56.640625,-44.921875,-65.91796875
-56.15234375,-33.69140625,-50.29296875,-57.6171875
-136.23046875,-143.5546875,-52.24609375,-51.26953125
-108.88671875,-146.97265625,-46.875,-43.45703125
3.41796875,-19.04296875,-37.109375,-54.6875
36.1328125,60.546875,-38.0859375,-77.63671875
-55.6640625,-17.578125,-42.96875,-71.2890625
-131.34765625,-125.9765625,-45.8984375,-44.43359375
-114.74609375,-150.390625,-46.875,-32.2265625
0.48828125,-34.66796875,-37.109375,-43.45703125
52.734375,58.10546875,-33.203125,-64.453125
-29.78515625,4.8828125,-38.0859375,-64.94140625
-120.1171875,-108.3984375,-44.43359375,-36.1328125
-129.39453125,-160.15625,-46.875,-13.18359375
-15.13671875,-46.875,-34.66796875,-25.87890625
60.05859375,67.87109375,-27.34375,-58.59375
-5.37109375,29.78515625,-34.66796875,-60.546875
-96.19140625,-93.75,-48.828125,-33.203125
-116.69921875,-153.80859375,-50.78125,-4.39453125
-13.671875,-47.8515625,-40.52734375,-18.5546875
63.96484375,65.4296875,-37.59765625,-60.546875
9.765625,41.9921875,-42.48046875,-67.87109375
-95.703125,-77.1484375,-47.8515625,-41.50390625
-138.671875,-156.73828125,-45.8984375,-19.04296875
-43.45703125,-74.21875,-41.50390625,-29.78515625
43.9453125,48.828125,-41.015625,-62.98828125
3.90625,48.33984375,-41.9921875,-76.66015625
-101.5625,-65.4296875,-46.38671875,-57.12890625
-149.4140625,-156.73828125,-48.828125,-25.390625
-70.3125,-100.09765625,-48.828125,-22.94921875
20.01953125,24.4140625,-42.48046875,-53.7109375
8.30078125,51.26953125,-41.015625,-76.66015625
-93.75,-52.24609375,-49.31640625,-59.5703125
-156.25,-153.3203125,-49.31640625,-26.85546875
-79.1015625,-113.76953125,-45.41015625,-23.92578125
24.90234375,14.6484375,-41.015625,-52.734375
32.71484375,63.4765625,-36.1328125,-74.70703125
-65.91796875,-32.2265625,-41.9921875,-58.59375
-145.5078125,-136.71875,-49.8046875,-35.15625
-91.796875,-115.72265625,-49.31640625,-34.66796875
9.765625,7.8125,-52.734375,-52.734375
25.87890625,68.84765625,-53.7109375,-75.68359375
-62.5,-26.85546875,-56.640625,-79.1015625
-134.765625,-141.11328125,-62.01171875,-53.22265625
-97.16796875,-137.20703125,-58.10546875,-34.1796875
13.18359375,-8.7890625,-47.8515625,-49.8046875
44.921875,67.87109375,-43.9453125,-74.21875
-55.17578125,-15.625,-47.8515625,-68.359375
-138.18359375,-132.8125,-53.22265625,-42.96875
-113.28125,-149.4140625,-49.31640625,-31.25
4.39453125,-20.5078125,-40.0390625,-43.9453125
55.6640625,73.2421875,-40.0390625,-64.453125
-35.15625,2.44140625,-46.38671875,-58.10546875
-125.48828125,-118.1640625,-53.22265625,-35.64453125
-123.53515625,-158.69140625,-55.6640625,-19.53125
-10.7421875,-44.921875,-45.41015625,-28.3203125
54.6875,62.01171875,-39.55078125,-45.8984375
-20.5078125,8.7890625,-43.45703125,-40.52734375
-119.62890625,-114.2578125,-48.33984375,-21.97265625
-135.25390625,-169.43359375,-49.8046875,-4.8828125
-26.3671875,-62.5,-44.43359375,-36.1328125
46.875,54.6875,-41.9921875,-85.44921875
-12.20703125,29.78515625,-43.9453125,-87.890625
-106.93359375,-84.47265625,-51.26953125,-61.03515625
-133.7890625,-159.66796875,-54.19921875,-42.96875
-34.1796875,-69.82421875,-48.33984375,-51.7578125
42.48046875,48.33984375,-43.9453125,-75.68359375
-7.8125,38.0859375,-47.8515625,-81.54296875
-108.3984375,-75.1953125,-51.7578125,-61.5234375
-147.94921875,-160.15625,-47.36328125,-36.1328125
-63.96484375,-84.9609375,-40.52734375,-37.59765625
16.6015625,35.64453125,-37.109375,-56.640625
-2.9296875,44.43359375,-41.50390625,-61.5234375
-94.23828125,-64.453125,-48.33984375,-35.15625
-150.390625,-155.76171875,-45.41015625,-6.8359375
-79.1015625,-105.95703125,-39.55078125,-15.13671875
20.5078125,15.625,-36.62109375,-41.015625
18.5546875,52.24609375,-36.62109375,-49.8046875
-80.56640625,-52.24609375,-44.921875,-46.875
-140.13671875,-152.83203125,-47.8515625,-42.48046875
-77.63671875,-118.65234375,-43.45703125,-50.78125
20.99609375,13.671875,-39.0625,-74.21875
28.80859375,74.21875,-39.0625,-77.63671875
-70.80078125,-26.3671875,-48.828125,-60.546875
-137.6953125,-142.578125,-50.78125,-34.1796875
-93.26171875,-129.8828125,-43.9453125,-29.78515625
7.32421875,0.9765625,-39.55078125,-60.546875
34.66796875,70.3125,-41.015625,-77.63671875
-54.19921875,-15.625,-45.41015625,-57.6171875
-139.6484375,-133.7890625,-46.38671875,-29.296875
-115.72265625,-146.97265625,-41.9921875,-23.92578125
2.44140625,-23.92578125,-34.66796875,-45.8984375
51.26953125,65.4296875,-38.0859375,-77.63671875
-34.1796875,-3.41796875,-48.828125,-77.1484375
-122.55859375,-121.09375,-56.640625,-44.921875
-114.2578125,-147.94921875,-54.19921875,-29.296875
-1.46484375,-23.92578125,-40.0390625,-38.0859375
53.7109375,77.1484375,-35.64453125,-58.10546875
-30.2734375,21.97265625,-42.96875,-66.40625
-119.140625,-97.65625,-51.26953125,-41.9921875
-129.8828125,-152.34375,-51.26953125,-13.671875
-32.2265625,-50.78125,-48.33984375,-31.73828125
35.64453125,58.10546875,-52.734375,-65.4296875
-23.92578125,23.92578125,-54.6875,-76.171875
-116.69921875,-94.23828125,-58.10546875,-56.640625
-138.671875,-159.66796875,-62.01171875,-30.76171875
-32.71484375,-62.98828125,-51.7578125,-34.1796875
45.8984375,61.5234375,-43.45703125,-51.26953125
-9.765625,39.0625,-51.26953125,-59.5703125
-108.88671875,-87.40234375,-62.5,-51.26953125
-141.11328125,-159.1796875,-60.546875,-26.85546875
-37.59765625,-77.1484375,-48.828125,-27.83203125
55.6640625,40.52734375,-45.41015625,-57.12890625
13.671875,37.59765625,-55.6640625,-76.171875
-92.28515625,-73.73046875,-59.08203125,-58.59375
-138.671875,-157.2265625,-52.734375,-31.25
-57.12890625,-97.16796875,-47.8515625,-28.3203125
35.64453125,25.390625,-42.96875,-44.43359375
19.04296875,53.7109375,-45.41015625,-55.6640625
-89.35546875,-51.26953125,-54.19921875,-45.8984375
-150.390625,-147.94921875,-53.7109375,-27.34375
-78.61328125,-104.4921875,-50.78125,-24.4140625
25.87890625,20.99609375,-46.875,-50.29296875
38.57421875,64.453125,-44.921875,-66.89453125
-72.75390625,-41.015625,-55.17578125,-52.24609375
-150.390625,-149.4140625,-54.19921875,-26.85546875
-85.44921875,-128.41796875,-45.8984375,-13.671875
20.5078125,-5.37109375,-41.015625,-30.2734375
42.48046875,60.546875,-41.015625,-54.6875
-47.8515625,-19.53125,-45.41015625,-47.36328125
-125.0,-128.90625,-46.38671875,-18.5546875
-92.7734375,-132.8125,-45.8984375,-10.7421875
19.04296875,-10.7421875,-38.0859375,-24.4140625
55.6640625,68.84765625,-38.0859375,-49.8046875
-36.1328125,-1.953125,-47.8515625,-52.734375
-122.55859375,-120.1171875,-53.22265625,-32.71484375
-106.93359375,-153.3203125,-55.6640625,-16.6015625
14.16015625,-31.73828125,-45.41015625,-20.5078125
46.875,62.98828125,-33.203125,-54.6875
-55.17578125,-7.8125,-38.0859375,-68.84765625
-131.34765625,-124.51171875,-46.875,-45.41015625
-126.46484375,-160.15625,-43.45703125,-25.390625
-23.4375,-47.8515625,-37.109375,-43.45703125
40.0390625,56.640625,-37.59765625,-73.73046875
-31.73828125,9.27734375,-44.921875,-75.1953125
-128.41796875,-110.3515625,-50.29296875,-43.9453125
-143.06640625,-161.62109375,-45.41015625,-17.578125
-35.15625,-60.05859375,-37.59765625,-37.109375
37.109375,43.45703125,-39.55078125,-74.70703125
-16.6015625,16.11328125,-39.55078125,-79.1015625
-112.3046875,-92.28515625,-37.59765625,-42.48046875
-140.625,-157.71484375,-42.48046875,-15.625
-35.15625,-69.3359375,-41.015625,-27.83203125
57.12890625,52.24609375,-38.0859375,-53.22265625
22.4609375,46.38671875,-39.55078125,-57.6171875
-79.1015625,-73.2421875,-40.52734375,-33.69140625
-117.1875,-157.2265625,-44.921875,-13.18359375
-34.1796875,-87.40234375,-45.8984375,-21.484375
49.8046875,41.015625,-41.50390625,-43.9453125
29.296875,57.12890625,-44.43359375,-55.17578125
-81.0546875,-60.05859375,-51.7578125,-36.1328125
-141.11328125,-148.92578125,-50.78125,-12.20703125
-61.03515625,-95.703125,-49.31640625,-18.06640625
32.71484375,24.90234375,-50.78125,-50.78125
23.4375,68.84765625,-50.78125,-65.91796875
-76.66015625,-27.83203125,-51.7578125,-46.875
-144.53125,-138.18359375,-54.19921875,-32.2265625
-79.1015625,-108.88671875,-51.7578125,-33.203125
29.296875,15.625,-48.828125,-55.6640625
38.0859375,68.84765625,-46.38671875,-75.68359375
-64.453125,-21.97265625,-49.8046875,-62.01171875
-145.5078125,-136.23046875,-52.24609375,-35.15625
-109.375,-129.8828125,-46.875,-29.296875
-4.39453125,-1.46484375,-42.48046875,-48.828125
27.83203125,69.3359375,-40.52734375,-62.98828125
-64.453125,-12.6953125,-47.8515625,-58.59375
-145.5078125,-125.0,-53.22265625,-38.0859375
-104.4921875,-146.97265625,-51.26953125,-23.92578125
22.4609375,-23.92578125,-48.828125,-40.52734375
60.05859375,76.171875,-52.24609375,-74.70703125
-46.875,8.7890625,-58.59375,-76.66015625
-143.5546875,-105.46875,-59.08203125,-49.8046875
-132.8125,-126.953125,-63.96484375,-32.71484375
-9.765625,-6.34765625,-64.453125,-50.78125
43.45703125,89.35546875,-64.453125,-78.125
-36.1328125,34.1796875,-69.3359375,-74.70703125
-115.72265625,-78.125,-76.66015625,-46.38671875
-122.0703125,-127.9296875,-83.49609375,-24.90234375
-4.8828125,-18.5546875,-67.87109375,-52.24609375
65.91796875,91.30859375,-59.08203125,-85.44921875
-4.8828125,53.7109375,-61.5234375,-78.61328125
-100.5859375,-63.4765625,-63.4765625,-58.59375
-123.53515625,-134.765625,-66.40625,-46.38671875
-24.4140625,-45.8984375,-62.98828125,-73.2421875
54.19921875,72.265625,-58.10546875,-100.5859375
12.6953125,60.546875,-58.10546875,-86.9140625
-92.7734375,-61.5234375,-60.546875,-58.59375
-143.5546875,-148.4375,-58.59375,-33.69140625
-43.9453125,-73.2421875,-49.8046875,-32.71484375
55.17578125,50.29296875,-42.96875,-51.26953125
27.34375,59.5703125,-46.875,-62.01171875
-83.0078125,-58.10546875,-56.15234375,-47.8515625
-138.671875,-152.34375,-58.59375,-25.87890625
-49.31640625,-88.8671875,-50.78125,-29.296875
47.36328125,34.66796875,-41.50390625,-50.29296875
35.15625,64.453125,-38.57421875,-61.5234375
-75.1953125,-37.109375,-52.734375,-50.29296875
-142.578125,-137.6953125,-60.546875,-25.390625
-70.80078125,-103.02734375,-51.26953125,-32.71484375
31.73828125,22.94921875,-41.9921875,-64.94140625
37.109375,69.3359375,-38.57421875,-77.63671875
-63.96484375,-31.25,-42.96875,-58.10546875
-135.25390625,-138.671875,-49.8046875,-32.71484375
-90.33203125,-126.953125,-60.546875,-41.015625
11.71875,-0.9765625,-57.12890625,-69.82421875
39.55078125,68.84765625,-47.36328125,-82.51953125
-58.10546875,-21.484375,-53.7109375,-62.5
-139.6484375,-137.6953125,-60.546875,-42.96875
-107.421875,-138.671875,-56.15234375,-35.64453125
10.25390625,-4.39453125,-44.43359375,-46.38671875
53.7109375,78.125,-41.9921875,-61.5234375
-39.0625,-4.8828125,-49.8046875,-56.15234375
-126.46484375,-123.53515625,-48.828125,-32.71484375
-119.62890625,-150.390625,-45.8984375,-20.99609375
-6.8359375,-25.390625,-40.52734375,-55.6640625
46.875,74.70703125,-37.109375,-86.9140625
-39.0625,16.11328125,-41.9921875,-79.58984375
-128.41796875,-101.5625,-44.921875,-45.41015625
-135.7421875,-157.2265625,-46.38671875,-22.94921875
-23.92578125,-45.8984375,-40.0390625,-44.43359375
55.17578125,75.68359375,-32.71484375,-63.96484375
-12.6953125,33.69140625,-39.0625,-58.59375
-110.3515625,-95.703125,-49.31640625,-46.875
-125.9765625,-161.62109375,-47.8515625,-32.2265625
-22.94921875,-60.05859375,-36.1328125,-37.109375
48.33984375,62.98828125,-34.1796875,-56.15234375
-13.18359375,41.9921875,-40.52734375,-66.40625
-120.60546875,-85.44921875,-50.29296875,-54.6875
-158.203125,-167.96875,-58.59375,-27.83203125
-56.640625,-82.51953125,-53.22265625,-34.1796875
36.1328125,43.45703125,-50.29296875,-60.546875
1.46484375,45.8984375,-55.17578125,-71.77734375
-98.6328125,-71.2890625,-57.6171875,-54.6875
-144.53125,-163.57421875,-59.5703125,-28.3203125
-54.6875,-96.6796875,-53.22265625,-28.3203125
39.55078125,34.1796875,-46.38671875,-48.33984375
14.16015625,54.19921875,-45.8984375,-63.4765625
-91.30859375,-64.94140625,-47.8515625,-51.26953125
-148.4375,-166.015625,-52.24609375,-30.76171875
-69.82421875,-116.2109375,-41.9921875,-25.390625
28.80859375,12.20703125,-32.2265625,-44.921875
25.390625,54.6875,-37.109375,-67.3828125
-73.73046875,-53.22265625,-45.41015625,-51.26953125
-140.13671875,-164.0625,-45.8984375,-26.85546875
-80.56640625,-127.9296875,-39.0625,-29.78515625
22.94921875,7.32421875,-40.52734375,-48.33984375
39.0625,67.87109375,-41.50390625,-61.03515625
-62.98828125,-23.4375,-46.38671875,-52.24609375
-143.5546875,-140.13671875,-50.29296875,-31.25
-99.609375,-137.20703125,-41.9921875,-23.4375
11.23046875,-6.8359375,-39.0625,-50.29296875
44.43359375,69.3359375,-43.9453125,-68.84765625
-51.7578125,-19.04296875,-47.36328125,-52.24609375
-130.37109375,-132.32421875,-44.921875,-28.80859375
-106.4453125,-149.90234375,-46.38671875,-31.73828125
2.44140625,-24.4140625,-45.8984375,-58.10546875
48.828125,76.171875,-42.96875,-80.078125
-38.0859375,4.8828125,-46.38671875,-71.2890625
-124.0234375,-116.2109375,-47.8515625,-47.36328125
-118.1640625,-153.80859375,-51.26953125,-29.296875
-1.953125,-41.015625,-51.26953125,-35.15625
60.05859375,62.98828125,-41.015625,-65.91796875
-28.3203125,3.90625,-43.45703125,-76.66015625
-122.55859375,-120.60546875,-47.36328125,-50.29296875
-128.90625,-169.921875,-46.875,-24.90234375
-24.4140625,-61.5234375,-41.015625,-37.59765625
50.78125,55.6640625,-40.52734375,-61.5234375
-7.8125,22.94921875,-49.31640625,-65.4296875
-102.05078125,-98.6328125,-55.17578125,-51.7578125
-129.39453125,-166.9921875,-53.22265625,-26.85546875
-29.78515625,-74.70703125,-42.96875,-28.80859375
57.6171875,56.640625,-36.62109375,-55.17578125
4.8828125,42.96875,-42.96875,-67.87109375
-102.05078125,-91.30859375,-53.22265625,-51.26953125
-141.11328125,-173.828125,-56.640625,-31.73828125
-44.921875,-88.37890625,-55.6640625,-44.43359375
46.38671875,40.52734375,-48.828125,-67.87109375
20.5078125,48.828125,-45.41015625,-75.1953125
-87.40234375,-73.2421875,-54.19921875,-68.84765625
-148.92578125,-172.8515625,-55.17578125,-48.828125
-65.4296875,-106.4453125,-46.875,-44.921875
30.2734375,25.87890625,-42.48046875,-73.2421875
23.92578125,57.12890625,-43.9453125,-86.9140625
-82.51953125,-51.26953125,-52.734375,-64.453125
-149.90234375,-159.66796875,-57.6171875,-32.71484375
-78.61328125,-118.65234375,-51.26953125,-28.80859375
23.92578125,19.53125,-41.9921875,-51.26953125
24.4140625,73.73046875,-42.96875,-67.3828125
-78.61328125,-34.1796875,-57.6171875,-63.4765625
-149.90234375,-149.4140625,-58.10546875,-35.15625
-104.00390625,-129.8828125,-51.7578125,-20.99609375
6.8359375,5.37109375,-43.9453125,-41.50390625
36.1328125,79.1015625,-43.45703125,-65.91796875
-59.5703125,-12.6953125,-52.734375,-61.5234375
-138.18359375,-133.30078125,-51.7578125,-32.2265625
-111.81640625,-145.99609375,-45.8984375,-31.25
-4.8828125,-20.5078125,-40.52734375,-62.98828125
39.55078125,69.3359375,-40.0390625,-72.265625
-48.33984375,-9.765625,-46.875,-54.19921875
-129.39453125,-130.859375,-52.734375,-37.109375
-112.79296875,-160.64453125,-50.78125,-31.73828125
-1.46484375,-31.73828125,-39.55078125,-43.9453125
46.875,70.80078125,-38.0859375,-68.84765625
-36.1328125,3.90625,-45.8984375,-62.98828125
-126.46484375,-113.28125,-47.36328125,-35.64453125
-133.7890625,-154.78515625,-45.41015625,-28.80859375
-21.484375,-47.36328125,-38.0859375,-44.43359375
41.9921875,57.12890625,-38.0859375,-63.4765625
-29.78515625,16.6015625,-45.41015625,-58.59375
-121.09375,-103.02734375,-50.78125,-33.69140625
-139.16015625,-171.875,-51.7578125,-25.87890625
-33.69140625,-72.265625,-47.36328125,-56.15234375
48.33984375,58.59375,-45.8984375,-80.56640625
-1.46484375,43.9453125,-51.26953125,-67.87109375
-102.5390625,-82.03125,-58.59375,-42.48046875
-142.578125,-164.0625,-60.05859375,-29.78515625
-48.33984375,-70.80078125,-52.24609375,-36.62109375
37.59765625,55.6640625,-47.8515625,-64.94140625
-1.953125,43.9453125,-50.78125,-84.47265625
-107.421875,-79.58984375,-50.29296875,-51.26953125
-153.80859375,-165.52734375,-50.78125,-14.6484375
-67.3828125,-99.609375,-45.8984375,-22.94921875
29.296875,28.80859375,-36.62109375,-45.41015625
14.6484375,58.59375,-47.8515625,-75.1953125
-90.33203125,-52.24609375,-60.05859375,-77.1484375
-151.3671875,-157.2265625,-60.05859375,-43.45703125
-75.68359375,-108.3984375,-54.6875,-28.80859375
23.92578125,21.97265625,-46.875,-47.8515625
30.2734375,73.73046875,-42.96875,-60.05859375
-68.84765625,-30.76171875,-53.7109375,-49.8046875
-149.90234375,-154.78515625,-62.01171875,-41.50390625
-92.7734375,-125.48828125,-54.6875,-45.41015625
19.04296875,5.859375,-48.828125,-66.89453125
35.15625,64.94140625,-54.19921875,-91.796875
-48.828125,-22.4609375,-63.4765625,-73.2421875
-120.60546875,-139.16015625,-62.98828125,-35.64453125
-101.07421875,-138.18359375,-53.22265625,-39.0625
-4.8828125,-10.7421875,-40.0390625,-62.98828125
29.296875,62.5,-35.64453125,-75.68359375
-56.640625,-15.625,-44.43359375,-76.171875
-141.6015625,-135.7421875,-43.9453125,-43.45703125
-125.9765625,-165.0390625,-41.015625,-17.578125
-13.18359375,-41.50390625,-39.55078125,-42.48046875
40.0390625,58.59375,-35.64453125,-70.3125
-43.9453125,-8.7890625,-39.55078125,-57.6171875
-143.5546875,-138.671875,-44.43359375,-25.390625
-134.765625,-173.828125,-45.41015625,-10.7421875
-11.23046875,-46.38671875,-38.57421875,-36.62109375
51.26953125,62.01171875,-33.203125,-67.87109375
-24.4140625,15.13671875,-36.62109375,-69.82421875
-119.62890625,-105.46875,-41.9921875,-51.26953125
-132.32421875,-163.0859375,-44.43359375,-26.3671875
-20.99609375,-53.7109375,-37.109375,-34.66796875
56.15234375,65.91796875,-31.73828125,-70.3125
-6.8359375,30.76171875,-38.0859375,-75.68359375
-107.91015625,-98.6328125,-43.45703125,-49.31640625
-137.20703125,-168.45703125,-41.015625,-21.484375
-35.64453125,-73.2421875,-35.15625,-31.73828125
51.7578125,52.24609375,-34.1796875,-64.94140625
15.625,42.48046875,-38.57421875,-70.80078125
-83.984375,-81.54296875,-45.8984375,-41.9921875
-127.9296875,-165.0390625,-49.8046875,-12.20703125
-35.64453125,-89.84375,-44.43359375,-18.5546875
51.7578125,43.45703125,-35.15625,-41.50390625
24.4140625,66.89453125,-35.64453125,-56.15234375
-85.44921875,-52.734375,-45.8984375,-41.9921875
-148.4375,-160.64453125,-47.36328125,-21.97265625
-67.87109375,-105.95703125,-41.015625,-27.34375
36.1328125,26.85546875,-35.64453125,-42.48046875
31.25,62.01171875,-37.109375,-57.12890625
-69.3359375,-46.38671875,-42.48046875,-54.19921875
-132.32421875,-153.3203125,-41.015625,-30.2734375
-64.94140625,-117.1875,-38.0859375,-20.01953125
39.0625,15.13671875,-33.69140625,-41.015625
42.48046875,69.82421875,-36.1328125,-57.6171875
-58.10546875,-27.83203125,-43.45703125,-45.8984375
-132.32421875,-136.23046875,-43.45703125,-19.53125
-90.8203125,-128.41796875,-42.96875,-20.5078125
16.11328125,-6.34765625,-38.0859375,-55.17578125
41.015625,64.453125,-41.50390625,-72.265625
-54.6875,-19.04296875,-54.19921875,-60.546875
-128.41796875,-132.32421875,-52.734375,-34.1796875
-99.12109375,-143.06640625,-49.8046875,-18.06640625
9.27734375,-14.16015625,-41.015625,-32.71484375
51.7578125,82.51953125,-34.1796875,-58.10546875
-36.62109375,12.20703125,-40.52734375,-51.7578125
-125.9765625,-113.76953125,-48.828125,-23.4375
-117.67578125,-151.85546875,-50.78125,-16.11328125
1.953125,-33.203125,-42.96875,-33.69140625
64.453125,67.3828125,-41.50390625,-54.6875
-22.4609375,11.71875,-47.8515625,-61.5234375
-118.1640625,-104.98046875,-52.24609375,-37.59765625
-120.1171875,-151.85546875,-56.15234375,-15.13671875
-9.27734375,-42.48046875,-48.828125,-37.109375
61.5234375,69.82421875,-44.921875,-67.3828125
-2.44140625,32.71484375,-50.78125,-63.96484375
-104.00390625,-95.21484375,-58.59375,-39.0625
-133.30078125,-167.48046875,-62.01171875,-25.390625
-25.87890625,-69.82421875,-45.8984375,-39.0625
58.10546875,58.10546875,-35.15625,-64.94140625
7.8125,50.78125,-39.0625,-65.91796875
-94.23828125,-70.3125,-48.828125,-42.48046875
-138.18359375,-160.64453125,-56.640625,-31.73828125
-45.8984375,-82.51953125,-52.734375,-41.9921875
42.96875,49.31640625,-46.875,-65.4296875
15.625,60.546875,-44.921875,-66.89453125
-88.8671875,-64.94140625,-49.31640625,-38.57421875
-145.5078125,-163.57421875,-54.6875,-11.71875
-59.08203125,-95.21484375,-50.29296875,-11.23046875
40.0390625,40.52734375,-42.48046875,-44.43359375
23.92578125,66.89453125,-43.9453125,-65.91796875
-83.49609375,-51.26953125,-52.734375,-42.48046875
-144.53125,-151.85546875,-54.19921875,-22.4609375
-75.1953125,-110.3515625,-49.31640625,-29.78515625
23.4375,13.671875,-44.921875,-60.546875
26.85546875,60.546875,-46.38671875,-86.42578125
-71.2890625,-43.9453125,-47.8515625,-61.03515625
-139.16015625,-151.85546875,-45.8984375,-20.5078125
-83.984375,-125.9765625,-42.96875,-13.18359375
24.90234375,10.7421875,-38.0859375,-38.0859375
46.875,80.56640625,-40.0390625,-65.4296875
-49.8046875,-9.765625,-42.96875,-60.05859375
-128.41796875,-129.8828125,-48.828125,-36.62109375
-99.609375,-140.625,-54.19921875,-37.59765625
9.765625,-4.39453125,-40.0390625,-57.12890625
38.0859375,73.73046875,-39.0625,-76.171875
-59.5703125,-24.4140625,-54.6875,-68.84765625
-136.23046875,-138.18359375,-52.24609375,-34.66796875
-120.1171875,-155.2734375,-49.31640625,-26.85546875
-7.32421875,-32.71484375,-44.43359375,-54.19921875
46.38671875,74.21875,-42.48046875,-76.66015625
-38.57421875,6.34765625,-50.78125,-65.91796875
-132.8125,-119.62890625,-51.7578125,-32.71484375
-134.765625,-156.73828125,-49.8046875,-15.625
-20.99609375,-40.52734375,-47.36328125,-40.52734375
50.78125,69.82421875,-41.50390625,-72.75390625
-17.578125,26.85546875,-41.015625,-66.89453125
-120.60546875,-106.4453125,-51.7578125,-49.8046875
-138.18359375,-175.29296875,-54.6875,-30.76171875
-19.53125,-63.4765625,-39.0625,-29.296875
58.10546875,63.4765625,-35.64453125,-57.6171875
-8.30078125,37.59765625,-46.38671875,-63.4765625
-109.375,-89.35546875,-52.24609375,-36.62109375
-138.18359375,-161.62109375,-54.19921875,-18.06640625
-39.55078125,-71.2890625,-49.31640625,-43.9453125
46.875,57.12890625,-42.96875,-79.1015625
3.90625,51.7578125,-51.26953125,-83.49609375
-103.02734375,-76.66015625,-55.17578125,-59.5703125
-152.83203125,-161.1328125,-50.78125,-31.25
-66.89453125,-93.75,-47.36328125,-33.69140625
37.109375,35.15625,-37.59765625,-48.828125
25.87890625,62.98828125,-34.1796875,-63.96484375
-86.9140625,-60.546875,-47.36328125,-56.640625
-151.85546875,-171.38671875,-54.19921875,-27.34375
-69.3359375,-112.3046875,-46.38671875,-19.04296875
35.64453125,26.3671875,-34.66796875,-33.203125
34.1796875,65.91796875,-32.71484375,-43.9453125
-69.3359375,-43.9453125,-44.43359375,-32.2265625
-142.08984375,-156.73828125,-47.8515625,-8.7890625
-74.70703125,-121.09375,-39.0625,-5.859375
33.203125,18.5546875,-34.1796875,-39.0625
40.0390625,76.66015625,-35.64453125,-63.96484375
-59.08203125,-20.5078125,-43.9453125,-55.17578125
-133.7890625,-137.6953125,-49.31640625,-31.25
-84.47265625,-125.9765625,-43.45703125,-23.92578125
22.94921875,4.8828125,-38.0859375,-54.6875
39.55078125,74.70703125,-35.15625,-80.078125
-57.6171875,-17.08984375,-47.36328125,-72.75390625
-128.90625,-140.13671875,-53.22265625,-32.71484375
-103.515625,-150.390625,-39.0625,-19.53125
-5.859375,-25.390625,-27.83203125,-59.5703125
27.83203125,59.5703125,-34.1796875,-90.33203125
-59.5703125,-7.32421875,-41.50390625,-80.56640625
-141.11328125,-125.48828125,-42.96875,-42.96875
-133.7890625,-162.59765625,-45.8984375,-19.53125
-18.5546875,-45.41015625,-37.109375,-41.015625
41.9921875,54.19921875,-35.15625,-66.89453125
-33.203125,5.37109375,-42.96875,-60.546875
-123.53515625,-121.58203125,-45.41015625,-35.64453125
-136.23046875,-181.640625,-41.015625,-11.71875
-28.3203125,-70.3125,-33.203125,-18.06640625
40.52734375,52.24609375,-30.2734375,-41.015625
-23.92578125,16.6015625,-36.1328125,-44.921875
-122.0703125,-107.91015625,-43.9453125,-40.0390625
-147.4609375,-168.9453125,-45.41015625,-21.97265625
-41.015625,-68.84765625,-38.0859375,-24.4140625
41.015625,51.7578125,-33.203125,-55.6640625
-8.30078125,30.2734375,-41.9921875,-67.87109375
-110.83984375,-98.14453125,-54.19921875,-53.22265625
-144.53125,-177.734375,-50.29296875,-31.25
-43.45703125,-92.7734375,-39.55078125,-34.1796875
48.33984375,41.50390625,-35.64453125,-60.05859375
15.13671875,53.22265625,-40.0390625,-72.265625
-89.35546875,-65.91796875,-51.7578125,-61.03515625
-139.6484375,-163.57421875,-57.6171875,-41.015625
-51.26953125,-101.5625,-47.36328125,-34.1796875
47.36328125,29.78515625,-39.55078125,-51.26953125
27.83203125,59.5703125,-42.48046875,-59.5703125
-73.2421875,-53.7109375,-52.734375,-42.48046875
-139.16015625,-159.66796875,-58.59375,-21.97265625
-74.70703125,-117.1875,-51.7578125,-22.94921875
28.80859375,11.71875,-42.48046875,-41.50390625
33.203125,62.98828125,-38.57421875,-56.15234375
-70.80078125,-37.109375,-48.828125,-42.48046875
-142.578125,-145.5078125,-51.26953125,-13.18359375
-91.30859375,-129.39453125,-43.45703125,-18.06640625
16.6015625,0.48828125,-41.9921875,-46.875
41.015625,70.80078125,-36.62109375,-61.5234375
-58.10546875,-22.4609375,-38.0859375,-52.24609375
-133.7890625,-136.23046875,-44.921875,-36.1328125
-101.07421875,-146.97265625,-45.8984375,-37.59765625
10.25390625,-21.97265625,-40.52734375,-48.828125
50.78125,66.40625,-39.55078125,-65.91796875
-41.50390625,-12.6953125,-48.33984375,-60.546875
-125.9765625,-133.30078125,-52.24609375,-36.1328125
-115.234375,-162.109375,-47.8515625,-28.80859375
-2.9296875,-39.55078125,-40.52734375,-42.48046875
51.7578125,65.4296875,-41.9921875,-67.3828125
-32.71484375,2.9296875,-47.8515625,-72.265625
-123.53515625,-119.62890625,-45.8984375,-45.41015625
-127.9296875,-159.66796875,-44.921875,-32.2265625
-25.390625,-42.48046875,-46.38671875,-57.6171875
39.0625,66.89453125,-46.875,-76.66015625
-27.83203125,19.04296875,-53.7109375,-74.70703125
-123.046875,-107.91015625,-63.4765625,-62.01171875
-143.5546875,-168.9453125,-62.98828125,-48.828125
-34.66796875,-61.5234375,-52.24609375,-55.17578125
47.8515625,56.15234375,-41.015625,-71.2890625
-1.46484375,34.66796875,-44.921875,-67.87109375
-105.95703125,-84.9609375,-57.12890625,-53.7109375
-148.4375,-162.109375,-56.15234375,-40.0390625
-40.0390625,-70.80078125,-45.8984375,-34.1796875
52.24609375,59.5703125,-41.015625,-54.19921875
9.27734375,51.7578125,-44.921875,-64.94140625
-99.12109375,-74.70703125,-52.734375,-48.33984375
-148.4375,-161.62109375,-50.78125,-30.76171875
-60.546875,-91.30859375,-41.015625,-31.25
36.62109375,37.59765625,-33.203125,-52.24609375
19.04296875,60.546875,-39.0625,-63.4765625
-90.8203125,-47.8515625,-43.9453125,-37.109375
-153.80859375,-148.92578125,-46.875,-13.18359375
-73.2421875,-107.421875,-49.31640625,-24.4140625
29.296875,20.5078125,-42.48046875,-44.43359375
27.83203125,67.87109375,-44.921875,-64.453125
-71.77734375,-30.2734375,-52.24609375,-64.453125
-145.99609375,-144.53125,-60.546875,-46.875
-88.8671875,-127.44140625,-62.98828125,-42.96875
20.99609375,3.90625,-55.17578125,-61.5234375
37.59765625,68.84765625,-49.31640625,-73.2421875
-62.5,-19.53125,-50.78125,-68.84765625
-139.16015625,-130.37109375,-53.22265625,-44.43359375
-85.9375,-129.39453125,-46.875,-18.06640625
17.578125,-4.8828125,-32.71484375,-41.015625
29.78515625,69.82421875,-31.73828125,-72.75390625
-58.10546875,-13.18359375,-38.57421875,-68.359375
-141.6015625,-136.71875,-40.0390625,-46.38671875
-132.32421875,-163.0859375,-41.015625,-38.0859375
-12.20703125,-31.25,-32.2265625,-48.33984375
37.109375,63.4765625,-31.25,-64.94140625
-50.29296875,-11.23046875,-39.55078125,-63.4765625
-135.25390625,-134.765625,-47.36328125,-38.0859375
-135.7421875,-166.9921875,-43.45703125,-20.5078125
-20.01953125,-37.59765625,-35.15625,-40.0390625
51.26953125,71.2890625,-35.15625,-67.87109375
-23.92578125,17.08984375,-46.875,-66.89453125
-123.046875,-107.91015625,-55.17578125,-54.19921875
-140.625,-169.921875,-53.7109375,-39.55078125
-31.25,-69.3359375,-47.36328125,-42.96875
51.26953125,58.10546875,-35.64453125,-68.359375
-11.23046875,31.73828125,-40.52734375,-77.1484375
-114.74609375,-96.19140625,-43.9453125,-47.8515625
-141.6015625,-166.9921875,-41.50390625,-28.80859375
-41.9921875,-79.58984375,-39.55078125,-46.38671875
48.33984375,48.828125,-30.2734375,-66.89453125
11.23046875,42.96875,-31.73828125,-58.59375
-97.65625,-84.47265625,-44.43359375,-32.71484375
-135.7421875,-166.50390625,-46.875,-14.16015625
-41.50390625,-87.40234375,-38.0859375,-25.390625
48.33984375,41.9921875,-36.1328125,-66.40625
24.90234375,53.22265625,-44.43359375,-78.61328125
-80.078125,-63.96484375,-48.828125,-54.19921875
-131.34765625,-155.2734375,-45.41015625,-20.01953125
-52.734375,-105.95703125,-40.0390625,-17.08984375
42.48046875,20.99609375,-38.57421875,-41.9921875
39.0625,64.453125,-41.9921875,-57.12890625
-63.4765625,-41.9921875,-46.875,-42.48046875
-138.671875,-152.34375,-50.29296875,-14.6484375
-76.66015625,-124.51171875,-48.33984375,-20.5078125
30.76171875,9.27734375,-43.9453125,-55.17578125
37.59765625,68.84765625,-47.8515625,-77.63671875
-71.77734375,-34.1796875,-50.78125,-58.59375
-149.90234375,-149.90234375,-51.26953125,-34.66796875
-100.5859375,-133.7890625,-50.78125,-40.52734375
16.11328125,4.39453125,-41.50390625,-56.15234375
44.921875,75.68359375,-39.55078125,-72.265625
-54.19921875,-19.53125,-51.7578125,-69.82421875
-135.25390625,-136.23046875,-58.10546875,-48.33984375
-107.421875,-149.4140625,-56.640625,-34.1796875
6.8359375,-22.4609375,-47.36328125,-45.41015625
43.9453125,69.3359375,-47.8515625,-75.1953125
-42.48046875,-2.44140625,-57.12890625,-71.77734375
-118.65234375,-115.234375,-58.59375,-42.96875
-115.234375,-158.203125,-59.5703125,-31.73828125
-2.9296875,-34.66796875,-50.78125,-40.0390625
60.546875,79.1015625,-40.52734375,-57.6171875
-18.06640625,15.13671875,-43.45703125,-51.26953125
-122.0703125,-113.76953125,-58.59375,-36.1328125
-143.5546875,-166.015625,-61.03515625,-32.71484375
-27.34375,-41.9921875,-43.9453125,-34.66796875
50.29296875,80.078125,-39.55078125,-61.03515625
-21.97265625,38.57421875,-46.875,-64.94140625
-122.55859375,-85.9375,-53.22265625,-48.33984375
-147.94921875,-159.1796875,-52.24609375,-55.6640625
-39.0625,-66.40625,-41.015625,-62.01171875
51.26953125,55.6640625,-35.15625,-65.4296875
-0.48828125,46.38671875,-39.0625,-66.89453125
-108.88671875,-67.87109375,-46.875,-49.8046875
-153.3203125,-153.80859375,-51.26953125,-26.85546875
-55.17578125,-84.47265625,-48.828125,-33.69140625
45.8984375,45.8984375,-36.62109375,-53.7109375
16.6015625,57.6171875,-36.1328125,-61.03515625
-95.21484375,-67.87109375,-52.24609375,-48.33984375
-145.99609375,-163.57421875,-51.26953125,-18.5546875
-55.17578125,-94.23828125,-36.1328125,-14.6484375
41.015625,39.55078125,-34.1796875,-36.1328125
28.3203125,64.94140625,-39.55078125,-52.24609375
-77.63671875,-44.43359375,-47.36328125,-45.41015625
-143.06640625,-155.76171875,-50.29296875,-21.484375
-68.359375,-113.28125,-42.96875,-9.27734375
34.66796875,18.5546875,-41.015625,-29.296875
34.66796875,61.5234375,-42.96875,-63.4765625
-67.3828125,-37.59765625,-47.8515625,-56.15234375
-138.671875,-150.390625,-47.8515625,-30.76171875
-92.28515625,-133.30078125,-45.41015625,-34.1796875
14.6484375,1.46484375,-38.57421875,-58.59375
34.1796875,74.70703125,-39.0625,-73.73046875
-64.453125,-18.5546875,-48.828125,-60.546875
-140.625,-132.32421875,-54.19921875,-41.9921875
-112.79296875,-135.7421875,-57.6171875,-39.0625
-2.44140625,-12.20703125,-50.29296875,-52.734375
35.15625,71.2890625,-44.43359375,-68.84765625
-57.12890625,-11.71875,-52.734375,-62.01171875
-129.39453125,-133.7890625,-59.08203125,-34.1796875
-116.69921875,-157.71484375,-50.29296875,-18.5546875
-17.578125,-32.71484375,-38.0859375,-39.0625
45.8984375,71.2890625,-33.203125,-58.59375
-35.64453125,9.765625,-37.109375,-48.33984375
-127.44140625,-117.67578125,-44.43359375,-27.34375
-130.37109375,-164.0625,-45.8984375,-22.94921875
-12.20703125,-41.9921875,-39.55078125,-37.59765625
63.96484375,75.68359375,-34.66796875,-54.19921875
-8.7890625,27.34375,-43.45703125,-64.94140625
-109.375,-100.5859375,-54.19921875,-46.875
-128.41796875,-166.015625,-54.6875,-27.83203125
-19.04296875,-63.4765625,-47.36328125,-37.109375
62.5,58.10546875,-37.109375,-62.5
5.859375,33.203125,-38.0859375,-70.3125
-104.98046875,-92.28515625,-48.828125,-48.828125
-145.5078125,-169.921875,-47.8515625,-20.5078125
-46.38671875,-73.73046875,-40.0390625,-28.3203125
41.9921875,61.03515625,-35.64453125,-52.734375
4.8828125,57.12890625,-35.64453125,-62.5
-100.5859375,-68.84765625,-43.9453125,-50.29296875
-148.92578125,-168.45703125,-51.26953125,-26.85546875
-58.59375,-101.5625,-46.875,-33.69140625
35.15625,29.78515625,-39.0625,-59.08203125
13.671875,52.734375,-40.0390625,-63.4765625
-88.37890625,-58.10546875,-44.921875,-39.55078125
-145.5078125,-160.15625,-48.828125,-20.99609375
-60.546875,-104.4921875,-43.45703125,-35.64453125
44.921875,31.73828125,-35.15625,-61.5234375
44.43359375,70.3125,-33.203125,-72.75390625
-57.12890625,-42.48046875,-39.55078125,-50.78125
-131.8359375,-151.85546875,-45.8984375,-14.16015625
-73.73046875,-121.58203125,-47.8515625,-11.71875
30.76171875,6.34765625,-42.48046875,-31.73828125
44.921875,71.2890625,-38.57421875,-49.31640625
-54.19921875,-19.04296875,-43.9453125,-50.78125
-138.671875,-142.578125,-48.828125,-39.0625
-94.7265625,-139.16015625,-47.8515625,-33.69140625
20.5078125,-2.44140625,-40.0390625,-60.546875
50.29296875,79.1015625,-35.64453125,-75.1953125
-41.9921875,-2.9296875,-41.50390625,-60.546875
-135.25390625,-135.25390625,-56.15234375,-49.31640625
-124.51171875,-161.1328125,-53.7109375,-39.55078125
-3.41796875,-20.01953125,-37.109375,-48.828125
47.8515625,81.0546875,-33.203125,-73.73046875
-42.48046875,1.953125,-38.57421875,-63.96484375
-112.79296875,-118.65234375,-45.8984375,-21.484375
-108.3984375,-145.01953125,-44.921875,-13.18359375
-15.13671875,-26.85546875,-39.0625,-43.45703125
43.45703125,85.9375,-43.45703125,-70.3125
-27.34375,39.0625,-51.26953125,-59.5703125
-121.09375,-84.9609375,-58.59375,-31.73828125
-138.671875,-141.6015625,-62.98828125,-21.97265625
-26.85546875,-27.83203125,-57.6171875,-24.4140625
50.78125,97.65625,-52.734375,-39.0625
-8.30078125,62.01171875,-61.03515625,-48.33984375
-109.86328125,-68.359375,-68.84765625,-41.9921875
-143.06640625,-144.53125,-67.87109375,-45.8984375
-34.1796875,-44.921875,-58.59375,-66.89453125
58.59375,82.51953125,-44.43359375,-73.73046875
7.8125,63.96484375,-51.7578125,-65.91796875
-100.5859375,-63.4765625,-62.98828125,-47.8515625
-141.11328125,-149.4140625,-56.640625,-27.83203125
-47.8515625,-71.77734375,-49.8046875,-31.73828125
40.52734375,61.5234375,-50.29296875,-64.453125
8.7890625,76.171875,-52.24609375,-81.54296875
-96.6796875,-43.9453125,-52.24609375,-62.01171875
-153.3203125,-147.94921875,-52.734375,-30.2734375
-71.77734375,-91.796875,-45.8984375,-30.76171875
25.87890625,43.45703125,-39.55078125,-56.640625
16.6015625,79.1015625,-45.8984375,-68.359375
-87.890625,-38.57421875,-57.6171875,-49.31640625
-155.2734375,-150.87890625,-59.5703125,-32.71484375
-82.51953125,-112.79296875,-52.24609375,-35.15625
24.4140625,18.5546875,-47.36328125,-49.31640625
25.87890625,66.40625,-51.26953125,-73.2421875
-76.171875,-35.15625,-58.10546875,-66.89453125
-144.04296875,-142.578125,-55.17578125,-40.52734375
-89.84375,-124.51171875,-52.734375,-31.73828125
15.13671875,5.859375,-54.19921875,-48.33984375
41.9921875,73.73046875,-55.6640625,-62.98828125
-47.36328125,-15.13671875,-56.640625,-58.59375
-124.51171875,-122.55859375,-56.640625,-42.96875
-97.65625,-136.71875,-62.5,-41.015625
12.20703125,-15.13671875,-58.59375,-53.22265625
57.12890625,80.56640625,-46.38671875,-64.453125
-34.1796875,1.953125,-52.24609375,-61.5234375
-120.1171875,-118.65234375,-57.6171875,-38.57421875
-110.83984375,-146.97265625,-52.24609375,-30.2734375
-0.9765625,-34.66796875,-44.43359375,-45.41015625
50.78125,67.87109375,-44.43359375,-62.98828125
-32.2265625,9.765625,-47.36328125,-61.5234375
-121.09375,-116.69921875,-49.31640625,-36.62109375
-127.44140625,-158.69140625,-47.8515625,-18.06640625
-16.6015625,-36.1328125,-41.015625,-37.109375
46.38671875,69.82421875,-48.828125,-67.3828125
-25.390625,17.08984375,-54.19921875,-64.94140625
-118.65234375,-99.609375,-51.7578125,-39.55078125
-141.6015625,-158.69140625,-53.22265625,-27.34375
-39.0625,-60.05859375,-45.41015625,-34.1796875
40.0390625,58.59375,-36.62109375,-59.5703125
-16.6015625,44.43359375,-41.50390625,-73.73046875
-119.140625,-73.2421875,-51.26953125,-54.19921875
-151.3671875,-150.390625,-53.22265625,-33.69140625
-53.22265625,-68.84765625,-46.38671875,-38.0859375
38.57421875,56.15234375,-35.64453125,-52.24609375
-3.90625,58.10546875,-36.1328125,-53.22265625
-116.2109375,-65.91796875,-44.43359375,-25.87890625
-157.71484375,-165.52734375,-51.26953125,-9.765625
-64.453125,-98.6328125,-45.41015625,-37.59765625
38.57421875,35.15625,-36.62109375,-66.89453125
26.85546875,52.734375,-40.0390625,-70.80078125
-78.125,-57.12890625,-42.96875,-48.33984375
-144.04296875,-151.3671875,-44.43359375,-24.4140625
-74.21875,-107.91015625,-46.38671875,-26.3671875
30.76171875,20.99609375,-46.38671875,-53.7109375
31.25,64.94140625,-43.9453125,-68.359375
-72.75390625,-46.38671875,-47.8515625,-53.22265625
-138.671875,-152.34375,-53.22265625,-22.4609375
-80.078125,-126.46484375,-47.8515625,-18.06640625
28.3203125,3.90625,-35.64453125,-40.0390625
49.31640625,71.77734375,-31.25,-53.7109375
-54.19921875,-23.4375,-39.0625,-52.24609375
-132.32421875,-138.18359375,-46.875,-30.76171875
-95.703125,-133.7890625,-44.921875,-16.11328125
11.23046875,-5.37109375,-35.15625,-33.203125
49.31640625,72.265625,-35.15625,-54.19921875
-36.1328125,-14.16015625,-44.43359375,-52.24609375
-112.79296875,-127.9296875,-50.78125,-37.109375
-99.12109375,-144.53125,-53.7109375,-23.92578125
3.41796875,-22.4609375,-47.8515625,-43.45703125
46.875,73.2421875,-48.828125,-72.265625
-36.1328125,5.859375,-50.78125,-63.96484375
-122.0703125,-114.2578125,-55.17578125,-33.69140625
-120.60546875,-151.85546875,-60.546875,-10.25390625
-9.27734375,-36.1328125,-50.78125,-21.97265625
50.29296875,65.91796875,-45.8984375,-50.78125
-18.5546875,19.53125,-50.78125,-53.22265625
-106.4453125,-96.6796875,-55.17578125,-40.52734375
-120.60546875,-148.92578125,-57.12890625,-39.55078125
-21.97265625,-48.828125,-50.78125,-57.6171875
45.8984375,61.03515625,-43.9453125,-80.078125
-13.671875,36.62109375,-46.38671875,-81.0546875
-112.79296875,-86.42578125,-61.5234375,-54.6875
-142.08984375,-163.0859375,-65.91796875,-33.203125
-40.0390625,-76.171875,-55.17578125,-38.57421875
41.50390625,47.36328125,-48.828125,-66.40625
0.0,48.828125,-50.78125,-71.77734375
-103.515625,-70.80078125,-54.6875,-50.78125
-150.390625,-158.69140625,-54.19921875,-28.80859375
-55.6640625,-85.44921875,-44.43359375,-28.80859375
34.66796875,41.015625,-39.0625,-51.26953125
13.18359375,53.22265625,-42.48046875,-56.15234375
-83.984375,-63.96484375,-46.38671875,-33.69140625
-141.6015625,-157.71484375,-53.22265625,-8.7890625
-59.08203125,-97.16796875,-49.8046875,-13.671875
31.25,24.4140625,-50.78125,-44.921875
20.99609375,53.7109375,-59.08203125,-68.359375
-62.98828125,-45.41015625,-56.640625,-64.453125
-123.046875,-150.390625,-51.7578125,-36.1328125
-58.59375,-110.3515625,-46.875,-32.2265625
44.921875,24.90234375,-39.55078125,-59.08203125
41.9921875,73.2421875,-41.50390625,-81.0546875
-61.03515625,-25.87890625,-50.78125,-77.1484375
-133.30078125,-129.8828125,-46.875,-42.96875
-93.75,-124.0234375,-42.48046875,-30.76171875
18.06640625,3.90625,-36.1328125,-53.22265625
46.875,74.70703125,-38.0859375,-69.3359375
-53.22265625,-26.3671875,-45.8984375,-56.15234375
-125.0,-134.27734375,-45.8984375,-22.4609375
-92.28515625,-136.71875,-46.38671875,-11.71875
12.20703125,-17.08984375,-42.96875,-37.59765625
47.8515625,65.4296875,-41.9921875,-62.98828125
-46.38671875,-7.32421875,-50.29296875,-48.828125
-131.34765625,-122.0703125,-55.17578125,-26.3671875
-118.1640625,-152.34375,-50.78125,-41.50390625
-4.8828125,-27.83203125,-37.59765625,-66.89453125
51.26953125,78.125,-37.109375,-84.47265625
-31.25,22.4609375,-48.828125,-94.7265625
-120.1171875,-102.05078125,-58.59375,-68.84765625
-129.39453125,-165.0390625,-60.05859375,-48.828125
-16.6015625,-51.26953125,-45.8984375,-58.10546875
58.59375,68.84765625,-41.9921875,-73.73046875
-6.34765625,28.3203125,-48.33984375,-68.359375
-103.02734375,-97.16796875,-48.33984375,-36.62109375
-130.859375,-169.43359375,-49.31640625,-15.13671875
-32.71484375,-74.21875,-53.22265625,-25.390625
50.78125,53.22265625,-53.22265625,-41.50390625
2.44140625,41.015625,-56.640625,-37.59765625
-108.88671875,-84.47265625,-59.08203125,-20.01953125
-160.64453125,-172.8515625,-55.17578125,-23.4375
-73.2421875,-95.21484375,-47.36328125,-55.6640625
21.97265625,27.83203125,-39.55078125,-84.47265625
-8.30078125,37.59765625,-33.69140625,-91.796875
-108.3984375,-84.47265625,-39.55078125,-61.03515625
-159.66796875,-186.5234375,-50.78125,-36.62109375
-74.70703125,-111.328125,-46.38671875,-42.96875
27.34375,21.97265625,-39.0625,-61.03515625
17.578125,53.7109375,-41.50390625,-68.84765625
-77.1484375,-48.828125,-53.7109375,-43.9453125
-133.7890625,-150.87890625,-59.5703125,-21.484375
-70.80078125,-113.76953125,-50.78125,-29.78515625
26.85546875,8.7890625,-42.96875,-50.78125
32.71484375,53.22265625,-41.50390625,-61.5234375
-62.01171875,-49.31640625,-42.96875,-44.43359375
-134.765625,-159.1796875,-46.38671875,-13.18359375
-86.42578125,-137.20703125,-43.9453125,-11.71875
19.53125,1.46484375,-34.1796875,-33.203125
37.59765625,65.4296875,-36.1328125,-55.17578125
-59.08203125,-29.78515625,-48.828125,-65.91796875
-133.30078125,-142.578125,-56.15234375,-45.8984375
-98.14453125,-137.20703125,-57.12890625,-37.109375
10.7421875,-8.7890625,-50.78125,-62.01171875
44.43359375,64.453125,-45.8984375,-77.1484375
-50.29296875,-16.6015625,-44.43359375,-64.94140625
-132.8125,-130.859375,-48.828125,-37.59765625
-117.1875,-157.2265625,-50.78125,-22.94921875
-10.25390625,-33.69140625,-46.875,-44.43359375
41.50390625,63.96484375,-47.8515625,-67.3828125
-37.109375,-0.9765625,-51.26953125,-59.08203125
-120.1171875,-116.2109375,-55.6640625,-30.2734375
-120.1171875,-161.62109375,-54.6875,-21.97265625
-12.6953125,-47.36328125,-40.52734375,-42.48046875
48.828125,64.453125,-35.64453125,-68.84765625
-24.4140625,13.671875,-41.9921875,-69.3359375
-114.2578125,-106.93359375,-48.828125,-40.0390625
-134.765625,-163.0859375,-52.24609375,-16.6015625
-38.57421875,-57.6171875,-47.36328125,-35.64453125
36.62109375,63.4765625,-41.9921875,-67.87109375
-18.5546875,32.2265625,-46.875,-76.171875
-113.28125,-97.16796875,-56.15234375,-60.05859375
-137.20703125,-173.828125,-56.15234375,-37.109375
-36.1328125,-76.66015625,-49.31640625,-34.66796875
50.29296875,56.15234375,-41.50390625,-45.8984375
-2.44140625,44.921875,-39.0625,-63.96484375
-116.2109375,-83.0078125,-44.921875,-57.12890625
-157.71484375,-172.36328125,-48.828125,-41.50390625
-67.3828125,-98.6328125,-41.50390625,-44.43359375
23.4375,35.15625,-39.55078125,-67.3828125
11.23046875,59.08203125,-41.015625,-77.63671875
-91.30859375,-62.98828125,-49.31640625,-64.453125
-155.2734375,-163.57421875,-52.734375,-41.015625
-79.1015625,-104.98046875,-42.96875,-30.2734375
20.99609375,27.83203125,-34.1796875,-53.22265625
17.578125,66.40625,-38.57421875,-72.265625
-82.51953125,-44.921875,-49.31640625,-51.26953125
-151.3671875,-154.296875,-51.26953125,-32.2265625
-94.23828125,-121.09375,-45.8984375,-34.1796875
10.7421875,5.37109375,-38.57421875,-56.15234375
23.4375,60.05859375,-38.57421875,-72.265625
-66.89453125,-24.90234375,-41.50390625,-45.8984375
-136.71875,-138.18359375,-48.33984375,-16.6015625
-98.6328125,-142.08984375,-52.734375,-19.53125
5.859375,-8.7890625,-42.48046875,-44.921875
37.109375,72.75390625,-35.15625,-68.359375
-50.29296875,-13.671875,-40.52734375,-62.01171875
-133.30078125,-137.20703125,-42.48046875,-29.78515625
-114.74609375,-153.3203125,-44.43359375,-19.04296875
1.46484375,-19.53125,-41.9921875,-37.109375
49.8046875,72.75390625,-38.0859375,-59.5703125
-39.0625,-6.34765625,-45.41015625,-62.5
-128.41796875,-129.8828125,-49.31640625,-39.55078125
-121.09375,-159.1796875,-45.8984375,-34.1796875
-15.625,-39.55078125,-41.9921875,-55.6640625
37.109375,65.4296875,-39.0625,-72.265625
-29.78515625,15.625,-34.66796875,-57.12890625
-112.79296875,-103.02734375,-40.52734375,-16.6015625
-127.44140625,-164.0625,-44.921875,-1.953125
-17.578125,-56.640625,-38.0859375,-26.85546875
60.05859375,66.40625,-32.2265625,-50.78125
0.48828125,31.25,-35.15625,-52.24609375
-90.33203125,-93.26171875,-39.0625,-32.71484375
-120.1171875,-162.59765625,-38.0859375,-14.16015625
-22.94921875,-67.87109375,-33.69140625,-25.87890625
60.546875,58.59375,-32.71484375,-50.78125
4.8828125,40.52734375,-40.0390625,-53.7109375
-109.375,-85.9375,-51.7578125,-38.0859375
-150.87890625,-165.52734375,-52.24609375,-17.08984375
-53.22265625,-88.8671875,-43.45703125,-21.484375
39.0625,42.48046875,-40.0390625,-57.12890625
6.8359375,57.6171875,-46.875,-73.73046875
-96.6796875,-61.5234375,-56.15234375,-50.78125
-148.92578125,-159.66796875,-59.08203125,-13.18359375
-63.96484375,-102.5390625,-56.15234375,-10.7421875
35.15625,28.80859375,-43.45703125,-41.015625
25.87890625,66.89453125,-37.59765625,-66.89453125
-77.63671875,-42.96875,-45.41015625,-69.3359375
-149.4140625,-162.59765625,-54.6875,-46.875
-79.1015625,-124.0234375,-45.8984375,-28.3203125
20.5078125,18.06640625,-32.71484375,-38.0859375
31.73828125,68.84765625,-34.66796875,-58.59375
-63.96484375,-34.1796875,-45.8984375,-62.01171875
-142.578125,-146.97265625,-52.734375,-39.0625
-93.75,-128.90625,-47.36328125,-26.3671875
8.7890625,1.46484375,-42.48046875,-46.38671875
27.83203125,72.75390625,-44.43359375,-69.3359375
-64.453125,-19.53125,-50.29296875,-65.4296875
-135.25390625,-142.578125,-52.734375,-26.3671875
-106.93359375,-143.06640625,-53.22265625,-14.6484375
0.9765625,-9.765625,-47.36328125,-48.33984375
46.875,79.1015625,-36.62109375,-70.80078125
-40.52734375,2.9296875,-35.64453125,-62.98828125
-125.0,-119.62890625,-44.43359375,-39.55078125
-113.28125,-148.92578125,-42.96875,-27.83203125
2.44140625,-19.04296875,-31.73828125,-37.109375
65.4296875,78.125,-30.76171875,-52.734375
-18.5546875,7.8125,-40.0390625,-53.22265625
-114.2578125,-112.79296875,-52.734375,-37.59765625
-121.58203125,-159.66796875,-49.8046875,-35.64453125
-14.16015625,-42.96875,-41.015625,-51.26953125
51.26953125,72.265625,-41.015625,-76.66015625
-17.578125,27.34375,-43.45703125,-75.1953125
-118.1640625,-101.07421875,-52.734375,-41.015625
-146.484375,-169.921875,-62.98828125,-24.90234375
-45.8984375,-69.82421875,-61.03515625,-47.8515625
45.41015625,63.96484375,-48.33984375,-66.40625
-4.8828125,47.36328125,-49.31640625,-69.82421875
-111.328125,-83.984375,-56.15234375,-52.734375
-145.99609375,-162.109375,-53.22265625,-27.34375
-46.875,-66.40625,-43.45703125,-30.76171875
45.8984375,60.05859375,-35.64453125,-56.15234375
4.8828125,48.33984375,-40.0390625,-76.171875
-105.95703125,-70.3125,-55.17578125,-67.87109375
-149.4140625,-159.1796875,-62.98828125,-47.8515625
-60.05859375,-96.19140625,-55.17578125,-41.50390625
32.2265625,30.2734375,-51.26953125,-62.01171875
18.5546875,55.6640625,-51.26953125,-77.1484375
-77.63671875,-52.734375,-50.78125,-50.29296875
-134.27734375,-154.296875,-52.24609375,-18.5546875
-63.96484375,-112.79296875,-50.29296875,-11.71875
33.203125,15.625,-44.43359375,-36.1328125
30.76171875,67.87109375,-42.96875,-58.10546875
-72.75390625,-37.109375,-47.8515625,-43.9453125
-140.13671875,-148.4375,-54.19921875,-28.3203125
-83.49609375,-118.1640625,-48.33984375,-35.15625
23.92578125,14.16015625,-36.62109375,-55.6640625
33.69140625,68.84765625,-39.0625,-72.265625
-70.3125,-35.15625,-50.29296875,-61.03515625
-145.99609375,-150.390625,-54.19921875,-31.25
-100.5859375,-141.6015625,-53.22265625,-27.83203125
15.13671875,-6.34765625,-46.38671875,-56.15234375
46.38671875,78.61328125,-42.48046875,-79.1015625
-46.38671875,-3.41796875,-47.36328125,-70.80078125
-127.44140625,-125.9765625,-52.24609375,-54.19921875
-109.86328125,-146.484375,-51.26953125,-48.33984375
-0.9765625,-21.97265625,-41.9921875,-60.546875
52.24609375,73.2421875,-34.1796875,-74.70703125
-34.1796875,3.90625,-38.57421875,-62.5
-130.37109375,-123.53515625,-49.8046875,-41.015625
-131.34765625,-160.15625,-51.26953125,-21.97265625
-9.765625,-36.62109375,-39.55078125,-38.0859375
56.15234375,68.359375,-37.59765625,-72.75390625
-20.99609375,11.71875,-43.9453125,-71.2890625
-110.3515625,-109.375,-45.41015625,-40.0390625
-127.44140625,-163.57421875,-44.921875,-13.671875
-21.97265625,-59.08203125,-39.55078125,-26.85546875
56.640625,61.5234375,-34.66796875,-55.17578125
-9.765625,27.83203125,-40.52734375,-56.15234375
-110.83984375,-93.26171875,-43.45703125,-29.78515625
-131.8359375,-159.1796875,-41.9921875,-8.7890625
-32.2265625,-75.68359375,-41.015625,-25.390625
57.12890625,49.31640625,-36.62109375,-59.08203125
11.71875,41.015625,-41.50390625,-74.21875
-101.5625,-81.54296875,-50.29296875,-63.4765625
-143.5546875,-165.0390625,-57.12890625,-47.8515625
-47.36328125,-92.28515625,-51.7578125,-43.9453125
49.8046875,42.48046875,-37.109375,-50.78125
21.97265625,62.98828125,-36.62109375,-49.8046875
-86.9140625,-62.01171875,-47.8515625,-36.62109375
-141.6015625,-165.0390625,-52.734375,-24.90234375
-63.96484375,-104.98046875,-44.43359375,-32.71484375
34.1796875,23.4375,-44.921875,-68.84765625
20.99609375,46.875,-47.8515625,-84.47265625
-81.54296875,-58.59375,-55.17578125,-58.10546875
-144.04296875,-155.2734375,-61.03515625,-30.2734375
-81.0546875,-121.09375,-55.6640625,-29.78515625
23.4375,15.625,-48.828125,-53.22265625
32.71484375,68.84765625,-45.8984375,-66.89453125
-62.98828125,-30.2734375,-48.828125,-52.24609375
-139.16015625,-142.578125,-57.12890625,-33.69140625
-88.8671875,-136.23046875,-53.7109375,-34.66796875
24.90234375,-0.48828125,-39.0625,-48.828125
53.7109375,81.0546875,-40.52734375,-57.6171875
-48.828125,-15.625,-47.8515625,-52.734375
-141.11328125,-142.08984375,-50.78125,-41.50390625
-119.140625,-149.90234375,-51.7578125,-33.203125
-11.71875,-22.4609375,-44.921875,-54.19921875
32.2265625,65.91796875,-38.0859375,-80.56640625
-47.8515625,-10.25390625,-43.45703125,-71.77734375
-128.90625,-126.46484375,-53.7109375,-54.19921875
-128.41796875,-155.2734375,-51.26953125,-36.1328125
-18.5546875,-35.15625,-41.50390625,-46.38671875
42.96875,71.2890625,-41.50390625,-72.265625
-34.1796875,14.6484375,-47.8515625,-62.98828125
-125.48828125,-105.46875,-55.17578125,-36.1328125
-133.30078125,-157.71484375,-56.15234375,-21.484375
-21.484375,-48.33984375,-46.875,-34.1796875
52.734375,64.94140625,-40.52734375,-61.5234375
-15.625,21.484375,-49.31640625,-66.40625
-111.81640625,-100.09765625,-58.10546875,-45.8984375
-134.765625,-168.45703125,-60.05859375,-36.62109375
-31.73828125,-71.77734375,-53.22265625,-51.26953125
49.8046875,53.22265625,-49.31640625,-66.40625
2.9296875,42.96875,-49.8046875,-68.359375
-103.02734375,-79.1015625,-54.19921875,-45.8984375
-147.4609375,-165.52734375,-62.5,-23.4375
-52.24609375,-78.125,-56.640625,-28.80859375
32.2265625,42.48046875,-52.24609375,-48.828125
7.32421875,47.8515625,-50.29296875,-54.6875
-89.84375,-67.3828125,-53.7109375,-41.015625
-147.94921875,-164.0625,-62.5,-30.76171875
-61.03515625,-98.14453125,-53.7109375,-44.43359375
42.48046875,33.69140625,-46.875,-67.87109375
28.80859375,62.98828125,-50.29296875,-69.82421875
-79.58984375,-53.7109375,-55.6640625,-47.8515625
-140.625,-160.15625,-56.640625,-25.87890625
-69.82421875,-114.74609375,-47.8515625,-33.203125
28.80859375,20.99609375,-40.52734375,-57.6171875
32.71484375,74.70703125,-41.50390625,-73.73046875
-69.3359375,-27.34375,-47.8515625,-60.546875
-140.625,-145.01953125,-49.8046875,-27.34375
-95.21484375,-134.765625,-49.31640625,-18.5546875
13.671875,-0.9765625,-40.0390625,-42.96875
39.55078125,76.66015625,-30.76171875,-65.4296875
-58.10546875,-12.20703125,-37.59765625,-60.546875
-130.37109375,-132.8125,-43.45703125,-38.0859375
-97.65625,-139.16015625,-42.48046875,-27.34375
15.625,-4.8828125,-32.2265625,-40.0390625
55.6640625,82.03125,-28.3203125,-52.24609375
-35.15625,0.0,-41.9921875,-43.9453125
-120.60546875,-115.72265625,-45.41015625,-20.99609375
-104.00390625,-136.23046875,-38.57421875,-10.7421875
12.20703125,-17.578125,-34.66796875,-36.62109375
58.59375,74.70703125,-40.0390625,-62.98828125
-27.83203125,10.25390625,-46.38671875,-52.734375
-117.67578125,-110.83984375,-43.9453125,-28.80859375
-128.41796875,-157.71484375,-45.41015625,-20.5078125
-15.13671875,-45.8984375,-40.52734375,-38.57421875
56.640625,65.91796875,-38.57421875,-78.125
-15.13671875,25.87890625,-49.31640625,-89.84375
-114.74609375,-104.4921875,-58.59375,-62.98828125
-136.23046875,-167.48046875,-56.15234375,-38.0859375
-27.34375,-52.734375,-46.875,-44.921875
50.29296875,75.68359375,-41.015625,-67.87109375
-7.32421875,44.921875,-46.38671875,-63.96484375
-113.76953125,-87.890625,-51.7578125,-38.0859375
-146.97265625,-163.57421875,-50.78125,-13.18359375
-44.43359375,-75.1953125,-46.38671875,-20.99609375
48.828125,51.26953125,-38.0859375,-44.43359375
10.25390625,44.43359375,-39.55078125,-57.12890625
-97.65625,-84.47265625,-49.8046875,-43.45703125
-147.4609375,-170.8984375,-50.29296875,-22.94921875
-64.94140625,-95.703125,-41.50390625,-34.66796875
28.3203125,29.78515625,-38.0859375,-70.80078125
13.671875,59.5703125,-42.48046875,-74.21875
-92.28515625,-50.29296875,-49.8046875,-45.8984375
-165.0390625,-172.36328125,-65.91796875,-49.31640625
-84.9609375,-124.51171875,-60.546875,-55.17578125
26.3671875,17.578125,-44.921875,-68.359375
21.97265625,64.94140625,-45.8984375,-83.984375
-85.9375,-35.15625,-55.17578125,-66.40625
-145.5078125,-147.4609375,-60.546875,-30.76171875
-78.125,-124.51171875,-56.15234375,-19.53125
18.5546875,4.8828125,-47.36328125,-54.6875
36.1328125,62.98828125,-39.0625,-70.80078125
-56.15234375,-29.296875,-40.0390625,-52.24609375
-142.08984375,-139.16015625,-46.875,-31.73828125
-107.91015625,-148.4375,-49.31640625,-37.59765625
10.7421875,-23.92578125,-40.52734375,-56.640625
44.921875,68.84765625,-37.59765625,-69.82421875
-52.24609375,-16.6015625,-51.7578125,-67.3828125
-143.06640625,-141.6015625,-54.19921875,-39.0625
-121.58203125,-157.71484375,-48.828125,-21.484375
1.46484375,-27.34375,-41.9921875,-38.0859375
54.19921875,74.21875,-36.1328125,-56.15234375
-39.0625,4.39453125,-40.52734375,-45.8984375
-137.6953125,-121.09375,-48.828125,-24.90234375
-136.71875,-163.0859375,-48.828125,-11.71875
-25.87890625,-43.9453125,-43.45703125,-34.66796875
38.0859375,69.82421875,-44.43359375,-72.265625
-40.0390625,14.6484375,-51.26953125,-73.73046875
-137.20703125,-110.83984375,-53.7109375,-56.640625
-145.99609375,-173.33984375,-54.6875,-48.33984375
-34.66796875,-71.2890625,-48.828125,-58.10546875
46.38671875,54.6875,-39.0625,-78.61328125
-13.18359375,31.73828125,-41.9921875,-87.40234375
-121.58203125,-96.6796875,-55.6640625,-66.89453125
-155.76171875,-175.29296875,-60.05859375,-44.921875
-40.52734375,-74.70703125,-48.828125,-46.875
53.22265625,56.15234375,-43.9453125,-63.96484375
-0.48828125,49.8046875,-43.9453125,-66.89453125
-111.328125,-78.125,-49.8046875,-43.45703125
-151.85546875,-173.33984375,-51.26953125,-14.6484375
-54.6875,-91.796875,-42.48046875,-22.94921875
37.59765625,36.62109375,-40.52734375,-53.7109375
12.6953125,49.31640625,-41.50390625,-65.4296875
-93.26171875,-66.40625,-47.8515625,-50.29296875
-153.80859375,-163.57421875,-51.26953125,-23.4375
-69.3359375,-106.93359375,-48.33984375,-30.76171875
31.25,23.4375,-44.921875,-61.5234375
23.92578125,61.03515625,-45.8984375,-77.1484375
-84.47265625,-53.22265625,-55.6640625,-65.91796875
-161.62109375,-164.0625,-59.08203125,-33.69140625
-94.23828125,-118.65234375,-58.59375,-25.390625
18.5546875,19.53125,-48.828125,-49.31640625
31.25,71.77734375,-42.48046875,-72.75390625
-74.21875,-31.73828125,-51.7578125,-70.80078125
-152.34375,-141.11328125,-53.22265625,-47.8515625
-102.05078125,-127.44140625,-53.22265625,-46.38671875
12.6953125,0.48828125,-47.36328125,-70.3125
44.43359375,78.61328125,-46.38671875,-89.84375
-54.6875,-6.8359375,-51.26953125,-77.63671875
-151.3671875,-129.8828125,-49.8046875,-47.36328125
-122.0703125,-136.23046875,-45.8984375,-35.64453125
-3.41796875,-3.90625,-37.109375,-51.7578125
44.921875,79.1015625,-30.76171875,-67.87109375
-43.45703125,-6.34765625,-40.52734375,-63.4765625
-140.13671875,-137.6953125,-50.78125,-35.15625
-123.53515625,-168.45703125,-45.8984375,-26.85546875
9.765625,-29.78515625,-31.25,-42.48046875
67.87109375,79.1015625,-31.25,-62.01171875
-18.06640625,14.6484375,-45.41015625,-59.5703125
-114.2578125,-104.98046875,-51.7578125,-36.62109375
-127.44140625,-150.87890625,-46.38671875,-23.92578125
-14.16015625,-46.38671875,-37.59765625,-41.50390625
55.17578125,58.59375,-37.59765625,-70.80078125
-17.08984375,21.484375,-46.38671875,-70.3125
-127.9296875,-104.00390625,-55.6640625,-48.828125
-154.296875,-170.8984375,-63.96484375,-42.96875
-36.62109375,-66.89453125,-59.5703125,-54.19921875
43.45703125,50.78125,-42.48046875,-72.75390625
-26.85546875,25.390625,-40.52734375,-92.7734375
-130.859375,-91.796875,-51.26953125,-77.63671875
-163.57421875,-165.52734375,-50.29296875,-46.38671875
-64.94140625,-85.9375,-41.50390625,-54.19921875
29.78515625,43.9453125,-38.0859375,-82.03125
-4.8828125,47.36328125,-39.55078125,-89.84375
-115.234375,-83.49609375,-48.33984375,-63.4765625
-166.9921875,-173.33984375,-54.6875,-30.2734375
-78.125,-103.515625,-46.875,-33.203125
16.11328125,16.11328125,-45.41015625,-62.5
4.39453125,43.45703125,-45.41015625,-73.73046875
-92.28515625,-56.640625,-42.96875,-49.31640625
-153.3203125,-159.1796875,-42.48046875,-18.5546875
-77.63671875,-117.67578125,-38.0859375,-23.4375
33.203125,15.13671875,-33.203125,-66.89453125
41.9921875,70.80078125,-31.25,-81.54296875
-62.01171875,-32.71484375,-38.57421875,-58.59375
-141.6015625,-149.4140625,-48.33984375,-34.66796875
-85.9375,-125.48828125,-44.921875,-31.25
27.34375,11.71875,-37.109375,-48.828125
43.9453125,75.1953125,-43.45703125,-68.359375
-64.94140625,-32.2265625,-55.17578125,-67.3828125
-145.99609375,-146.484375,-50.78125,-36.1328125
-105.95703125,-136.71875,-43.45703125,-20.99609375
11.23046875,-8.30078125,-43.45703125,-51.26953125
47.8515625,69.82421875,-42.96875,-75.1953125
-48.33984375,-13.18359375,-50.78125,-69.82421875
-137.20703125,-130.37109375,-54.6875,-43.9453125
-127.44140625,-148.92578125,-57.12890625,-28.80859375
-3.41796875,-25.87890625,-53.7109375,-48.828125
60.05859375,68.84765625,-41.9921875,-70.80078125
-27.83203125,7.8125,-45.41015625,-71.2890625
-120.1171875,-109.86328125,-56.640625,-45.8984375
-117.1875,-149.4140625,-54.6875,-18.5546875
1.46484375,-31.73828125,-44.43359375,-28.3203125
69.82421875,74.70703125,-41.9921875,-50.78125
-4.8828125,27.83203125,-47.36328125,-57.6171875
-105.46875,-88.8671875,-54.6875,-40.0390625
-122.0703125,-145.99609375,-56.640625,-17.578125
-7.32421875,-50.78125,-49.8046875,-31.25
76.66015625,69.82421875,-41.015625,-53.7109375
6.34765625,32.71484375,-46.38671875,-45.8984375
-104.00390625,-98.14453125,-51.7578125,-21.97265625
-127.44140625,-157.71484375,-50.78125,-12.20703125
-20.99609375,-65.91796875,-52.24609375,-28.80859375
69.82421875,51.26953125,-51.26953125,-61.5234375
22.94921875,35.15625,-52.24609375,-73.2421875
-89.84375,-88.8671875,-53.7109375,-45.41015625
-132.8125,-165.52734375,-52.734375,-6.8359375
-40.52734375,-84.9609375,-50.29296875,-16.6015625
51.26953125,41.50390625,-44.921875,-43.9453125
26.3671875,53.7109375,-46.38671875,-53.22265625
-89.35546875,-68.84765625,-55.6640625,-39.0625
-149.90234375,-161.1328125,-57.12890625,-16.6015625
-62.01171875,-104.4921875,-51.7578125,-26.3671875
47.8515625,30.76171875,-44.43359375,-53.7109375
43.45703125,70.80078125,-38.57421875,-66.89453125
-68.359375,-46.875,-42.96875,-53.7109375
-144.04296875,-148.92578125,-45.8984375,-21.484375
-81.54296875,-117.1875,-49.31640625,-18.5546875
28.3203125,4.8828125,-49.31640625,-46.875
44.43359375,65.91796875,-42.96875,-60.546875
-60.05859375,-24.4140625,-46.875,-49.31640625
-145.01953125,-134.765625,-52.734375,-35.64453125
-105.95703125,-132.8125,-51.7578125,-31.25
11.71875,-4.8828125,-43.45703125,-46.875
38.57421875,63.96484375,-46.38671875,-67.87109375
-65.4296875,-21.97265625,-53.7109375,-57.12890625
-145.5078125,-130.37109375,-55.6640625,-26.85546875
-120.60546875,-148.4375,-51.7578125,-16.11328125
0.48828125,-23.92578125,-41.50390625,-44.921875
47.8515625,63.4765625,-41.50390625,-74.21875
-45.41015625,-3.90625,-46.875,-65.91796875
-130.859375,-113.76953125,-50.29296875,-28.80859375
-122.0703125,-146.484375,-45.8984375,-14.16015625
-6.34765625,-27.83203125,-39.55078125,-48.33984375
55.6640625,72.75390625,-35.15625,-86.9140625
-21.97265625,7.32421875,-40.52734375,-82.51953125
-109.86328125,-113.76953125,-54.19921875,-46.38671875
-126.46484375,-150.390625,-59.5703125,-33.69140625
-25.87890625,-38.0859375,-51.7578125,-56.640625
45.8984375,73.2421875,-44.43359375,-78.125
-20.5078125,37.109375,-49.8046875,-76.171875
-116.2109375,-86.9140625,-55.17578125,-52.24609375
-144.53125,-153.3203125,-48.828125,-20.01953125
-39.55078125,-59.5703125,-42.96875,-18.5546875
49.8046875,61.03515625,-36.62109375,-44.43359375
4.39453125,51.26953125,-38.57421875,-49.8046875
-101.07421875,-71.2890625,-41.015625,-34.1796875
-140.625,-157.2265625,-42.96875,-33.69140625
-36.1328125,-71.77734375,-43.9453125,-44.921875
57.12890625,57.6171875,-43.9453125,-62.98828125
26.85546875,65.91796875,-47.36328125,-81.0546875
-80.56640625,-47.8515625,-54.19921875,-62.01171875
-141.11328125,-146.484375,-55.17578125,-18.5546875
-52.24609375,-91.30859375,-42.96875,-16.6015625
48.33984375,38.0859375,-40.0390625,-49.8046875
33.69140625,65.4296875,-47.8515625,-61.5234375
