TP9,AF7,AF8,TP10
-10.25390625,114.74609375,-48.828125,-30.76171875
34.66796875,67.3828125,-48.828125,25.390625
-2.9296875,-29.78515625,-49.8046875,13.18359375
-105.95703125,-207.03125,-50.78125,-91.796875
-200.1953125,-188.96484375,-62.01171875,-213.37890625
-35.64453125,122.0703125,-58.59375,-36.62109375
54.6875,79.58984375,-46.38671875,36.62109375
25.390625,-5.37109375,-34.66796875,36.1328125
-74.70703125,-166.9921875,-38.57421875,-37.109375
-188.96484375,-228.515625,-54.19921875,-196.77734375
-54.6875,76.66015625,-46.875,-55.17578125
49.8046875,92.28515625,-38.57421875,47.36328125
25.87890625,1.953125,-41.50390625,50.78125
-58.10546875,-141.6015625,-45.41015625,-20.99609375
-183.59375,-234.375,-54.19921875,-209.9609375
-72.75390625,37.109375,-47.8515625,-100.09765625
51.26953125,102.5390625,-37.109375,26.3671875
27.83203125,26.3671875,-36.1328125,20.99609375
-40.0390625,-131.8359375,-39.55078125,-21.97265625
-182.6171875,-269.53125,-56.640625,-197.75390625
-112.79296875,3.41796875,-55.6640625,-128.41796875
42.96875,117.1875,-31.73828125,22.4609375
36.1328125,40.0390625,-28.3203125,26.3671875
-25.87890625,-91.796875,-40.52734375,-0.48828125
-168.45703125,-261.23046875,-50.78125,-165.0390625
-129.39453125,-35.64453125,-46.38671875,-137.6953125
47.8515625,105.46875,-34.66796875,36.1328125
59.08203125,38.0859375,-36.1328125,51.7578125
-19.53125,-69.3359375,-40.0390625,10.25390625
-160.15625,-228.02734375,-52.24609375,-157.71484375
-147.4609375,-58.59375,-58.59375,-165.52734375
11.23046875,117.67578125,-45.8984375,12.20703125
44.43359375,63.4765625,-48.828125,37.59765625
7.8125,-38.57421875,-57.12890625,25.390625
-135.7421875,-208.49609375,-73.2421875,-129.8828125
-155.2734375,-61.5234375,-83.49609375,-188.4765625
25.390625,166.015625,-69.82421875,-9.765625
68.84765625,93.26171875,-72.265625,14.16015625
44.43359375,20.01953125,-76.66015625,15.13671875
-72.75390625,-178.22265625,-83.0078125,-107.421875
-117.67578125,-117.1875,-91.30859375,-205.078125
46.38671875,167.96875,-78.61328125,-30.76171875
89.84375,105.95703125,-69.3359375,22.94921875
61.5234375,3.90625,-68.84765625,34.1796875
-56.640625,-161.62109375,-75.1953125,-70.80078125
-138.18359375,-141.11328125,-83.0078125,-198.73046875
22.4609375,145.99609375,-71.77734375,-23.4375
91.796875,104.4921875,-58.10546875,48.33984375
58.59375,24.4140625,-51.26953125,44.921875
-46.38671875,-130.37109375,-63.96484375,-41.015625
-159.1796875,-177.734375,-74.21875,-196.2890625
-17.08984375,112.3046875,-57.6171875,-56.15234375
83.0078125,122.0703125,-49.31640625,40.0390625
67.87109375,56.15234375,-56.15234375,41.015625
-25.390625,-98.14453125,-70.80078125,-34.66796875
-156.25,-224.12109375,-83.49609375,-208.49609375
-33.203125,60.546875,-64.94140625,-87.40234375
85.44921875,123.046875,-46.875,37.109375
60.546875,25.87890625,-50.29296875,32.2265625
-16.11328125,-116.69921875,-51.7578125,-20.01953125
-149.4140625,-225.5859375,-57.6171875,-189.453125
-66.89453125,39.0625,-53.7109375,-107.421875
62.5,126.953125,-40.52734375,29.78515625
56.15234375,39.0625,-38.57421875,33.203125
-6.34765625,-93.26171875,-41.015625,4.8828125
-152.83203125,-234.86328125,-53.22265625,-168.45703125
-102.5390625,-16.6015625,-52.734375,-119.140625
47.36328125,109.86328125,-34.66796875,46.875
53.22265625,30.76171875,-32.2265625,53.22265625
-8.30078125,-101.07421875,-42.96875,28.80859375
-146.484375,-252.44140625,-56.640625,-138.671875
-127.44140625,-55.17578125,-52.734375,-141.11328125
27.83203125,109.375,-31.25,32.71484375
35.64453125,37.109375,-27.34375,41.50390625
-12.20703125,-74.21875,-35.64453125,27.34375
-143.5546875,-246.09375,-50.29296875,-130.37109375
-151.3671875,-92.7734375,-55.6640625,-190.4296875
9.765625,129.39453125,-45.8984375,-14.16015625
29.296875,39.55078125,-48.33984375,11.23046875
0.48828125,-61.5234375,-51.26953125,7.8125
-123.53515625,-224.609375,-56.640625,-124.51171875
-172.8515625,-125.48828125,-59.08203125,-207.03125
-7.8125,106.4453125,-46.38671875,-19.04296875
38.57421875,53.7109375,-38.0859375,29.296875
11.71875,-20.01953125,-41.015625,28.3203125
-110.83984375,-213.37890625,-46.38671875,-80.56640625
-176.7578125,-158.69140625,-54.19921875,-187.98828125
-8.7890625,114.74609375,-46.38671875,-13.671875
51.7578125,89.35546875,-34.1796875,52.24609375
37.109375,35.15625,-33.69140625,61.03515625
-64.453125,-175.29296875,-46.38671875,-41.9921875
-173.33984375,-213.37890625,-61.03515625,-198.2421875
-26.3671875,83.984375,-50.78125,-43.9453125
71.2890625,84.47265625,-43.9453125,46.38671875
40.0390625,10.25390625,-46.875,50.29296875
-58.59375,-149.90234375,-53.7109375,-33.69140625
-181.15234375,-225.5859375,-67.87109375,-212.40234375
-58.59375,72.75390625,-60.05859375,-81.54296875
48.828125,110.3515625,-43.9453125,28.3203125
28.80859375,3.41796875,-41.9921875,23.4375
-41.9921875,-136.71875,-50.29296875,-26.85546875
-179.6875,-236.328125,-60.05859375,-201.66015625
-88.8671875,13.18359375,-58.59375,-108.88671875
41.50390625,99.12109375,-48.828125,30.76171875
27.83203125,20.01953125,-40.52734375,31.25
-41.50390625,-108.88671875,-40.0390625,-4.8828125
-185.546875,-244.62890625,-55.6640625,-182.12890625
-117.1875,-18.5546875,-50.78125,-127.9296875
35.15625,103.02734375,-38.57421875,40.52734375
37.59765625,41.9921875,-43.9453125,46.875
-19.04296875,-81.54296875,-55.17578125,11.23046875
-160.64453125,-264.6484375,-64.94140625,-163.0859375
-131.8359375,-63.96484375,-65.91796875,-154.296875
16.11328125,110.3515625,-47.8515625,14.16015625
16.6015625,50.78125,-44.43359375,28.3203125
-23.4375,-84.9609375,-46.875,16.11328125
-160.15625,-276.3671875,-53.7109375,-147.94921875
-167.96875,-86.9140625,-58.59375,-178.22265625
3.41796875,121.58203125,-42.48046875,8.7890625
26.3671875,42.48046875,-39.55078125,24.90234375
-5.859375,-59.5703125,-45.8984375,22.4609375
-131.8359375,-248.046875,-60.05859375,-125.0
-179.6875,-129.8828125,-66.89453125,-212.40234375
14.6484375,123.53515625,-50.78125,-2.9296875
61.03515625,51.26953125,-48.828125,40.52734375
0.0,-19.53125,-45.41015625,24.90234375
-128.41796875,-220.21484375,-49.8046875,-108.3984375
-200.1953125,-181.15234375,-63.4765625,-231.4453125
-27.34375,99.609375,-41.50390625,-31.73828125
30.76171875,34.1796875,-30.76171875,26.3671875
-0.48828125,-30.2734375,-47.36328125,14.6484375
-94.23828125,-195.3125,-50.29296875,-68.84765625
-182.6171875,-197.75390625,-55.17578125,-208.0078125
-29.78515625,93.75,-45.41015625,-44.43359375
54.19921875,70.3125,-30.76171875,45.41015625
36.1328125,1.953125,-28.80859375,47.36328125
-59.5703125,-165.0390625,-39.0625,-40.0390625
-185.05859375,-231.93359375,-57.12890625,-208.0078125
-62.01171875,52.24609375,-43.45703125,-65.91796875
44.921875,71.2890625,-30.2734375,46.38671875
26.85546875,-9.765625,-29.78515625,42.48046875
-58.59375,-156.73828125,-33.203125,-25.87890625
-189.94140625,-243.1640625,-46.38671875,-203.125
-93.26171875,35.15625,-44.43359375,-99.12109375
27.34375,89.84375,-34.1796875,34.1796875
21.484375,19.53125,-32.71484375,37.59765625
-36.1328125,-125.48828125,-43.9453125,-8.7890625
-174.31640625,-270.01953125,-52.734375,-191.40625
-107.421875,0.48828125,-43.9453125,-123.53515625
48.828125,121.58203125,-32.2265625,35.15625
45.8984375,8.7890625,-24.4140625,43.45703125
-22.4609375,-118.1640625,-23.92578125,16.11328125
-161.1328125,-268.06640625,-36.1328125,-161.62109375
-129.39453125,-53.22265625,-39.55078125,-139.16015625
29.78515625,104.00390625,-29.296875,39.0625
38.0859375,28.3203125,-21.97265625,53.7109375
-9.27734375,-83.984375,-26.3671875,27.83203125
-140.625,-246.58203125,-44.43359375,-144.53125
-144.04296875,-63.96484375,-56.640625,-163.57421875
19.04296875,91.30859375,-50.29296875,13.18359375
51.7578125,26.3671875,-35.64453125,32.71484375
6.8359375,-47.8515625,-31.73828125,34.66796875
-136.71875,-261.23046875,-54.6875,-120.1171875
-170.8984375,-143.5546875,-65.4296875,-193.84765625
4.8828125,116.2109375,-43.45703125,3.90625
51.26953125,44.43359375,-31.73828125,43.45703125
16.6015625,-41.015625,-34.66796875,45.41015625
-112.3046875,-225.5859375,-46.38671875,-79.1015625
-182.12890625,-178.22265625,-52.734375,-189.94140625
-10.25390625,97.16796875,-37.59765625,-5.37109375
44.921875,57.12890625,-32.71484375,48.828125
16.6015625,-18.5546875,-37.109375,49.31640625
-89.84375,-188.4765625,-44.43359375,-62.01171875
-189.94140625,-165.0390625,-56.640625,-206.54296875
-33.69140625,111.81640625,-46.875,-31.73828125
46.38671875,62.98828125,-39.0625,49.31640625
26.85546875,-8.30078125,-38.57421875,48.33984375
-67.3828125,-164.0625,-45.41015625,-39.55078125
-181.15234375,-214.35546875,-53.7109375,-210.44921875
-46.38671875,76.171875,-41.9921875,-67.87109375
44.43359375,90.8203125,-36.62109375,47.36328125
20.01953125,12.20703125,-42.96875,46.875
-62.01171875,-143.06640625,-54.19921875,-30.2734375
-191.89453125,-237.3046875,-73.73046875,-208.49609375
-86.42578125,55.17578125,-61.03515625,-89.35546875
48.828125,118.1640625,-41.9921875,42.96875
45.8984375,6.34765625,-46.875,45.8984375
-46.875,-143.5546875,-47.8515625,-6.34765625
-196.2890625,-239.74609375,-55.6640625,-200.68359375
-116.69921875,5.37109375,-56.15234375,-129.8828125
18.5546875,78.125,-40.52734375,23.4375
16.6015625,-6.34765625,-34.66796875,35.15625
-42.48046875,-127.44140625,-34.66796875,1.953125
-189.453125,-285.64453125,-44.921875,-192.87109375
-140.625,-52.24609375,-42.48046875,-154.296875
21.97265625,99.12109375,-25.87890625,21.97265625
33.203125,21.97265625,-26.3671875,28.80859375
-20.5078125,-75.68359375,-36.62109375,13.18359375
-162.109375,-286.1328125,-58.10546875,-160.64453125
-149.90234375,-107.421875,-62.01171875,-175.78125
15.13671875,96.6796875,-44.921875,10.25390625
38.0859375,18.5546875,-40.0390625,30.76171875
3.41796875,-65.4296875,-38.57421875,26.85546875
-129.39453125,-244.140625,-52.734375,-126.953125
-163.57421875,-128.90625,-61.5234375,-180.17578125
8.30078125,107.421875,-42.96875,15.625
43.45703125,41.9921875,-37.59765625,42.48046875
8.30078125,-39.55078125,-42.48046875,34.1796875
-112.3046875,-218.26171875,-58.10546875,-104.98046875
-177.24609375,-130.37109375,-68.359375,-202.63671875
-12.6953125,110.3515625,-47.8515625,-19.04296875
35.64453125,37.109375,-35.15625,23.4375
8.7890625,-10.25390625,-36.1328125,28.3203125
-102.05078125,-177.734375,-47.8515625,-80.078125
-194.82421875,-179.19921875,-60.05859375,-213.37890625
-31.25,84.9609375,-53.22265625,-32.2265625
36.62109375,67.87109375,-48.828125,47.36328125
9.765625,1.46484375,-53.7109375,43.45703125
-82.03125,-162.109375,-66.40625,-54.6875
-188.96484375,-220.21484375,-69.82421875,-215.33203125
-47.36328125,85.44921875,-51.26953125,-59.08203125
47.36328125,115.72265625,-39.0625,41.015625
27.83203125,-7.32421875,-43.45703125,31.73828125
-52.24609375,-172.8515625,-49.8046875,-44.921875
-187.98828125,-245.60546875,-57.6171875,-215.33203125
-78.61328125,46.875,-56.15234375,-93.75
47.8515625,112.3046875,-41.50390625,35.15625
28.3203125,20.01953125,-40.0390625,29.296875
-57.6171875,-133.30078125,-48.828125,-31.25
-193.359375,-257.8125,-58.59375,-205.078125
-107.91015625,11.23046875,-60.05859375,-114.74609375
32.71484375,107.421875,-44.921875,31.25
23.92578125,20.99609375,-36.1328125,27.34375
-42.96875,-102.05078125,-42.48046875,-10.7421875
-180.17578125,-271.97265625,-61.03515625,-192.3828125
-137.20703125,-63.4765625,-62.98828125,-141.11328125
6.34765625,98.14453125,-45.8984375,33.203125
11.71875,23.4375,-37.59765625,35.15625
-24.90234375,-106.93359375,-28.3203125,23.4375
-149.4140625,-255.859375,-33.69140625,-143.06640625
-136.71875,-67.3828125,-49.8046875,-146.484375
16.6015625,88.37890625,-42.96875,27.34375
30.76171875,40.0390625,-34.66796875,38.0859375
-0.9765625,-46.875,-36.1328125,33.69140625
-131.8359375,-238.28125,-43.9453125,-131.8359375
-147.4609375,-86.9140625,-48.828125,-189.94140625
18.5546875,119.62890625,-40.52734375,4.39453125
31.25,38.0859375,-40.52734375,36.62109375
1.953125,-29.78515625,-44.921875,25.87890625
-120.1171875,-225.5859375,-58.59375,-123.046875
-175.29296875,-134.765625,-72.75390625,-208.984375
-1.953125,120.1171875,-60.05859375,-11.23046875
43.9453125,55.6640625,-50.29296875,30.2734375
8.30078125,-28.80859375,-45.8984375,19.53125
-102.05078125,-212.40234375,-49.31640625,-96.19140625
-187.5,-169.921875,-62.01171875,-215.33203125
-23.4375,109.86328125,-49.31640625,-28.3203125
46.875,75.68359375,-41.9921875,41.9921875
15.13671875,-13.18359375,-33.203125,44.43359375
-82.03125,-183.59375,-36.62109375,-46.38671875
-189.94140625,-216.796875,-61.03515625,-208.49609375
-55.6640625,71.2890625,-50.29296875,-52.24609375
34.66796875,94.7265625,-29.296875,50.29296875
9.27734375,14.16015625,-28.3203125,42.48046875
-79.58984375,-168.9453125,-40.52734375,-43.45703125
-189.94140625,-230.46875,-49.31640625,-212.890625
-75.68359375,48.828125,-42.96875,-81.54296875
30.2734375,75.1953125,-29.296875,43.9453125
17.578125,5.37109375,-29.296875,44.43359375
-55.6640625,-118.1640625,-39.55078125,-18.06640625
-183.10546875,-242.67578125,-59.08203125,-203.61328125
-92.7734375,2.9296875,-59.5703125,-113.28125
40.0390625,103.02734375,-46.875,34.66796875
35.64453125,20.01953125,-43.45703125,38.0859375
-29.78515625,-120.60546875,-44.43359375,-9.765625
-174.31640625,-258.7890625,-62.5,-202.63671875
-115.234375,-17.08984375,-61.03515625,-148.4375
32.71484375,113.28125,-43.9453125,19.53125
27.34375,43.9453125,-44.43359375,25.87890625
-34.66796875,-104.00390625,-52.734375,-4.8828125
-183.59375,-268.06640625,-69.82421875,-183.59375
-145.01953125,-31.73828125,-66.40625,-161.1328125
26.85546875,101.5625,-43.9453125,26.85546875
28.80859375,3.90625,-39.55078125,33.69140625
-12.20703125,-80.078125,-37.109375,24.90234375
-144.53125,-258.7890625,-41.9921875,-125.9765625
-157.2265625,-84.47265625,-51.26953125,-157.2265625
10.25390625,115.72265625,-38.57421875,27.83203125
37.59765625,38.0859375,-28.3203125,48.33984375
-9.27734375,-49.8046875,-33.69140625,39.0625
-141.11328125,-243.65234375,-49.8046875,-123.046875
-179.6875,-133.30078125,-56.640625,-203.61328125
-8.7890625,109.375,-37.109375,1.46484375
28.80859375,53.22265625,-36.1328125,37.59765625
-0.48828125,-24.90234375,-46.38671875,30.2734375
-121.58203125,-228.515625,-60.546875,-95.21484375
-191.89453125,-181.15234375,-66.40625,-213.8671875
-7.8125,111.81640625,-50.29296875,-17.08984375
64.453125,74.21875,-51.26953125,51.26953125
47.36328125,1.953125,-54.19921875,59.08203125
-62.01171875,-169.43359375,-58.59375,-49.8046875
-176.7578125,-181.15234375,-64.94140625,-214.84375
-31.73828125,101.5625,-46.38671875,-38.57421875
39.55078125,64.94140625,-36.1328125,43.45703125
13.671875,0.48828125,-37.109375,36.62109375
-78.61328125,-137.6953125,-35.64453125,-38.0859375
-206.54296875,-247.0703125,-48.828125,-227.05078125
-83.984375,43.45703125,-41.9921875,-95.703125
30.76171875,85.44921875,-29.78515625,29.78515625
14.16015625,-20.99609375,-32.2265625,24.4140625
-74.21875,-148.92578125,-46.38671875,-34.1796875
-202.63671875,-241.69921875,-65.4296875,-212.890625
-95.703125,31.25,-51.7578125,-106.93359375
40.0390625,106.4453125,-36.62109375,40.52734375
28.80859375,26.85546875,-42.96875,32.71484375
-45.41015625,-110.83984375,-56.640625,-20.99609375
-182.6171875,-243.1640625,-64.94140625,-190.91796875
-115.234375,22.94921875,-56.640625,-115.234375
32.2265625,115.72265625,-39.55078125,49.31640625
37.59765625,18.06640625,-33.69140625,61.03515625
-12.6953125,-99.12109375,-44.43359375,19.53125
-159.1796875,-265.13671875,-69.3359375,-187.5
-126.46484375,-35.64453125,-67.3828125,-167.48046875
28.80859375,129.39453125,-48.828125,19.04296875
29.296875,37.59765625,-47.36328125,20.5078125
-9.765625,-70.3125,-47.36328125,0.0
-148.92578125,-245.1171875,-61.5234375,-166.9921875
-159.1796875,-83.0078125,-69.82421875,-191.89453125
17.578125,108.88671875,-59.5703125,10.7421875
55.17578125,56.15234375,-51.7578125,39.0625
19.04296875,-58.59375,-40.0390625,30.76171875
-118.1640625,-263.671875,-42.48046875,-115.234375
-164.55078125,-133.7890625,-44.43359375,-189.94140625
2.9296875,97.16796875,-27.83203125,-7.8125
49.31640625,44.921875,-25.390625,30.76171875
13.671875,-27.83203125,-34.66796875,29.78515625
-113.28125,-210.44921875,-43.9453125,-98.6328125
-178.7109375,-143.06640625,-51.7578125,-203.125
-14.6484375,101.07421875,-45.8984375,-20.5078125
51.26953125,37.59765625,-38.0859375,34.66796875
25.87890625,-21.97265625,-34.1796875,42.96875
-81.54296875,-165.52734375,-52.734375,-61.03515625
-170.8984375,-180.6640625,-69.82421875,-203.61328125
-22.94921875,83.49609375,-42.96875,-26.3671875
60.05859375,81.0546875,-32.71484375,52.24609375
23.4375,-13.671875,-42.96875,41.015625
-73.2421875,-180.6640625,-53.22265625,-49.31640625
-185.05859375,-224.12109375,-64.453125,-219.7265625
-51.7578125,72.75390625,-49.8046875,-74.70703125
51.7578125,97.16796875,-37.109375,34.1796875
17.578125,11.23046875,-45.8984375,30.2734375
-72.75390625,-142.08984375,-55.6640625,-32.71484375
-199.70703125,-236.81640625,-67.3828125,-209.47265625
-82.03125,60.05859375,-56.15234375,-97.16796875
47.8515625,98.6328125,-44.921875,40.0390625
27.83203125,-8.7890625,-46.875,43.9453125
-38.57421875,-135.7421875,-48.828125,-0.9765625
-171.38671875,-270.01953125,-55.6640625,-188.4765625
-85.44921875,-6.8359375,-47.8515625,-113.76953125
62.98828125,128.41796875,-43.45703125,42.48046875
47.36328125,46.875,-49.8046875,30.2734375
-28.80859375,-90.33203125,-53.22265625,-13.671875
-174.8046875,-237.79296875,-77.63671875,-185.546875
-131.8359375,-15.13671875,-82.51953125,-151.85546875
39.0625,135.25390625,-59.08203125,21.97265625
45.41015625,78.61328125,-55.17578125,31.73828125
-14.6484375,-46.875,-59.5703125,3.90625
-147.94921875,-229.4921875,-68.84765625,-160.64453125
-139.6484375,-45.41015625,-76.66015625,-172.8515625
28.80859375,112.79296875,-59.5703125,8.7890625
49.8046875,47.8515625,-48.33984375,28.80859375
9.27734375,-34.1796875,-50.29296875,20.01953125
-117.67578125,-209.9609375,-66.89453125,-133.7890625
-149.4140625,-87.890625,-80.078125,-207.51953125
14.6484375,129.8828125,-62.01171875,-21.484375
44.921875,66.40625,-54.19921875,19.53125
2.44140625,-14.16015625,-58.10546875,22.4609375
-113.28125,-186.03515625,-66.40625,-103.515625
-174.31640625,-145.01953125,-81.54296875,-204.1015625
-15.625,95.703125,-66.40625,-22.4609375
39.55078125,68.84765625,-46.38671875,32.2265625
3.41796875,-12.20703125,-45.8984375,39.0625
-101.07421875,-177.24609375,-57.6171875,-75.1953125
-185.546875,-152.83203125,-68.359375,-218.26171875
-38.57421875,94.23828125,-57.12890625,-42.96875
38.0859375,73.2421875,-41.9921875,41.015625
15.13671875,18.5546875,-43.45703125,39.0625
-91.796875,-166.50390625,-60.546875,-62.5
-197.265625,-203.61328125,-69.3359375,-229.98046875
-44.43359375,114.74609375,-56.15234375,-66.40625
49.31640625,101.5625,-48.33984375,37.59765625
22.4609375,9.765625,-46.38671875,33.69140625
-52.24609375,-129.8828125,-47.8515625,-33.203125
-173.828125,-230.46875,-57.6171875,-212.40234375
-57.12890625,33.69140625,-54.19921875,-86.42578125
62.98828125,108.3984375,-46.38671875,50.29296875
35.15625,35.64453125,-46.38671875,49.31640625
-43.45703125,-122.55859375,-47.8515625,-7.8125
-184.5703125,-240.72265625,-57.12890625,-197.265625
-108.3984375,5.859375,-52.24609375,-112.79296875
37.109375,109.375,-39.0625,44.921875
35.64453125,41.015625,-45.41015625,45.41015625
-38.0859375,-123.046875,-58.10546875,2.9296875
-175.78125,-284.1796875,-70.80078125,-190.4296875
-121.58203125,-35.64453125,-67.3828125,-153.3203125
38.57421875,113.76953125,-47.8515625,33.203125
40.0390625,26.85546875,-44.43359375,38.0859375
-4.8828125,-84.9609375,-58.59375,22.94921875
-137.20703125,-252.44140625,-69.82421875,-147.94921875
-152.83203125,-69.82421875,-66.40625,-176.7578125
7.32421875,107.91015625,-46.875,14.6484375
35.15625,32.2265625,-36.1328125,39.55078125
-1.953125,-58.10546875,-41.9921875,25.87890625
-130.859375,-216.796875,-56.15234375,-135.7421875
-164.0625,-83.984375,-64.453125,-193.359375
6.34765625,91.796875,-43.9453125,8.7890625
40.52734375,18.06640625,-38.57421875,47.8515625
6.8359375,-48.33984375,-43.9453125,49.31640625
-115.234375,-225.09765625,-52.734375,-98.14453125
-162.109375,-132.8125,-60.546875,-202.1484375
17.578125,112.79296875,-43.45703125,-5.37109375
62.01171875,63.96484375,-39.0625,45.41015625
20.5078125,-17.08984375,-45.8984375,42.96875
-85.44921875,-206.0546875,-59.08203125,-80.078125
-160.64453125,-175.78125,-72.265625,-211.9140625
-5.859375,117.67578125,-56.640625,-22.4609375
63.96484375,85.44921875,-44.43359375,57.12890625
30.76171875,-11.23046875,-51.26953125,53.22265625
-67.3828125,-160.15625,-75.1953125,-53.22265625
-166.50390625,-195.80078125,-85.9375,-216.796875
-36.1328125,91.30859375,-59.5703125,-48.828125
49.31640625,100.5859375,-45.41015625,57.12890625
34.1796875,12.20703125,-47.8515625,55.17578125
-42.96875,-144.04296875,-61.5234375,-24.4140625
-173.828125,-230.95703125,-72.265625,-206.0546875
-62.98828125,63.96484375,-56.640625,-68.84765625
59.08203125,110.3515625,-39.0625,57.12890625
35.15625,31.25,-39.55078125,47.36328125
-41.015625,-132.8125,-47.36328125,-20.5078125
-179.6875,-263.18359375,-57.6171875,-213.37890625
-96.19140625,6.8359375,-53.7109375,-117.1875
41.9921875,94.23828125,-40.52734375,39.0625
27.34375,27.34375,-35.15625,41.9921875
-31.25,-85.44921875,-36.62109375,2.9296875
-160.64453125,-241.69921875,-55.17578125,-179.6875
-114.2578125,-25.390625,-60.546875,-131.34765625
37.109375,88.8671875,-39.55078125,39.0625
45.8984375,14.16015625,-31.25,44.43359375
-24.4140625,-87.890625,-35.64453125,5.859375
-155.76171875,-234.86328125,-46.38671875,-172.8515625
-124.51171875,-63.96484375,-53.22265625,-156.25
22.94921875,76.171875,-41.50390625,31.25
30.76171875,27.83203125,-36.62109375,47.36328125
-9.27734375,-56.15234375,-43.45703125,30.76171875
-134.765625,-247.0703125,-56.640625,-138.18359375
-144.53125,-94.7265625,-58.59375,-167.48046875
5.859375,92.7734375,-39.55078125,24.90234375
17.08984375,35.15625,-32.71484375,36.62109375
-19.04296875,-38.0859375,-32.2265625,28.3203125
-131.34765625,-244.62890625,-46.38671875,-121.58203125
-174.31640625,-140.13671875,-61.5234375,-208.49609375
-6.8359375,119.62890625,-46.875,5.859375
47.36328125,51.26953125,-34.66796875,59.08203125
11.23046875,-35.15625,-41.50390625,47.8515625
-97.16796875,-208.984375,-52.24609375,-84.9609375
-167.48046875,-173.33984375,-52.734375,-212.40234375
-20.99609375,94.23828125,-37.109375,-22.4609375
45.8984375,65.4296875,-27.34375,51.26953125
17.08984375,-11.23046875,-35.64453125,47.8515625
-87.40234375,-184.5703125,-52.24609375,-62.5
-179.19921875,-192.87109375,-73.73046875,-219.7265625
-40.52734375,80.078125,-62.01171875,-42.96875
51.26953125,70.3125,-44.921875,51.7578125
27.34375,19.04296875,-42.48046875,52.24609375
-67.3828125,-145.99609375,-40.0390625,-34.1796875
-182.12890625,-236.81640625,-50.78125,-221.19140625
-66.40625,46.38671875,-51.26953125,-68.359375
41.015625,81.0546875,-41.9921875,61.03515625
14.6484375,9.27734375,-43.45703125,53.22265625
-68.84765625,-127.44140625,-47.36328125,-14.16015625
-186.03515625,-242.1875,-53.7109375,-218.26171875
-94.7265625,13.18359375,-48.828125,-126.46484375
30.76171875,86.9140625,-33.69140625,36.1328125
21.484375,4.8828125,-37.109375,41.015625
-45.8984375,-117.67578125,-46.875,-13.671875
-180.6640625,-242.67578125,-57.12890625,-205.078125
-115.72265625,-27.83203125,-53.7109375,-138.671875
35.64453125,83.984375,-37.59765625,34.1796875
28.3203125,14.16015625,-37.109375,43.45703125
-42.48046875,-116.69921875,-44.43359375,3.41796875
-168.45703125,-258.7890625,-58.59375,-194.3359375
-135.7421875,-46.875,-58.10546875,-174.31640625
18.06640625,108.3984375,-41.9921875,17.578125
27.83203125,29.78515625,-44.921875,33.203125
-19.04296875,-81.54296875,-46.875,12.20703125
-142.08984375,-251.953125,-53.7109375,-163.0859375
-151.85546875,-77.1484375,-52.24609375,-181.15234375
0.9765625,124.51171875,-33.69140625,22.4609375
28.3203125,31.73828125,-31.25,46.38671875
-8.30078125,-65.4296875,-37.59765625,36.1328125
-131.34765625,-237.3046875,-53.7109375,-138.18359375
-166.015625,-130.37109375,-57.6171875,-211.42578125
5.859375,105.46875,-44.43359375,10.7421875
50.29296875,62.5,-48.33984375,59.08203125
10.25390625,-42.48046875,-49.8046875,43.45703125
-103.02734375,-219.23828125,-56.15234375,-105.95703125
-162.59765625,-146.484375,-63.96484375,-219.23828125
-0.9765625,100.5859375,-50.29296875,-14.16015625
47.36328125,47.8515625,-46.875,53.7109375
12.6953125,-3.90625,-50.29296875,45.41015625
-91.796875,-184.08203125,-55.17578125,-86.42578125
-190.91796875,-206.54296875,-63.96484375,-246.58203125
-40.52734375,86.42578125,-52.734375,-51.7578125
45.8984375,73.2421875,-41.015625,44.43359375
16.11328125,-2.44140625,-44.921875,36.1328125
-83.984375,-167.96875,-50.78125,-59.5703125
-189.94140625,-223.14453125,-60.05859375,-232.91015625
-52.24609375,79.1015625,-55.6640625,-64.94140625
33.69140625,97.65625,-40.0390625,53.22265625
2.9296875,-8.30078125,-31.73828125,41.9921875
-66.89453125,-156.73828125,-37.109375,-23.4375
-174.8046875,-217.28515625,-51.7578125,-199.21875
-76.171875,48.828125,-47.36328125,-89.84375
25.87890625,93.26171875,-41.015625,35.15625
10.25390625,24.4140625,-48.828125,29.78515625
-47.36328125,-125.48828125,-56.640625,-16.11328125
-174.31640625,-241.2109375,-66.40625,-199.21875
-99.609375,21.97265625,-53.22265625,-115.234375
36.62109375,111.328125,-30.2734375,43.9453125
32.71484375,41.015625,-28.80859375,34.1796875
-29.296875,-89.35546875,-33.69140625,-8.30078125
-167.48046875,-252.44140625,-47.8515625,-205.56640625
-114.2578125,-21.484375,-43.9453125,-161.62109375
49.31640625,138.18359375,-31.73828125,41.50390625
54.19921875,37.109375,-34.66796875,51.26953125
-4.39453125,-111.328125,-36.62109375,18.5546875
-137.6953125,-263.18359375,-54.6875,-166.9921875
-139.16015625,-68.84765625,-68.84765625,-187.98828125
17.08984375,122.0703125,-51.7578125,15.13671875
40.0390625,49.8046875,-37.59765625,45.41015625
-6.34765625,-42.96875,-41.50390625,33.69140625
-131.8359375,-235.3515625,-57.6171875,-137.20703125
-159.1796875,-116.2109375,-70.3125,-205.078125
5.37109375,115.234375,-59.5703125,17.578125
45.8984375,55.6640625,-50.78125,62.01171875
6.34765625,-11.71875,-45.8984375,50.29296875
-116.2109375,-221.6796875,-49.8046875,-100.5859375
-176.26953125,-156.73828125,-59.08203125,-210.44921875
-13.671875,110.83984375,-46.875,2.9296875
35.15625,38.57421875,-42.96875,64.453125
9.765625,-14.16015625,-38.57421875,57.12890625
-94.7265625,-176.7578125,-49.8046875,-83.49609375
-197.75390625,-185.05859375,-66.89453125,-244.140625
-48.33984375,91.796875,-45.8984375,-43.45703125
34.66796875,62.01171875,-31.73828125,49.31640625
6.34765625,-11.23046875,-38.0859375,45.8984375
-87.890625,-159.1796875,-49.8046875,-55.6640625
-193.84765625,-191.40625,-61.03515625,-232.91015625
-63.96484375,74.70703125,-45.8984375,-63.96484375
37.109375,79.1015625,-32.71484375,46.38671875
25.87890625,7.32421875,-38.0859375,43.9453125
-54.6875,-135.7421875,-48.33984375,-35.64453125
-173.828125,-213.8671875,-63.4765625,-227.05078125
-67.87109375,54.19921875,-54.19921875,-92.28515625
51.26953125,90.8203125,-35.64453125,53.22265625
32.71484375,13.18359375,-36.62109375,52.734375
-50.29296875,-111.328125,-36.62109375,-12.6953125
-176.7578125,-243.1640625,-48.828125,-210.9375
-101.07421875,16.6015625,-56.640625,-120.1171875
36.62109375,121.09375,-41.50390625,45.8984375
28.3203125,1.953125,-39.0625,43.45703125
-42.48046875,-124.51171875,-45.8984375,-7.32421875
-174.31640625,-250.0,-58.59375,-204.58984375
-122.55859375,-25.87890625,-59.08203125,-157.2265625
38.0859375,110.3515625,-43.9453125,31.73828125
43.45703125,23.92578125,-42.96875,42.48046875
-20.5078125,-94.7265625,-44.43359375,6.34765625
-159.1796875,-253.41796875,-66.40625,-192.87109375
-137.20703125,-32.71484375,-80.078125,-196.2890625
28.3203125,111.328125,-58.10546875,17.08984375
37.59765625,12.6953125,-44.43359375,35.64453125
-4.8828125,-48.33984375,-43.45703125,11.71875
-123.046875,-232.91015625,-56.640625,-150.87890625
-153.3203125,-92.7734375,-69.82421875,-212.890625
5.37109375,125.9765625,-56.15234375,-8.7890625
50.78125,49.8046875,-45.41015625,48.33984375
7.32421875,-40.52734375,-42.96875,39.55078125
-122.0703125,-225.5859375,-58.10546875,-124.51171875
-167.48046875,-135.7421875,-70.3125,-219.7265625
-2.9296875,116.69921875,-50.78125,-3.41796875
45.41015625,62.01171875,-38.57421875,57.6171875
18.5546875,-17.578125,-40.52734375,52.734375
-87.890625,-180.17578125,-54.6875,-82.03125
-164.55078125,-154.296875,-66.40625,-223.14453125
-18.06640625,87.890625,-54.6875,-20.99609375
37.59765625,51.26953125,-48.33984375,58.59375
16.6015625,-4.39453125,-44.43359375,65.4296875
-71.2890625,-165.0390625,-51.26953125,-39.55078125
-176.26953125,-209.47265625,-69.3359375,-221.6796875
-38.57421875,84.9609375,-54.19921875,-46.38671875
53.7109375,108.88671875,-36.1328125,59.5703125
31.25,14.16015625,-47.8515625,51.7578125
-55.17578125,-151.85546875,-66.40625,-44.43359375
-180.17578125,-224.12109375,-72.265625,-240.72265625
-69.3359375,71.77734375,-56.640625,-92.7734375
46.875,133.7890625,-39.0625,45.41015625
30.2734375,24.4140625,-37.59765625,48.828125
-45.41015625,-128.90625,-49.31640625,-15.625
-163.57421875,-231.4453125,-63.96484375,-215.33203125
-77.1484375,19.04296875,-58.10546875,-112.3046875
43.9453125,106.93359375,-45.41015625,56.640625
37.109375,21.484375,-36.1328125,61.03515625
-29.296875,-106.93359375,-35.64453125,12.20703125
-168.45703125,-241.69921875,-47.36328125,-189.453125
-117.1875,-3.41796875,-44.43359375,-133.30078125
28.3203125,120.60546875,-41.015625,55.17578125
32.71484375,33.203125,-40.52734375,64.453125
-23.4375,-74.21875,-38.57421875,29.78515625
-161.62109375,-268.5546875,-44.43359375,-169.921875
-144.53125,-83.0078125,-47.36328125,-167.48046875
19.04296875,111.328125,-40.0390625,34.1796875
39.55078125,33.203125,-29.296875,52.734375
-6.34765625,-59.08203125,-28.3203125,27.83203125
-142.578125,-221.6796875,-54.6875,-161.1328125
-151.3671875,-105.46875,-64.453125,-205.078125
16.6015625,105.95703125,-48.33984375,14.6484375
33.203125,46.38671875,-54.19921875,50.78125
-10.25390625,-41.50390625,-48.33984375,41.9921875
-132.8125,-217.7734375,-42.48046875,-125.0
-164.55078125,-100.09765625,-44.43359375,-209.47265625
3.90625,105.95703125,-26.3671875,7.8125
29.78515625,31.25,-30.2734375,42.96875
-2.9296875,-7.8125,-39.55078125,41.9921875
-113.76953125,-194.3359375,-49.31640625,-105.46875
-187.01171875,-163.57421875,-58.59375,-241.2109375
-21.97265625,105.95703125,-42.96875,-19.53125
36.62109375,53.22265625,-41.50390625,53.7109375
10.25390625,-2.9296875,-40.52734375,51.7578125
-78.61328125,-166.50390625,-47.8515625,-58.59375
-177.734375,-223.14453125,-69.3359375,-229.4921875
-41.9921875,76.66015625,-50.29296875,-50.78125
48.828125,116.69921875,-32.71484375,58.59375
20.99609375,12.20703125,-32.2265625,59.08203125
-74.21875,-168.9453125,-47.8515625,-47.8515625
-174.31640625,-213.8671875,-68.359375,-228.515625
-52.24609375,59.08203125,-55.6640625,-65.4296875
24.90234375,74.70703125,-41.50390625,43.45703125
-20.99609375,-11.23046875,-41.015625,20.01953125
-93.75,-146.484375,-52.734375,-53.22265625
-205.078125,-250.48828125,-67.87109375,-243.1640625
-111.328125,11.23046875,-56.15234375,-127.9296875
17.578125,91.30859375,-35.64453125,38.57421875
7.8125,13.18359375,-37.59765625,39.0625
-54.19921875,-110.83984375,-49.8046875,-19.04296875
-176.26953125,-253.41796875,-58.10546875,-217.7734375
-110.83984375,-32.2265625,-52.734375,-140.13671875
32.2265625,85.9375,-39.55078125,46.875
36.1328125,24.90234375,-38.0859375,55.17578125
-20.5078125,-102.5390625,-44.43359375,17.08984375
-164.55078125,-283.203125,-59.08203125,-194.3359375
-133.7890625,-67.87109375,-57.6171875,-171.875
23.4375,105.95703125,-38.57421875,32.71484375
21.97265625,27.83203125,-46.875,41.50390625
-21.97265625,-77.1484375,-61.5234375,25.390625
-147.94921875,-243.65234375,-61.03515625,-159.66796875
-157.2265625,-72.75390625,-49.8046875,-193.359375
3.41796875,93.26171875,-35.64453125,17.08984375
27.34375,16.11328125,-33.203125,40.52734375
-12.6953125,-56.640625,-40.0390625,29.296875
-135.25390625,-254.8828125,-56.15234375,-135.25390625
-161.1328125,-130.859375,-59.08203125,-207.51953125
1.46484375,125.9765625,-47.36328125,11.71875
59.08203125,68.84765625,-40.52734375,76.171875
35.15625,-31.25,-35.15625,82.51953125
-104.4921875,-226.5625,-48.828125,-83.0078125
-194.3359375,-170.8984375,-59.08203125,-228.02734375
-33.69140625,103.02734375,-42.96875,-21.97265625
41.50390625,73.2421875,-29.78515625,58.59375
4.39453125,-32.71484375,-40.52734375,45.41015625
-109.86328125,-223.14453125,-54.6875,-84.9609375
-197.75390625,-208.49609375,-55.17578125,-240.72265625
-39.0625,78.61328125,-44.43359375,-44.43359375
49.31640625,77.1484375,-33.203125,52.734375
30.76171875,-6.8359375,-33.69140625,43.9453125
-62.5,-188.96484375,-39.55078125,-58.59375
-174.31640625,-222.65625,-49.8046875,-232.91015625
-47.8515625,73.2421875,-46.38671875,-62.5
49.8046875,87.40234375,-32.2265625,59.08203125
28.3203125,3.90625,-42.48046875,46.38671875
-48.828125,-131.34765625,-64.94140625,-29.78515625
-174.8046875,-256.34765625,-62.98828125,-223.6328125
-69.3359375,10.25390625,-38.0859375,-95.21484375
54.19921875,92.7734375,-20.99609375,65.91796875
28.80859375,13.18359375,-25.390625,53.22265625
-45.8984375,-120.60546875,-39.55078125,-18.5546875
-176.7578125,-243.65234375,-62.5,-220.21484375
-99.609375,1.953125,-62.5,-133.7890625
46.875,103.515625,-38.57421875,52.24609375
40.0390625,38.0859375,-36.62109375,56.640625
-29.78515625,-107.91015625,-46.875,3.90625
-160.64453125,-250.0,-64.94140625,-199.70703125
-114.2578125,-14.16015625,-62.01171875,-159.1796875
35.64453125,88.8671875,-48.33984375,38.0859375
37.109375,3.90625,-43.45703125,48.33984375
-11.71875,-88.8671875,-37.59765625,23.4375
-148.4375,-260.7421875,-47.36328125,-166.015625
-148.92578125,-84.47265625,-51.7578125,-182.12890625
15.13671875,119.62890625,-43.45703125,30.76171875
44.43359375,54.6875,-44.43359375,52.734375
-1.46484375,-66.40625,-46.38671875,35.15625
-137.20703125,-246.58203125,-56.640625,-138.18359375
-161.62109375,-119.62890625,-47.8515625,-195.80078125
3.90625,102.05078125,-29.296875,23.92578125
43.45703125,68.359375,-33.203125,59.5703125
-4.39453125,-26.85546875,-28.80859375,46.875
-133.30078125,-249.0234375,-40.0390625,-117.1875
-186.03515625,-159.1796875,-59.5703125,-231.4453125
-21.484375,115.72265625,-45.8984375,-14.16015625
38.0859375,59.08203125,-40.52734375,46.38671875
15.13671875,-7.8125,-43.9453125,41.9921875
-84.47265625,-182.6171875,-52.24609375,-85.44921875
-166.9921875,-183.59375,-64.453125,-242.1875
-18.5546875,91.796875,-50.29296875,-49.8046875
60.05859375,66.89453125,-43.9453125,43.9453125
35.15625,8.30078125,-43.45703125,52.24609375
-62.98828125,-130.37109375,-46.875,-44.921875
-181.15234375,-214.35546875,-66.40625,-234.375
-66.40625,54.6875,-50.78125,-68.359375
25.87890625,105.46875,-32.71484375,46.875
17.08984375,0.0,-33.69140625,36.62109375
-64.94140625,-163.57421875,-32.71484375,-33.203125
-185.05859375,-239.74609375,-44.921875,-224.12109375
-78.125,25.390625,-47.36328125,-96.19140625
31.73828125,83.0078125,-42.48046875,37.59765625
21.484375,8.7890625,-44.43359375,33.203125
-49.31640625,-134.765625,-47.8515625,-27.83203125
-180.6640625,-253.90625,-60.546875,-230.95703125
-98.6328125,10.7421875,-59.08203125,-129.39453125
40.0390625,88.8671875,-40.0390625,46.875
28.3203125,-2.9296875,-41.50390625,45.8984375
-35.64453125,-113.76953125,-56.15234375,-0.9765625
-166.50390625,-260.7421875,-61.5234375,-196.77734375
-125.9765625,-30.2734375,-53.7109375,-151.85546875
32.2265625,114.2578125,-37.59765625,34.66796875
33.203125,8.30078125,-35.64453125,36.1328125
-28.80859375,-98.6328125,-44.43359375,8.7890625
-156.25,-246.09375,-55.6640625,-174.31640625
-142.578125,-67.3828125,-57.12890625,-179.19921875
19.04296875,100.09765625,-44.921875,25.87890625
38.57421875,41.50390625,-38.0859375,57.12890625
-12.20703125,-74.21875,-39.55078125,42.96875
-142.08984375,-264.16015625,-53.7109375,-143.5546875
-150.390625,-108.88671875,-60.546875,-194.82421875
10.25390625,107.91015625,-50.78125,21.484375
29.296875,35.64453125,-47.8515625,58.10546875
-6.8359375,-46.875,-47.36328125,42.48046875
-120.60546875,-218.26171875,-52.24609375,-133.7890625
-166.50390625,-119.140625,-51.7578125,-241.69921875
-7.8125,116.2109375,-41.50390625,-30.2734375
39.55078125,39.55078125,-39.55078125,22.4609375
14.16015625,-17.578125,-35.15625,23.92578125
-100.09765625,-177.24609375,-45.8984375,-101.5625
-190.91796875,-187.5,-65.4296875,-239.2578125
-42.48046875,61.03515625,-57.12890625,-38.0859375
40.0390625,67.87109375,-41.9921875,47.8515625
4.8828125,-2.9296875,-35.64453125,48.828125
-94.7265625,-174.31640625,-40.52734375,-66.40625
-193.84765625,-212.40234375,-49.8046875,-244.140625
-63.96484375,63.4765625,-44.43359375,-65.91796875
28.3203125,68.84765625,-35.15625,42.96875
-0.48828125,-5.37109375,-35.64453125,42.96875
-89.84375,-155.2734375,-55.17578125,-47.36328125
-206.54296875,-244.140625,-72.75390625,-244.62890625
-81.54296875,53.7109375,-50.78125,-87.40234375
44.921875,97.65625,-33.69140625,58.10546875
26.85546875,-19.04296875,-35.64453125,44.43359375
-55.6640625,-151.85546875,-38.0859375,-32.2265625
-181.15234375,-239.2578125,-59.08203125,-233.3984375
-96.19140625,19.04296875,-57.6171875,-130.37109375
36.1328125,95.21484375,-28.80859375,38.57421875
33.203125,18.5546875,-20.01953125,48.33984375
-36.1328125,-112.79296875,-27.34375,-1.953125
-170.41015625,-256.34765625,-45.41015625,-207.03125
-112.3046875,-21.97265625,-48.828125,-147.4609375
35.64453125,109.375,-38.0859375,40.52734375
39.0625,40.0390625,-39.0625,40.52734375
-18.5546875,-97.16796875,-36.1328125,2.9296875
-156.25,-254.39453125,-46.875,-191.40625
-130.859375,-49.31640625,-48.828125,-177.734375
23.4375,96.6796875,-35.64453125,27.83203125
24.4140625,23.4375,-45.41015625,35.64453125
-17.578125,-72.265625,-50.78125,8.7890625
-139.6484375,-235.3515625,-53.22265625,-168.45703125
-159.1796875,-86.9140625,-58.59375,-209.47265625
4.8828125,106.93359375,-41.9921875,5.37109375
42.96875,41.50390625,-36.1328125,41.9921875
10.25390625,-39.55078125,-43.45703125,38.0859375
-111.81640625,-214.84375,-52.734375,-120.60546875
-159.1796875,-142.08984375,-57.12890625,-217.7734375
-3.41796875,94.23828125,-42.96875,4.8828125
41.50390625,38.57421875,-38.0859375,64.453125
7.32421875,-33.69140625,-41.9921875,52.734375
-105.95703125,-190.4296875,-50.29296875,-89.84375
-172.8515625,-164.55078125,-58.59375,-217.28515625
-14.6484375,81.0546875,-44.43359375,-0.48828125
44.43359375,59.5703125,-34.1796875,72.265625
16.6015625,0.9765625,-40.0390625,61.03515625
-72.75390625,-161.1328125,-54.19921875,-48.828125
-169.921875,-192.87109375,-66.89453125,-214.35546875
-48.33984375,100.09765625,-54.19921875,-47.36328125
32.2265625,82.03125,-40.0390625,46.38671875
8.7890625,-3.90625,-35.64453125,45.8984375
-77.1484375,-139.16015625,-42.48046875,-47.8515625
-184.08203125,-223.14453125,-62.5,-236.328125
-64.453125,43.45703125,-61.5234375,-83.49609375
40.52734375,75.1953125,-44.43359375,53.22265625
19.04296875,9.27734375,-35.15625,58.59375
-68.359375,-131.34765625,-49.31640625,-22.4609375
-195.80078125,-250.48828125,-65.4296875,-226.07421875
-93.75,11.23046875,-49.8046875,-109.375
35.15625,96.19140625,-30.76171875,47.8515625
15.13671875,28.80859375,-35.15625,48.828125
-50.29296875,-108.88671875,-43.45703125,-4.39453125
-180.17578125,-277.34375,-57.6171875,-210.9375
-117.1875,-34.1796875,-59.08203125,-144.53125
25.390625,102.5390625,-45.41015625,41.015625
28.80859375,29.78515625,-46.875,49.8046875
-35.15625,-104.4921875,-54.6875,7.32421875
-178.22265625,-271.484375,-61.03515625,-191.40625
-148.4375,-51.7578125,-52.734375,-172.36328125
21.484375,126.953125,-35.15625,21.97265625
25.390625,29.78515625,-32.71484375,26.85546875
-39.0625,-85.9375,-38.57421875,3.90625
-153.80859375,-216.30859375,-55.17578125,-170.41015625
-155.76171875,-90.33203125,-60.05859375,-197.75390625
10.25390625,76.171875,-45.41015625,8.30078125
32.2265625,27.34375,-43.9453125,29.296875
-11.71875,-46.38671875,-46.38671875,32.71484375
-131.34765625,-227.5390625,-59.5703125,-126.953125
-160.64453125,-126.46484375,-66.40625,-203.61328125
7.8125,111.81640625,-37.59765625,16.11328125
48.828125,48.828125,-24.4140625,62.01171875
9.27734375,-36.1328125,-33.203125,51.7578125
-109.375,-210.9375,-47.8515625,-92.7734375
-179.6875,-147.94921875,-62.5,-212.40234375
-15.625,123.046875,-47.36328125,-5.859375
42.96875,50.29296875,-38.57421875,62.01171875
6.34765625,-26.3671875,-48.828125,57.12890625
-98.6328125,-169.43359375,-61.5234375,-74.70703125
-200.1953125,-194.3359375,-65.4296875,-246.09375
-50.29296875,75.68359375,-56.640625,-57.6171875
37.59765625,66.40625,-48.828125,41.50390625
21.97265625,0.0,-44.43359375,32.71484375
-72.75390625,-149.4140625,-50.29296875,-68.359375
-186.5234375,-200.1953125,-64.453125,-244.140625
-41.50390625,74.21875,-56.15234375,-63.96484375
70.3125,104.00390625,-40.0390625,76.171875
38.57421875,36.1328125,-43.9453125,61.5234375
-47.8515625,-156.25,-57.6171875,-21.97265625
-184.08203125,-266.11328125,-65.4296875,-222.65625
-92.28515625,16.6015625,-55.6640625,-110.3515625
43.45703125,78.61328125,-40.0390625,52.24609375
32.71484375,10.7421875,-29.296875,59.08203125
-39.0625,-108.88671875,-34.66796875,-2.9296875
-166.50390625,-257.32421875,-54.19921875,-203.61328125
-103.02734375,-17.578125,-52.734375,-138.671875
30.76171875,94.7265625,-39.55078125,21.97265625
19.53125,7.32421875,-34.66796875,24.90234375
-36.62109375,-90.8203125,-38.0859375,-8.30078125
-166.015625,-231.4453125,-61.5234375,-206.54296875
-137.20703125,-62.98828125,-64.453125,-177.24609375
18.06640625,81.54296875,-47.8515625,20.5078125
28.3203125,29.78515625,-43.45703125,38.0859375
-18.5546875,-76.66015625,-38.0859375,20.5078125
-147.4609375,-256.8359375,-56.640625,-170.8984375
-144.04296875,-74.21875,-66.89453125,-186.03515625
19.04296875,109.375,-47.36328125,31.25
44.43359375,34.66796875,-37.109375,50.78125
6.8359375,-48.33984375,-39.55078125,34.66796875
-121.58203125,-253.41796875,-57.12890625,-135.7421875
-148.92578125,-121.58203125,-63.4765625,-201.171875
17.08984375,132.32421875,-50.78125,20.99609375
46.875,42.96875,-47.36328125,56.15234375
-4.8828125,-54.6875,-47.36328125,35.64453125
-130.859375,-228.515625,-53.22265625,-115.72265625
-182.12890625,-151.3671875,-57.12890625,-228.02734375
-14.6484375,113.28125,-42.96875,-14.6484375
40.52734375,63.96484375,-39.0625,55.17578125
6.34765625,-16.11328125,-42.96875,51.26953125
-98.6328125,-179.19921875,-48.33984375,-75.68359375
-181.15234375,-171.38671875,-57.6171875,-227.05078125
-23.92578125,96.19140625,-50.78125,-35.15625
53.22265625,74.21875,-49.31640625,54.19921875
23.4375,9.27734375,-48.828125,51.7578125
-70.3125,-158.69140625,-50.29296875,-61.03515625
-185.546875,-237.79296875,-66.89453125,-244.62890625
-46.875,61.5234375,-54.19921875,-62.98828125
49.8046875,98.14453125,-44.43359375,53.22265625
30.76171875,19.04296875,-48.33984375,47.36328125
-44.43359375,-136.23046875,-46.38671875,-24.90234375
-196.77734375,-243.1640625,-55.17578125,-230.95703125
-99.12109375,21.484375,-48.33984375,-106.4453125
37.59765625,84.47265625,-40.0390625,45.41015625
27.34375,17.08984375,-34.1796875,53.22265625
-48.33984375,-130.37109375,-34.66796875,-7.8125
-182.12890625,-244.140625,-53.7109375,-214.84375
-109.86328125,-8.30078125,-49.8046875,-125.9765625
26.3671875,79.1015625,-33.203125,54.19921875
20.5078125,17.578125,-32.2265625,55.17578125
-53.22265625,-122.0703125,-39.0625,0.0
-190.4296875,-260.25390625,-52.24609375,-198.2421875
-135.25390625,-32.2265625,-48.828125,-152.34375
25.390625,108.88671875,-35.15625,40.52734375
26.85546875,29.296875,-38.0859375,43.9453125
-38.57421875,-94.23828125,-50.29296875,0.0
-168.9453125,-248.046875,-65.4296875,-195.3125
-142.578125,-72.75390625,-62.98828125,-184.5703125
23.92578125,111.328125,-48.33984375,32.2265625
45.8984375,30.2734375,-49.8046875,56.15234375
12.20703125,-86.9140625,-46.38671875,38.57421875
-125.0,-249.51171875,-51.26953125,-154.78515625
-154.78515625,-121.09375,-53.22265625,-210.44921875
20.01953125,113.28125,-35.64453125,15.13671875
53.7109375,68.359375,-33.69140625,52.24609375
11.23046875,-37.59765625,-40.52734375,38.0859375
-113.28125,-224.12109375,-53.22265625,-119.140625
-166.50390625,-142.578125,-60.05859375,-213.37890625
-4.39453125,102.05078125,-52.734375,-3.41796875
41.9921875,63.4765625,-51.26953125,54.6875
3.90625,-6.8359375,-39.55078125,52.24609375
-104.98046875,-225.09765625,-42.48046875,-87.890625
-183.59375,-200.68359375,-61.03515625,-234.375
-29.78515625,92.7734375,-54.19921875,-32.2265625
49.31640625,57.12890625,-44.43359375,51.7578125
20.99609375,-19.53125,-44.43359375,55.6640625
-76.171875,-166.50390625,-56.15234375,-53.22265625
-175.29296875,-195.80078125,-69.82421875,-226.07421875
-37.109375,90.33203125,-58.10546875,-41.9921875
57.6171875,81.0546875,-53.22265625,62.5
41.9921875,-13.671875,-50.29296875,57.12890625
-52.734375,-136.23046875,-42.96875,-32.2265625
-184.5703125,-193.359375,-55.17578125,-231.4453125
-58.59375,47.36328125,-44.921875,-81.54296875
54.19921875,65.4296875,-32.2265625,60.546875
27.83203125,20.01953125,-38.0859375,54.6875
-47.36328125,-120.60546875,-43.45703125,-15.625
-174.31640625,-245.1171875,-52.24609375,-215.8203125
-78.125,25.390625,-56.15234375,-106.93359375
71.77734375,117.67578125,-45.8984375,75.1953125
49.8046875,20.5078125,-36.62109375,68.84765625
-36.62109375,-112.79296875,-35.64453125,0.48828125
-175.29296875,-250.48828125,-45.8984375,-204.1015625
-125.48828125,-14.16015625,-55.17578125,-145.99609375
42.48046875,125.48828125,-39.55078125,61.03515625
49.8046875,22.4609375,-27.83203125,72.75390625
-23.4375,-111.81640625,-33.203125,24.90234375
-159.66796875,-272.94921875,-43.45703125,-174.31640625
-140.13671875,-67.87109375,-48.828125,-169.43359375
22.4609375,116.69921875,-35.15625,34.66796875
43.45703125,45.8984375,-31.73828125,55.6640625
-10.25390625,-74.21875,-34.1796875,31.25
-134.765625,-257.8125,-40.0390625,-152.34375
-146.97265625,-106.4453125,-44.921875,-193.359375
18.5546875,89.35546875,-35.64453125,25.87890625
50.78125,48.828125,-36.1328125,61.03515625
11.71875,-25.87890625,-41.50390625,50.78125
-119.140625,-248.53515625,-54.19921875,-121.58203125
-173.828125,-136.71875,-58.59375,-219.7265625
-0.9765625,133.7890625,-41.50390625,1.46484375
49.8046875,39.0625,-40.52734375,56.640625
14.16015625,-43.9453125,-41.50390625,51.26953125
-100.09765625,-193.359375,-51.7578125,-90.33203125
-170.8984375,-153.80859375,-62.98828125,-222.65625
-7.32421875,105.95703125,-51.7578125,-14.6484375
56.15234375,75.1953125,-39.0625,60.546875
16.6015625,-23.4375,-34.1796875,51.26953125
-88.37890625,-189.94140625,-43.9453125,-62.98828125
-179.6875,-179.6875,-51.26953125,-222.65625
-41.9921875,86.42578125,-47.36328125,-40.0390625
36.62109375,79.1015625,-44.43359375,65.4296875
15.625,7.32421875,-43.9453125,57.6171875
-84.9609375,-165.0390625,-55.6640625,-49.8046875
-205.56640625,-222.65625,-66.89453125,-237.3046875
-71.2890625,61.5234375,-53.7109375,-74.21875
33.69140625,78.61328125,-46.38671875,58.59375
7.8125,4.39453125,-47.8515625,51.7578125
-63.4765625,-135.25390625,-46.875,-20.01953125
-194.82421875,-249.51171875,-60.546875,-225.5859375
-102.05078125,35.15625,-53.22265625,-113.76953125
37.59765625,124.51171875,-37.59765625,49.8046875
27.83203125,7.8125,-42.96875,59.5703125
-37.109375,-125.48828125,-46.38671875,5.37109375
-169.921875,-242.67578125,-60.546875,-217.28515625
-105.46875,-0.9765625,-68.84765625,-150.390625
51.7578125,140.625,-60.05859375,46.875
46.875,60.546875,-56.15234375,46.875
-20.5078125,-70.3125,-57.6171875,-8.7890625
-151.85546875,-213.8671875,-74.21875,-205.56640625
-124.0234375,-11.23046875,-78.125,-180.6640625
36.62109375,119.62890625,-66.89453125,18.06640625
50.78125,66.89453125,-67.3828125,28.80859375
-2.44140625,-12.20703125,-70.80078125,10.25390625
-132.8125,-216.30859375,-81.54296875,-173.828125
-138.18359375,-53.7109375,-92.28515625,-212.40234375
33.203125,161.1328125,-83.0078125,9.765625
75.68359375,79.58984375,-69.82421875,42.48046875
17.578125,-35.64453125,-66.89453125,11.23046875
-130.37109375,-209.47265625,-83.984375,-163.0859375
-164.55078125,-84.9609375,-88.8671875,-235.3515625
1.953125,138.671875,-61.03515625,-21.484375
41.50390625,77.63671875,-49.8046875,26.3671875
17.578125,13.671875,-53.22265625,28.80859375
-95.21484375,-166.50390625,-61.5234375,-116.2109375
-169.921875,-106.93359375,-75.1953125,-241.2109375
-7.8125,134.765625,-61.5234375,-26.85546875
48.828125,70.3125,-49.31640625,47.36328125
13.671875,8.30078125,-53.7109375,44.921875
-88.8671875,-178.7109375,-56.15234375,-74.70703125
-182.6171875,-190.4296875,-63.4765625,-236.328125
-38.0859375,98.6328125,-61.03515625,-45.41015625
49.31640625,102.05078125,-50.29296875,52.734375
29.296875,24.90234375,-48.828125,48.33984375
-60.546875,-133.7890625,-55.6640625,-49.8046875
-170.8984375,-200.1953125,-68.359375,-236.328125
-43.9453125,83.0078125,-60.05859375,-67.87109375
64.94140625,125.48828125,-51.7578125,72.265625
49.8046875,20.5078125,-58.10546875,72.265625
-31.25,-135.25390625,-57.12890625,-15.625
-166.015625,-228.515625,-61.5234375,-222.16796875
-71.2890625,23.92578125,-57.12890625,-104.98046875
53.7109375,111.328125,-41.9921875,56.15234375
34.66796875,25.390625,-42.96875,55.6640625
-37.109375,-125.0,-51.26953125,-10.25390625
-166.9921875,-236.328125,-61.5234375,-205.56640625
-98.14453125,10.7421875,-60.546875,-128.41796875
46.38671875,122.55859375,-50.29296875,47.8515625
43.45703125,43.45703125,-45.8984375,57.6171875
-22.94921875,-75.68359375,-45.41015625,8.30078125
-165.0390625,-250.0,-58.10546875,-195.80078125
-132.8125,-48.828125,-54.6875,-163.0859375
21.97265625,110.3515625,-36.1328125,28.3203125
31.73828125,34.66796875,-35.64453125,44.921875
-13.18359375,-68.359375,-43.9453125,24.90234375
-142.08984375,-236.328125,-58.59375,-167.96875
-132.32421875,-81.0546875,-57.12890625,-183.10546875
34.1796875,115.234375,-36.1328125,37.109375
54.19921875,56.15234375,-38.0859375,52.734375
9.765625,-62.01171875,-45.8984375,25.390625
-118.65234375,-235.3515625,-56.15234375,-144.53125
-148.4375,-80.56640625,-69.82421875,-206.54296875
24.90234375,115.72265625,-47.36328125,18.06640625
49.8046875,39.55078125,-33.69140625,56.15234375
1.46484375,-30.2734375,-46.38671875,40.52734375
-102.5390625,-224.12109375,-62.5,-106.93359375
-158.69140625,-152.34375,-68.359375,-213.37890625
-12.20703125,106.4453125,-51.7578125,-14.6484375
29.78515625,56.640625,-45.8984375,37.59765625
-0.9765625,-14.6484375,-47.8515625,39.0625
-102.5390625,-188.4765625,-52.24609375,-83.49609375
-189.453125,-190.91796875,-64.94140625,-236.81640625
-32.71484375,102.05078125,-49.31640625,-35.15625
41.9921875,96.6796875,-34.66796875,56.15234375
8.7890625,-1.46484375,-41.50390625,46.875
-88.8671875,-178.22265625,-53.22265625,-67.3828125
-193.84765625,-218.26171875,-58.59375,-246.58203125
-51.7578125,65.91796875,-49.31640625,-67.3828125
50.29296875,80.56640625,-45.8984375,50.78125
29.78515625,2.9296875,-44.43359375,48.828125
-60.05859375,-139.16015625,-47.8515625,-32.71484375
-186.03515625,-224.12109375,-54.6875,-227.05078125
-67.87109375,45.8984375,-42.48046875,-83.0078125
53.7109375,101.5625,-38.0859375,64.94140625
35.64453125,34.1796875,-50.29296875,57.12890625
-43.45703125,-99.12109375,-57.6171875,-8.7890625
-185.05859375,-248.046875,-63.4765625,-218.75
-105.46875,-11.71875,-52.734375,-130.37109375
35.64453125,94.7265625,-34.1796875,44.921875
26.85546875,14.16015625,-33.203125,43.45703125
-42.96875,-110.3515625,-41.9921875,-4.8828125
-176.26953125,-257.32421875,-58.59375,-209.9609375
-132.8125,-33.69140625,-57.6171875,-168.9453125
5.37109375,95.703125,-48.33984375,20.5078125
8.30078125,2.44140625,-51.7578125,27.83203125
-37.59765625,-92.7734375,-50.78125,0.9765625
-165.0390625,-229.00390625,-62.5,-189.453125
-147.94921875,-30.2734375,-65.4296875,-189.453125
5.859375,94.23828125,-54.6875,12.20703125
29.78515625,10.25390625,-62.98828125,40.0390625
7.8125,-54.6875,-52.734375,46.875
-140.13671875,-249.51171875,-55.6640625,-146.97265625
-164.0625,-110.83984375,-60.05859375,-210.9375
-6.8359375,94.7265625,-36.1328125,1.46484375
9.765625,27.83203125,-34.1796875,20.99609375
-17.578125,-45.8984375,-42.96875,20.01953125
-134.27734375,-229.98046875,-54.6875,-125.9765625
-188.4765625,-160.64453125,-65.91796875,-231.4453125
-25.87890625,98.14453125,-45.8984375,-16.11328125
31.73828125,57.12890625,-31.25,38.57421875
6.8359375,-36.1328125,-34.1796875,29.296875
-101.07421875,-229.00390625,-41.9921875,-97.16796875
-182.12890625,-199.70703125,-55.17578125,-237.3046875
-23.4375,90.8203125,-50.78125,-30.76171875
45.8984375,73.73046875,-43.45703125,55.17578125
4.8828125,6.34765625,-42.48046875,46.38671875
-97.65625,-179.19921875,-46.875,-69.3359375
-193.84765625,-208.0078125,-54.6875,-240.72265625
-48.828125,77.1484375,-41.015625,-45.41015625
54.19921875,79.58984375,-34.66796875,76.66015625
28.80859375,10.7421875,-33.69140625,64.94140625
-66.89453125,-134.27734375,-35.15625,-27.34375
-182.12890625,-233.3984375,-50.29296875,-217.7734375
-71.77734375,29.78515625,-46.38671875,-76.171875
35.15625,85.44921875,-30.76171875,59.08203125
22.94921875,20.99609375,-26.85546875,54.19921875
-54.6875,-130.37109375,-37.59765625,-13.671875
-187.5,-260.25390625,-57.12890625,-215.33203125
-96.6796875,8.30078125,-53.7109375,-110.3515625
38.57421875,107.421875,-36.1328125,59.5703125
24.90234375,30.2734375,-33.203125,57.6171875
-51.7578125,-129.39453125,-39.0625,-4.8828125
-175.29296875,-250.9765625,-59.08203125,-210.9375
-109.86328125,3.90625,-57.6171875,-151.3671875
31.73828125,105.46875,-38.57421875,35.15625
25.390625,13.671875,-38.0859375,38.57421875
-35.15625,-99.12109375,-41.9921875,0.9765625
-171.38671875,-264.6484375,-56.640625,-196.2890625
-146.484375,-63.96484375,-60.546875,-179.6875
17.08984375,104.98046875,-42.96875,29.296875
29.78515625,31.73828125,-41.50390625,46.875
-16.11328125,-77.63671875,-45.41015625,24.4140625
-145.99609375,-253.90625,-52.24609375,-169.43359375
-150.87890625,-101.5625,-53.22265625,-205.078125
16.6015625,91.30859375,-42.48046875,20.99609375
40.52734375,50.29296875,-36.62109375,59.08203125
-0.48828125,-25.87890625,-29.78515625,52.24609375
-128.90625,-244.62890625,-40.0390625,-119.62890625
-178.7109375,-159.1796875,-49.31640625,-215.8203125
-16.11328125,95.703125,-32.71484375,6.34765625
33.203125,46.38671875,-29.78515625,60.05859375
-7.32421875,-18.5546875,-34.1796875,49.8046875
-119.140625,-199.21875,-41.015625,-97.16796875
-188.4765625,-166.015625,-50.29296875,-228.02734375
-30.76171875,105.46875,-44.43359375,-13.671875
41.9921875,61.03515625,-41.50390625,60.546875
17.08984375,-13.671875,-41.9921875,54.6875
-82.03125,-178.7109375,-52.24609375,-67.3828125
-177.24609375,-210.9375,-60.546875,-237.79296875
-32.2265625,77.63671875,-39.0625,-45.8984375
65.91796875,104.98046875,-31.25,66.89453125
48.33984375,6.8359375,-34.66796875,62.5
-53.22265625,-154.78515625,-37.109375,-36.1328125
-179.6875,-230.46875,-48.33984375,-228.515625
-52.734375,54.19921875,-40.52734375,-66.89453125
62.98828125,109.375,-27.83203125,72.75390625
33.203125,20.01953125,-27.83203125,66.40625
-54.19921875,-138.18359375,-33.203125,-19.04296875
-180.6640625,-248.046875,-46.38671875,-231.93359375
-84.9609375,38.0859375,-44.921875,-117.1875
41.9921875,104.00390625,-27.83203125,39.0625
26.3671875,4.39453125,-27.83203125,33.203125
-38.57421875,-109.375,-35.15625,-22.94921875
-177.734375,-238.28125,-41.9921875,-226.07421875
-124.51171875,-2.9296875,-44.921875,-153.80859375
27.34375,103.515625,-34.1796875,31.25
23.4375,7.32421875,-41.50390625,37.109375
-36.1328125,-93.26171875,-55.6640625,-0.9765625
-168.45703125,-243.65234375,-63.4765625,-195.80078125
-145.01953125,-51.7578125,-56.640625,-172.8515625
7.8125,127.44140625,-34.66796875,31.25
23.4375,67.87109375,-32.71484375,46.875
-20.99609375,-70.3125,-46.38671875,18.06640625
-147.4609375,-246.09375,-53.7109375,-171.38671875
-146.484375,-77.63671875,-48.33984375,-204.1015625
7.8125,107.91015625,-36.1328125,11.23046875
36.62109375,45.41015625,-33.203125,47.8515625
0.48828125,-42.96875,-31.25,36.1328125
-135.25390625,-242.1875,-39.55078125,-137.20703125
-172.36328125,-124.51171875,-56.640625,-217.7734375
-6.8359375,117.67578125,-44.43359375,-4.39453125
32.71484375,37.59765625,-33.203125,41.015625
-1.953125,-30.76171875,-32.71484375,40.0390625
-114.2578125,-188.4765625,-41.50390625,-106.93359375
-179.6875,-163.0859375,-56.640625,-235.3515625
-15.625,94.23828125,-46.38671875,-24.4140625
50.29296875,64.94140625,-32.71484375,48.828125
14.6484375,-12.20703125,-36.62109375,46.875
-86.42578125,-182.12890625,-41.9921875,-78.61328125
-177.24609375,-191.40625,-50.29296875,-244.140625
-37.109375,91.30859375,-43.45703125,-43.9453125
54.6875,86.9140625,-32.2265625,60.05859375
26.85546875,5.37109375,-37.109375,50.78125
-68.359375,-156.73828125,-53.22265625,-56.640625
-155.2734375,-201.66015625,-65.4296875,-225.09765625
-39.55078125,84.9609375,-47.8515625,-57.12890625
36.1328125,89.84375,-40.52734375,50.78125
11.23046875,-16.6015625,-46.38671875,47.36328125
-66.40625,-157.71484375,-42.96875,-33.203125
-202.1484375,-254.8828125,-54.6875,-251.953125
-121.09375,18.06640625,-48.828125,-134.27734375
5.37109375,90.8203125,-32.2265625,28.80859375
5.859375,-2.44140625,-35.15625,32.71484375
-59.5703125,-134.765625,-43.9453125,-26.85546875
-197.265625,-269.04296875,-55.17578125,-232.91015625
-120.1171875,-49.8046875,-50.29296875,-140.625
27.34375,75.1953125,-37.109375,47.36328125
17.578125,34.66796875,-37.59765625,54.19921875
-44.921875,-114.2578125,-40.52734375,13.18359375
-166.50390625,-264.16015625,-47.8515625,-184.08203125
-125.9765625,-37.109375,-48.828125,-145.5078125
15.625,70.80078125,-36.1328125,44.921875
25.390625,7.32421875,-27.83203125,57.6171875
-23.92578125,-89.84375,-27.83203125,39.55078125
-159.1796875,-270.5078125,-41.015625,-155.76171875
-150.87890625,-104.4921875,-51.26953125,-178.22265625
0.0,84.47265625,-46.38671875,22.94921875
9.27734375,14.6484375,-37.109375,39.55078125
-25.390625,-70.80078125,-35.64453125,23.4375
-146.484375,-215.8203125,-50.78125,-157.2265625
-168.45703125,-120.1171875,-52.24609375,-223.6328125
5.859375,80.078125,-40.52734375,-1.953125
42.96875,37.109375,-46.875,35.15625
-0.9765625,-47.8515625,-48.828125,33.203125
-103.02734375,-208.984375,-48.828125,-101.07421875
-163.57421875,-127.9296875,-64.453125,-221.19140625
-28.80859375,94.7265625,-61.5234375,-23.4375
28.3203125,53.7109375,-54.6875,44.921875
6.34765625,-1.953125,-62.5,44.921875
-94.7265625,-166.9921875,-69.3359375,-85.9375
-179.19921875,-162.59765625,-69.82421875,-244.62890625
-31.25,102.5390625,-50.29296875,-44.921875
45.8984375,70.80078125,-40.0390625,47.36328125
9.27734375,-11.71875,-45.41015625,35.15625
-86.42578125,-159.1796875,-57.6171875,-73.2421875
-182.6171875,-193.84765625,-69.3359375,-249.51171875
-53.22265625,74.70703125,-52.24609375,-73.73046875
49.31640625,87.40234375,-46.38671875,47.8515625
25.390625,9.765625,-51.7578125,41.9921875
-53.22265625,-120.60546875,-48.33984375,-32.71484375
-166.015625,-211.42578125,-62.98828125,-220.703125
-71.77734375,21.97265625,-59.5703125,-83.984375
45.41015625,91.30859375,-42.96875,64.453125
24.4140625,31.73828125,-45.8984375,61.03515625
-50.29296875,-115.234375,-55.6640625,-4.8828125
-167.96875,-229.98046875,-65.91796875,-211.9140625
-91.796875,22.4609375,-58.10546875,-121.09375
43.9453125,104.98046875,-45.8984375,55.6640625
28.3203125,8.7890625,-44.43359375,49.8046875
-35.64453125,-108.3984375,-44.43359375,-8.7890625
-162.59765625,-243.65234375,-52.24609375,-207.51953125
-125.0,-30.2734375,-50.78125,-156.73828125
18.06640625,105.46875,-32.2265625,34.66796875
22.94921875,27.34375,-24.4140625,41.9921875
-20.5078125,-74.70703125,-31.73828125,17.08984375
-148.4375,-226.07421875,-59.5703125,-176.7578125
-140.13671875,-66.89453125,-69.82421875,-188.4765625
10.25390625,82.03125,-51.7578125,12.6953125
31.25,20.5078125,-43.9453125,40.0390625
-10.25390625,-62.5,-44.921875,32.2265625
-139.16015625,-236.328125,-65.4296875,-156.73828125
-154.296875,-97.65625,-80.078125,-214.84375
9.765625,119.62890625,-62.98828125,6.8359375
41.9921875,49.31640625,-47.8515625,41.9921875
0.48828125,-36.62109375,-57.6171875,36.62109375
-116.69921875,-212.890625,-75.68359375,-123.046875
-156.25,-130.859375,-66.89453125,-225.09765625
-5.37109375,126.46484375,-41.9921875,-1.953125
27.34375,52.24609375,-36.1328125,50.29296875
-3.41796875,-18.5546875,-39.0625,40.52734375
-104.4921875,-179.19921875,-47.36328125,-86.9140625
-177.734375,-180.6640625,-63.4765625,-228.02734375
-34.1796875,74.21875,-55.17578125,-30.2734375
33.203125,56.640625,-38.57421875,55.17578125
10.25390625,15.13671875,-36.62109375,56.15234375
-83.0078125,-150.390625,-50.78125,-54.6875
-175.29296875,-203.125,-69.3359375,-229.4921875
-46.875,80.078125,-63.4765625,-54.6875
43.9453125,106.4453125,-50.78125,58.10546875
20.5078125,28.3203125,-46.875,50.78125
-77.1484375,-158.69140625,-50.29296875,-55.6640625
-190.4296875,-236.328125,-62.01171875,-247.55859375
-70.80078125,55.17578125,-49.8046875,-93.26171875
31.73828125,82.03125,-36.62109375,41.9921875
8.30078125,-10.25390625,-35.64453125,41.015625
-53.22265625,-132.32421875,-46.38671875,-29.296875
-181.640625,-253.41796875,-62.98828125,-236.328125
-104.4921875,13.671875,-54.6875,-120.60546875
28.80859375,105.46875,-43.9453125,58.10546875
23.92578125,20.99609375,-39.55078125,62.01171875
-39.55078125,-109.375,-43.45703125,9.27734375
-170.8984375,-244.140625,-64.453125,-202.1484375
-111.81640625,-29.296875,-67.3828125,-145.5078125
35.15625,82.51953125,-48.828125,47.36328125
30.2734375,15.13671875,-42.48046875,62.01171875
-32.71484375,-104.00390625,-45.41015625,23.92578125
-159.66796875,-254.39453125,-59.08203125,-184.5703125
-133.30078125,-53.22265625,-66.89453125,-171.38671875
22.4609375,107.421875,-58.59375,42.96875
30.76171875,34.66796875,-52.734375,54.19921875
-19.53125,-64.453125,-43.45703125,23.4375
-139.6484375,-244.62890625,-48.33984375,-167.96875
-152.34375,-93.26171875,-57.6171875,-210.44921875
8.7890625,135.25390625,-44.43359375,23.4375
41.9921875,52.24609375,-38.57421875,66.40625
3.41796875,-75.1953125,-41.015625,51.7578125
-103.02734375,-237.79296875,-57.6171875,-109.375
-134.27734375,-133.30078125,-60.05859375,-194.3359375
15.625,104.98046875,-45.8984375,21.97265625
37.59765625,49.31640625,-36.62109375,66.40625
-21.484375,-45.8984375,-25.390625,40.52734375
-126.953125,-208.49609375,-28.3203125,-100.09765625
-182.12890625,-173.33984375,-40.52734375,-226.5625
-33.69140625,77.1484375,-32.2265625,-15.625
26.85546875,49.8046875,-19.53125,61.5234375
-3.90625,-9.27734375,-22.94921875,49.8046875
-101.07421875,-192.87109375,-35.15625,-73.73046875
-197.75390625,-236.81640625,-52.24609375,-241.2109375
-62.01171875,48.33984375,-45.41015625,-46.875
25.87890625,53.22265625,-34.1796875,63.96484375
1.46484375,-15.625,-39.0625,58.10546875
-76.171875,-156.73828125,-44.43359375,-47.36328125
-176.26953125,-216.30859375,-52.734375,-243.65234375
-70.80078125,43.45703125,-49.31640625,-83.49609375
25.87890625,81.54296875,-44.43359375,62.5
9.765625,7.32421875,-42.96875,52.24609375
-62.01171875,-138.671875,-46.875,-36.62109375
-173.828125,-222.65625,-56.15234375,-232.421875
-83.0078125,12.6953125,-57.12890625,-109.86328125
35.15625,76.171875,-54.6875,52.734375
23.4375,10.25390625,-44.921875,52.734375
-38.57421875,-132.32421875,-39.0625,2.44140625
-164.55078125,-262.6953125,-57.12890625,-209.9609375
-108.3984375,-21.484375,-62.5,-143.06640625
27.34375,101.5625,-46.875,56.640625
32.71484375,19.04296875,-39.0625,61.5234375
-9.27734375,-110.3515625,-47.36328125,12.6953125
-134.765625,-268.06640625,-62.5,-197.75390625
-101.5625,-53.22265625,-56.15234375,-161.1328125
51.26953125,114.74609375,-47.8515625,62.5
44.921875,19.04296875,-44.921875,59.08203125
-9.27734375,-88.8671875,-37.109375,28.3203125
-142.08984375,-245.1171875,-46.875,-163.0859375
-149.90234375,-92.7734375,-52.24609375,-193.84765625
14.6484375,105.95703125,-36.1328125,25.87890625
38.57421875,40.0390625,-39.55078125,47.36328125
-7.32421875,-70.3125,-45.8984375,30.2734375
-131.34765625,-241.2109375,-51.26953125,-150.87890625
-170.41015625,-119.62890625,-59.5703125,-229.4921875
-11.71875,105.95703125,-46.875,3.90625
30.2734375,67.87109375,-45.41015625,56.15234375
10.7421875,19.04296875,-48.828125,56.15234375
-107.91015625,-213.37890625,-53.7109375,-100.5859375
-188.4765625,-176.26953125,-60.546875,-228.02734375
-21.97265625,104.4921875,-46.875,1.46484375
39.55078125,63.96484375,-35.15625,70.3125
-2.9296875,-11.71875,-36.62109375,50.29296875
-107.421875,-182.12890625,-41.015625,-82.03125
-185.546875,-192.87109375,-51.7578125,-243.1640625
-33.69140625,86.9140625,-41.50390625,-32.71484375
49.31640625,95.703125,-28.80859375,76.66015625
22.4609375,-9.765625,-38.57421875,61.5234375
-71.77734375,-181.15234375,-53.7109375,-48.33984375
-174.8046875,-193.84765625,-67.3828125,-237.79296875
-46.38671875,72.75390625,-61.03515625,-73.2421875
57.6171875,77.63671875,-44.43359375,60.05859375
29.296875,8.7890625,-38.0859375,49.8046875
-52.734375,-139.16015625,-42.48046875,-36.1328125
-168.45703125,-234.86328125,-52.24609375,-233.88671875
-75.1953125,31.73828125,-50.78125,-104.98046875
45.41015625,94.7265625,-43.45703125,53.7109375
28.80859375,10.7421875,-42.96875,48.828125
-46.875,-123.046875,-45.8984375,-13.671875
-170.8984375,-248.046875,-63.4765625,-225.5859375
-104.98046875,7.32421875,-64.94140625,-145.5078125
35.64453125,122.55859375,-47.8515625,53.7109375
32.2265625,15.13671875,-47.36328125,59.5703125
-33.69140625,-115.234375,-47.36328125,13.671875
-145.5078125,-258.30078125,-52.734375,-183.59375
-111.328125,-61.5234375,-57.6171875,-169.921875
23.92578125,91.796875,-51.7578125,24.4140625
31.25,24.4140625,-48.828125,43.45703125
-20.5078125,-94.7265625,-43.9453125,15.13671875
-143.06640625,-253.90625,-62.01171875,-180.17578125
-141.11328125,-65.91796875,-75.1953125,-197.75390625
3.41796875,109.86328125,-48.828125,16.11328125
22.94921875,43.45703125,-30.2734375,42.96875
-13.671875,-28.3203125,-38.57421875,35.64453125
-135.7421875,-236.81640625,-51.26953125,-143.06640625
-161.62109375,-126.46484375,-53.22265625,-211.42578125
-0.48828125,118.1640625,-37.109375,19.53125
31.25,35.15625,-32.71484375,63.4765625
-2.9296875,-53.7109375,-42.48046875,47.8515625
-109.86328125,-223.14453125,-60.05859375,-113.28125
-163.57421875,-149.4140625,-63.4765625,-227.5390625
-3.90625,121.09375,-44.921875,-7.8125
49.31640625,77.63671875,-40.52734375,54.6875
17.578125,-7.8125,-41.015625,49.31640625
-73.73046875,-165.52734375,-53.7109375,-76.66015625
-148.4375,-145.99609375,-68.359375,-220.703125
-7.32421875,83.984375,-38.57421875,-11.23046875
44.43359375,51.26953125,-23.4375,70.80078125
4.8828125,-6.8359375,-38.57421875,55.6640625
-75.1953125,-163.57421875,-47.8515625,-44.43359375
-181.15234375,-204.1015625,-50.29296875,-227.05078125
-52.24609375,68.84765625,-38.57421875,-56.15234375
40.0390625,56.640625,-31.25,68.84765625
11.23046875,-4.8828125,-26.3671875,53.7109375
-69.82421875,-130.859375,-28.3203125,-47.8515625
-192.87109375,-227.05078125,-44.43359375,-244.140625
-78.61328125,51.7578125,-39.55078125,-103.02734375
42.96875,111.81640625,-33.69140625,47.36328125
17.578125,5.37109375,-30.2734375,50.78125
-46.875,-136.23046875,-33.69140625,-8.7890625
-174.8046875,-252.44140625,-61.03515625,-220.21484375
-97.65625,-5.859375,-52.734375,-127.9296875
41.9921875,91.796875,-36.1328125,54.19921875
29.296875,13.18359375,-39.55078125,56.640625
-41.50390625,-118.65234375,-40.52734375,-3.90625
-166.9921875,-252.9296875,-52.734375,-207.51953125
-113.76953125,-26.85546875,-56.15234375,-154.78515625
41.50390625,92.7734375,-42.96875,41.9921875
41.015625,17.578125,-40.52734375,47.36328125
-17.08984375,-76.171875,-45.8984375,15.13671875
-143.5546875,-242.1875,-60.05859375,-169.43359375
-133.30078125,-68.359375,-68.359375,-183.10546875
17.578125,104.98046875,-49.31640625,21.97265625
28.80859375,38.57421875,-38.0859375,46.875
-16.11328125,-62.5,-45.8984375,23.92578125
-148.4375,-246.09375,-54.19921875,-162.109375
-168.9453125,-109.375,-51.7578125,-216.30859375
-3.90625,97.16796875,-36.62109375,9.765625
30.76171875,37.59765625,-36.62109375,46.875
-3.41796875,-40.52734375,-42.48046875,34.66796875
-126.953125,-208.49609375,-57.6171875,-126.953125
-174.31640625,-118.65234375,-69.3359375,-229.4921875
-17.08984375,107.421875,-59.08203125,-10.7421875
25.390625,34.1796875,-49.31640625,43.45703125
0.0,-32.2265625,-42.96875,35.64453125
-100.09765625,-191.40625,-49.8046875,-95.703125
-171.38671875,-172.36328125,-55.17578125,-235.3515625
-26.3671875,91.796875,-45.8984375,-34.66796875
39.0625,67.3828125,-38.0859375,53.7109375
15.13671875,-2.44140625,-38.0859375,49.8046875
-83.984375,-165.52734375,-54.19921875,-68.84765625
-192.87109375,-202.1484375,-64.94140625,-240.234375
-50.29296875,80.56640625,-48.828125,-49.31640625
44.43359375,92.7734375,-36.62109375,69.82421875
11.71875,-15.13671875,-38.57421875,56.15234375
-72.75390625,-157.71484375,-46.38671875,-38.57421875
-183.59375,-215.8203125,-59.5703125,-236.328125
-69.82421875,32.2265625,-56.640625,-92.7734375
38.57421875,78.125,-41.50390625,49.8046875
25.87890625,13.671875,-42.96875,44.43359375
-48.828125,-127.9296875,-46.875,-19.53125
-177.734375,-238.28125,-54.19921875,-218.75
-91.796875,11.71875,-53.22265625,-119.140625
41.50390625,92.28515625,-45.8984375,52.734375
27.83203125,18.5546875,-43.9453125,51.26953125
-38.0859375,-96.6796875,-40.52734375,-5.859375
-164.0625,-248.046875,-56.640625,-217.28515625
-112.3046875,-35.15625,-59.08203125,-169.43359375
35.64453125,111.81640625,-28.80859375,34.66796875
25.87890625,17.578125,-25.87890625,47.8515625
-42.96875,-94.23828125,-41.015625,7.32421875
-165.0390625,-250.0,-52.734375,-186.5234375
-139.6484375,-78.61328125,-54.6875,-176.7578125
14.6484375,103.02734375,-42.96875,34.66796875
27.83203125,30.2734375,-37.109375,55.6640625
-20.01953125,-71.2890625,-35.15625,33.203125
-144.04296875,-242.67578125,-52.734375,-157.71484375
-148.4375,-74.21875,-57.12890625,-202.1484375
11.71875,115.72265625,-34.1796875,20.99609375
29.296875,14.6484375,-29.296875,55.17578125
-0.9765625,-40.52734375,-27.34375,48.33984375
-124.0234375,-220.703125,-34.66796875,-125.48828125
-176.26953125,-143.06640625,-47.8515625,-220.21484375
-14.6484375,100.5859375,-33.69140625,3.90625
38.0859375,51.7578125,-25.390625,58.59375
5.859375,-21.484375,-28.80859375,52.24609375
-115.234375,-199.21875,-37.109375,-99.609375
-178.7109375,-166.50390625,-47.36328125,-232.91015625
-25.390625,103.02734375,-37.59765625,-22.94921875
29.78515625,89.35546875,-35.15625,51.7578125
0.9765625,-20.99609375,-39.55078125,41.9921875
-97.16796875,-197.265625,-45.41015625,-75.1953125
-188.96484375,-186.5234375,-57.12890625,-238.76953125
-46.875,72.75390625,-49.31640625,-56.640625
36.62109375,68.84765625,-36.62109375,44.43359375
14.16015625,8.30078125,-31.73828125,40.52734375
-73.2421875,-159.66796875,-35.64453125,-51.7578125
-189.453125,-232.91015625,-59.08203125,-242.67578125
-71.2890625,66.40625,-57.6171875,-86.42578125
46.38671875,101.5625,-44.43359375,55.17578125
29.78515625,12.20703125,-40.52734375,52.24609375
-56.640625,-106.4453125,-41.50390625,-24.4140625
-185.546875,-228.02734375,-56.640625,-234.375
-99.12109375,-13.671875,-51.26953125,-141.11328125
33.69140625,83.0078125,-33.203125,22.4609375
24.4140625,28.3203125,-38.0859375,27.83203125
-49.31640625,-116.69921875,-43.45703125,-29.78515625
-179.6875,-254.8828125,-42.48046875,-227.5390625
-113.76953125,1.46484375,-40.52734375,-151.85546875
35.64453125,124.0234375,-35.64453125,40.0390625
29.296875,23.92578125,-33.69140625,45.41015625
-38.0859375,-108.3984375,-41.015625,0.0
-170.8984375,-250.48828125,-67.87109375,-204.1015625
-125.48828125,-19.04296875,-78.61328125,-176.26953125
42.48046875,98.14453125,-56.640625,49.31640625
45.41015625,18.06640625,-37.59765625,72.265625
-25.87890625,-72.75390625,-34.1796875,26.85546875
-175.78125,-278.3203125,-48.828125,-188.96484375
-167.96875,-114.2578125,-59.08203125,-221.19140625
4.8828125,90.8203125,-40.0390625,9.27734375
29.296875,19.53125,-26.85546875,43.45703125
-7.8125,-68.359375,-33.203125,23.92578125
-137.20703125,-249.0234375,-46.38671875,-152.83203125
-177.734375,-141.6015625,-61.5234375,-229.4921875
-9.27734375,103.515625,-46.38671875,-3.41796875
30.2734375,50.78125,-32.2265625,50.78125
0.0,-40.0390625,-34.66796875,47.36328125
-106.4453125,-225.5859375,-40.52734375,-104.00390625
-178.22265625,-177.734375,-56.15234375,-226.07421875
-20.99609375,72.75390625,-48.33984375,-10.25390625
43.45703125,56.15234375,-39.55078125,58.59375
14.6484375,3.41796875,-41.9921875,59.08203125
-92.28515625,-191.40625,-50.78125,-65.4296875
-191.40625,-205.56640625,-59.5703125,-238.76953125
-38.0859375,85.9375,-52.734375,-43.9453125
52.24609375,76.66015625,-47.8515625,58.10546875
19.04296875,18.5546875,-42.96875,56.15234375
-82.51953125,-140.625,-52.734375,-48.33984375
-193.84765625,-221.19140625,-66.40625,-233.3984375
-62.01171875,52.24609375,-62.98828125,-67.87109375
46.38671875,80.56640625,-50.29296875,65.4296875
30.76171875,13.18359375,-35.64453125,67.87109375
-64.453125,-137.20703125,-44.43359375,-17.578125
-187.01171875,-244.62890625,-60.05859375,-220.21484375
-76.171875,22.4609375,-49.8046875,-100.09765625
46.38671875,107.91015625,-33.69140625,50.29296875
34.1796875,31.25,-29.296875,45.8984375
-43.9453125,-122.0703125,-37.109375,-12.6953125
-179.6875,-240.234375,-52.24609375,-214.35546875
-98.14453125,28.3203125,-44.921875,-125.0
45.41015625,112.3046875,-36.1328125,51.26953125
32.71484375,-2.44140625,-41.9921875,45.41015625
-27.83203125,-117.67578125,-46.38671875,10.7421875
-161.1328125,-259.27734375,-61.03515625,-186.5234375
-122.55859375,-30.2734375,-55.17578125,-160.64453125
39.0625,120.1171875,-32.71484375,35.64453125
46.38671875,35.15625,-40.52734375,47.8515625
-9.27734375,-80.078125,-44.921875,26.85546875
-148.4375,-239.74609375,-51.26953125,-157.2265625
-155.76171875,-64.94140625,-58.10546875,-182.6171875
11.23046875,119.62890625,-46.875,22.94921875
43.45703125,64.453125,-41.50390625,53.22265625
-0.48828125,-47.8515625,-35.64453125,35.64453125
-141.6015625,-254.39453125,-49.31640625,-137.6953125
-166.015625,-123.53515625,-60.05859375,-195.3125
17.578125,109.86328125,-47.36328125,12.20703125
42.48046875,45.8984375,-47.36328125,41.50390625
4.8828125,-24.4140625,-57.12890625,40.0390625
-107.421875,-198.73046875,-65.91796875,-102.5390625
-167.96875,-131.34765625,-62.01171875,-213.37890625
7.32421875,118.65234375,-44.43359375,-5.859375
64.94140625,50.78125,-37.59765625,56.640625
23.4375,-5.37109375,-42.96875,46.875
-86.9140625,-143.5546875,-52.24609375,-76.66015625
-179.19921875,-174.8046875,-62.98828125,-219.23828125
-24.90234375,95.21484375,-48.828125,-25.87890625
55.17578125,95.703125,-36.62109375,62.5
15.625,-7.32421875,-41.9921875,44.43359375
-83.984375,-169.921875,-53.7109375,-66.89453125
-192.3828125,-209.9609375,-62.98828125,-232.421875
-61.03515625,82.03125,-54.6875,-62.98828125
45.41015625,101.5625,-51.26953125,45.8984375
20.99609375,17.08984375,-54.19921875,44.921875
-72.75390625,-145.01953125,-60.546875,-38.0859375
-194.82421875,-233.3984375,-69.82421875,-236.328125
-77.63671875,64.94140625,-54.6875,-98.6328125
47.8515625,88.37890625,-35.15625,47.8515625
30.76171875,4.39453125,-31.25,41.50390625
-41.50390625,-111.81640625,-32.2265625,-4.39453125
-176.26953125,-256.8359375,-52.734375,-205.078125
-99.609375,18.06640625,-62.5,-134.27734375
34.66796875,125.9765625,-47.36328125,43.45703125
22.4609375,10.7421875,-46.38671875,45.41015625
-48.33984375,-113.28125,-53.7109375,-4.39453125
-190.4296875,-257.8125,-64.94140625,-191.89453125
-132.32421875,-32.71484375,-62.98828125,-138.18359375
21.97265625,104.4921875,-46.38671875,56.640625
25.390625,43.9453125,-37.109375,60.546875
-29.78515625,-91.796875,-37.59765625,16.6015625
-173.33984375,-279.296875,-50.78125,-182.6171875
-147.4609375,-67.3828125,-56.640625,-180.17578125
22.4609375,100.5859375,-46.38671875,24.90234375
44.43359375,29.78515625,-42.48046875,52.24609375
11.23046875,-54.19921875,-38.57421875,47.36328125
-127.9296875,-237.3046875,-53.22265625,-146.484375
-159.66796875,-92.7734375,-62.01171875,-215.33203125
9.765625,117.67578125,-42.96875,-1.953125
43.9453125,30.76171875,-41.50390625,35.15625
11.23046875,-37.109375,-56.15234375,38.0859375
-118.1640625,-212.40234375,-62.01171875,-118.1640625
-172.36328125,-151.3671875,-56.15234375,-215.8203125
-6.8359375,95.703125,-44.43359375,-14.6484375
33.203125,51.7578125,-36.62109375,25.390625
1.953125,-22.94921875,-33.69140625,41.9921875
-120.60546875,-209.47265625,-44.921875,-101.5625
-207.03125,-187.01171875,-58.10546875,-249.0234375
-36.62109375,91.30859375,-45.8984375,-39.55078125
38.57421875,65.91796875,-39.55078125,29.296875
5.37109375,-2.9296875,-45.41015625,30.2734375
-75.1953125,-163.0859375,-55.17578125,-53.7109375
-166.50390625,-189.94140625,-65.4296875,-211.42578125
-35.64453125,110.3515625,-43.45703125,-49.31640625
48.33984375,87.890625,-27.34375,40.52734375
24.90234375,-25.390625,-29.296875,30.2734375
-64.94140625,-161.1328125,-37.59765625,-47.8515625
-203.61328125,-237.79296875,-50.78125,-234.86328125
-88.37890625,41.015625,-42.96875,-102.5390625
35.15625,88.8671875,-29.78515625,31.25
20.01953125,16.11328125,-26.3671875,34.66796875
-55.17578125,-125.9765625,-40.0390625,-29.78515625
-190.91796875,-251.46484375,-57.6171875,-225.09765625
-108.88671875,10.25390625,-54.6875,-132.32421875
35.64453125,103.515625,-49.31640625,23.4375
34.1796875,23.4375,-46.875,24.90234375
-41.9921875,-124.51171875,-48.828125,-22.94921875
-185.05859375,-269.04296875,-62.98828125,-219.7265625
-123.53515625,-20.99609375,-61.5234375,-169.43359375
40.52734375,103.515625,-36.62109375,23.92578125
48.828125,27.83203125,-30.76171875,29.296875
-13.671875,-99.609375,-41.50390625,-14.16015625
-154.296875,-256.8359375,-53.7109375,-192.3828125
-126.46484375,-49.8046875,-55.17578125,-188.96484375
39.55078125,119.140625,-47.36328125,7.32421875
56.15234375,45.8984375,-41.9921875,31.73828125
3.90625,-53.7109375,-44.43359375,7.32421875
-144.04296875,-233.88671875,-61.03515625,-162.59765625
-154.78515625,-107.91015625,-68.84765625,-201.66015625
20.99609375,111.328125,-55.6640625,-2.9296875
60.05859375,60.05859375,-40.0390625,42.96875
4.8828125,-45.41015625,-36.62109375,22.94921875
-140.625,-236.81640625,-46.38671875,-146.484375
-173.828125,-128.41796875,-49.8046875,-215.8203125
-4.39453125,104.4921875,-39.55078125,-21.97265625
41.9921875,37.109375,-39.0625,23.92578125
3.41796875,-27.34375,-42.48046875,15.625
-119.62890625,-207.03125,-44.43359375,-120.1171875
-194.3359375,-171.38671875,-53.22265625,-240.72265625
-23.4375,113.76953125,-45.41015625,-42.48046875
51.26953125,51.7578125,-43.9453125,29.296875
15.13671875,-34.1796875,-49.31640625,12.6953125
-96.19140625,-185.05859375,-57.12890625,-93.75
-194.82421875,-202.1484375,-66.40625,-233.3984375
-38.57421875,77.1484375,-47.36328125,-54.6875
52.24609375,70.80078125,-41.9921875,29.78515625
16.11328125,1.953125,-44.43359375,19.04296875
-80.56640625,-154.296875,-46.875,-70.3125
-203.61328125,-233.3984375,-59.08203125,-255.859375
-82.03125,34.1796875,-50.29296875,-106.4453125
40.52734375,87.890625,-47.8515625,13.671875
32.71484375,37.109375,-50.29296875,12.6953125
-60.546875,-136.71875,-56.15234375,-44.921875
-200.1953125,-258.30078125,-72.75390625,-225.5859375
-89.35546875,28.80859375,-61.5234375,-110.83984375
39.55078125,100.5859375,-42.96875,31.73828125
20.01953125,12.20703125,-41.9921875,18.06640625
-48.33984375,-125.9765625,-49.8046875,-25.390625
-187.01171875,-268.5546875,-62.98828125,-196.77734375
-114.2578125,-18.06640625,-51.7578125,-142.08984375
50.78125,108.88671875,-30.76171875,14.16015625
37.59765625,11.71875,-27.83203125,18.5546875
-20.99609375,-85.9375,-31.73828125,-12.6953125
-157.2265625,-219.7265625,-49.8046875,-179.19921875
-139.16015625,-35.64453125,-57.12890625,-162.109375
26.3671875,95.703125,-38.0859375,19.53125
35.15625,18.06640625,-41.50390625,33.69140625
-14.16015625,-82.03125,-53.22265625,11.23046875
-149.90234375,-249.51171875,-52.24609375,-166.015625
-149.4140625,-80.56640625,-50.29296875,-195.3125
22.94921875,103.515625,-39.0625,3.41796875
47.8515625,41.50390625,-30.2734375,27.83203125
-6.34765625,-48.828125,-31.73828125,18.06640625
-139.6484375,-228.02734375,-45.8984375,-130.859375
-169.43359375,-123.046875,-57.12890625,-197.75390625
-0.9765625,108.3984375,-51.26953125,-4.39453125
43.45703125,41.9921875,-43.9453125,39.55078125
17.578125,-36.1328125,-40.52734375,40.0390625
-112.79296875,-195.3125,-48.33984375,-104.98046875
-191.89453125,-164.55078125,-60.546875,-227.5390625
-18.06640625,95.703125,-47.8515625,-28.80859375
43.45703125,52.734375,-34.1796875,28.3203125
13.671875,-7.32421875,-31.73828125,28.80859375
-94.23828125,-186.03515625,-42.48046875,-68.84765625
-198.2421875,-209.47265625,-60.546875,-223.6328125
-40.0390625,87.890625,-47.36328125,-42.96875
59.5703125,87.890625,-33.69140625,56.15234375
33.203125,27.83203125,-32.2265625,47.36328125
-71.77734375,-164.0625,-39.55078125,-35.15625
-192.3828125,-242.67578125,-55.17578125,-208.984375
-54.6875,66.40625,-45.41015625,-65.4296875
62.5,97.16796875,-34.1796875,62.01171875
45.41015625,24.90234375,-33.203125,60.05859375
-46.875,-130.859375,-37.59765625,-18.5546875
-186.03515625,-243.1640625,-48.828125,-195.80078125
-80.078125,28.3203125,-38.57421875,-84.9609375
51.7578125,93.26171875,-26.3671875,47.36328125
42.96875,14.16015625,-32.2265625,40.52734375
-39.0625,-136.71875,-42.48046875,-8.30078125
-185.546875,-250.0,-49.31640625,-194.3359375
-114.2578125,1.46484375,-47.36328125,-130.859375
34.66796875,92.28515625,-37.59765625,34.66796875
42.96875,16.6015625,-36.62109375,37.59765625
-27.83203125,-106.4453125,-41.015625,1.46484375
-182.6171875,-256.8359375,-60.05859375,-179.6875
-126.46484375,-40.0390625,-65.4296875,-150.87890625
47.36328125,101.07421875,-43.9453125,36.62109375
47.8515625,30.76171875,-38.0859375,46.38671875
-19.53125,-90.33203125,-41.50390625,20.01953125
-178.7109375,-291.9921875,-58.59375,-177.734375
-172.36328125,-88.8671875,-62.98828125,-196.2890625
13.671875,134.765625,-43.45703125,20.01953125
34.66796875,28.3203125,-39.0625,42.96875
-12.6953125,-91.796875,-40.52734375,34.1796875
-143.5546875,-254.8828125,-41.015625,-110.3515625
-177.24609375,-140.13671875,-52.734375,-179.6875
6.34765625,103.02734375,-46.875,16.11328125
47.36328125,55.6640625,-35.15625,49.31640625
17.578125,-33.203125,-39.55078125,45.41015625
-104.98046875,-225.09765625,-51.26953125,-89.84375
-181.640625,-157.2265625,-58.10546875,-203.61328125
-5.37109375,98.14453125,-48.828125,-10.25390625
56.640625,66.40625,-40.52734375,51.26953125
25.87890625,13.671875,-33.203125,49.31640625
-81.54296875,-181.15234375,-46.38671875,-68.359375
-181.640625,-192.3828125,-67.87109375,-216.796875
-29.78515625,84.47265625,-55.17578125,-38.57421875
61.5234375,70.3125,-45.41015625,60.546875
29.296875,3.41796875,-41.9921875,47.8515625
-80.078125,-161.1328125,-37.59765625,-63.4765625
-202.1484375,-225.09765625,-57.6171875,-229.4921875
-59.5703125,61.5234375,-55.17578125,-66.89453125
53.7109375,93.75,-34.1796875,49.31640625
25.390625,20.5078125,-35.15625,43.9453125
-67.87109375,-148.4375,-46.875,-18.5546875
-196.77734375,-232.91015625,-55.6640625,-189.94140625
-80.56640625,42.96875,-45.41015625,-74.70703125
46.38671875,105.95703125,-34.1796875,61.5234375
36.1328125,27.83203125,-40.0390625,62.98828125
-47.36328125,-153.3203125,-43.45703125,-5.859375
-195.80078125,-275.87890625,-55.6640625,-196.77734375
-109.86328125,-2.9296875,-51.7578125,-111.328125
41.9921875,108.3984375,-37.59765625,39.55078125
37.109375,14.16015625,-39.55078125,31.25
-38.57421875,-108.3984375,-39.0625,-14.6484375
-186.5234375,-254.8828125,-49.31640625,-201.66015625
-133.7890625,-31.25,-49.8046875,-162.59765625
24.4140625,125.48828125,-37.109375,4.39453125
26.3671875,21.97265625,-41.9921875,18.5546875
-21.97265625,-107.421875,-43.9453125,7.8125
-164.55078125,-261.71875,-51.7578125,-172.36328125
-157.71484375,-70.80078125,-60.05859375,-195.3125
20.5078125,111.328125,-46.875,-2.44140625
52.24609375,50.29296875,-42.48046875,27.83203125
7.8125,-52.734375,-41.50390625,17.08984375
-148.92578125,-246.09375,-55.6640625,-149.90234375
-170.41015625,-103.02734375,-63.96484375,-195.80078125
20.99609375,118.65234375,-45.41015625,2.9296875
59.08203125,51.7578125,-40.52734375,28.80859375
19.53125,-28.3203125,-41.9921875,31.73828125
-120.1171875,-238.28125,-50.29296875,-114.2578125
-181.640625,-171.875,-57.12890625,-212.890625
0.9765625,93.26171875,-41.015625,-17.08984375
61.03515625,59.08203125,-39.0625,43.45703125
31.73828125,-24.4140625,-40.52734375,59.5703125
-102.05078125,-210.9375,-44.921875,-70.3125
-187.98828125,-174.31640625,-57.6171875,-202.63671875
-5.37109375,115.234375,-48.33984375,-23.4375
63.4765625,76.66015625,-38.0859375,22.4609375
26.3671875,-7.8125,-33.69140625,20.5078125
-87.40234375,-169.921875,-50.29296875,-70.3125
-193.84765625,-193.359375,-68.359375,-221.6796875
-35.15625,77.1484375,-48.828125,-53.7109375
63.4765625,66.89453125,-42.48046875,38.0859375
33.69140625,12.20703125,-45.41015625,29.296875
-75.1953125,-143.5546875,-50.78125,-50.78125
-209.47265625,-224.12109375,-62.01171875,-237.3046875
-67.87109375,57.12890625,-44.921875,-104.98046875
56.15234375,91.30859375,-37.59765625,30.2734375
34.1796875,25.87890625,-42.96875,39.55078125
-49.31640625,-118.65234375,-41.9921875,-8.7890625
-201.66015625,-238.76953125,-49.31640625,-195.80078125
-107.91015625,20.99609375,-42.96875,-103.02734375
42.48046875,112.3046875,-35.64453125,47.36328125
35.15625,15.625,-35.15625,50.78125
-45.41015625,-134.765625,-36.62109375,5.37109375
-204.1015625,-267.08984375,-47.8515625,-189.453125
-137.20703125,-28.80859375,-46.875,-144.04296875
29.296875,108.88671875,-34.1796875,28.80859375
23.4375,36.62109375,-34.66796875,35.64453125
-30.76171875,-95.21484375,-41.015625,7.8125
-179.19921875,-275.87890625,-55.6640625,-178.22265625
-155.76171875,-59.08203125,-53.22265625,-172.36328125
28.3203125,106.4453125,-37.59765625,17.08984375
46.38671875,30.76171875,-41.015625,31.25
1.953125,-53.22265625,-45.8984375,22.94921875
-134.27734375,-246.09375,-57.12890625,-140.625
-155.76171875,-89.35546875,-62.98828125,-193.84765625
30.2734375,115.72265625,-47.8515625,2.9296875
64.453125,36.62109375,-43.45703125,41.015625
7.8125,-41.50390625,-37.59765625,36.62109375
-130.37109375,-228.02734375,-44.921875,-117.1875
-170.8984375,-140.625,-56.15234375,-209.9609375
3.90625,99.609375,-43.9453125,-3.90625
45.41015625,67.87109375,-35.64453125,45.41015625
15.625,-9.27734375,-32.2265625,37.109375
-113.76953125,-205.56640625,-43.9453125,-88.8671875
-190.4296875,-157.2265625,-52.24609375,-213.37890625
-12.6953125,85.9375,-36.1328125,-36.62109375
55.17578125,43.9453125,-33.69140625,29.296875
18.5546875,-10.25390625,-35.64453125,30.76171875
-93.75,-188.96484375,-39.0625,-69.3359375
-196.77734375,-189.453125,-51.26953125,-227.05078125
-33.203125,111.328125,-47.36328125,-48.33984375
69.3359375,80.56640625,-39.0625,56.640625
41.50390625,3.90625,-29.296875,46.875
-58.59375,-154.296875,-34.1796875,-36.1328125
-181.640625,-238.76953125,-48.33984375,-223.14453125
-46.875,64.94140625,-39.55078125,-89.35546875
81.54296875,121.58203125,-30.76171875,43.9453125
57.6171875,7.8125,-33.69140625,39.0625
-41.015625,-152.34375,-40.52734375,-30.76171875
-178.22265625,-239.2578125,-54.6875,-210.44921875
-72.75390625,36.1328125,-51.7578125,-109.86328125
62.98828125,119.62890625,-41.50390625,29.78515625
51.26953125,32.71484375,-37.109375,37.109375
-23.4375,-124.0234375,-35.64453125,3.90625
-173.828125,-245.60546875,-44.921875,-183.10546875
-101.07421875,1.953125,-43.9453125,-129.8828125
51.7578125,88.37890625,-30.76171875,26.85546875
51.26953125,14.16015625,-29.78515625,27.34375
-18.06640625,-72.75390625,-36.62109375,11.23046875
-179.6875,-257.32421875,-49.8046875,-176.26953125
-148.4375,-66.40625,-51.7578125,-176.26953125
24.90234375,100.5859375,-41.015625,16.11328125
43.45703125,23.92578125,-37.109375,38.0859375
-18.06640625,-80.078125,-36.1328125,14.16015625
-172.8515625,-249.51171875,-48.33984375,-147.94921875
-175.29296875,-83.984375,-55.17578125,-176.7578125
3.90625,108.3984375,-33.69140625,14.6484375
34.66796875,43.9453125,-23.4375,46.875
-12.6953125,-36.1328125,-34.66796875,28.80859375
-148.4375,-223.14453125,-48.33984375,-129.8828125
-184.5703125,-105.46875,-52.734375,-205.56640625
-5.859375,122.0703125,-46.38671875,-10.25390625
45.41015625,28.3203125,-48.828125,27.83203125
9.765625,-42.48046875,-45.8984375,25.87890625
-125.9765625,-212.40234375,-50.78125,-104.4921875
-198.2421875,-167.96875,-59.5703125,-215.33203125
-17.578125,97.16796875,-41.9921875,-24.4140625
60.05859375,67.87109375,-31.73828125,32.2265625
37.109375,-5.859375,-35.15625,32.2265625
-76.66015625,-181.640625,-44.921875,-69.3359375
-183.59375,-191.40625,-56.640625,-207.51953125
-16.11328125,86.9140625,-39.0625,-15.13671875
75.68359375,110.83984375,-28.3203125,78.61328125
30.2734375,28.3203125,-36.1328125,59.08203125
-71.77734375,-145.5078125,-39.0625,-33.69140625
-189.94140625,-185.05859375,-54.6875,-207.03125
-56.640625,79.58984375,-61.5234375,-74.21875
48.828125,110.83984375,-61.03515625,42.96875
29.296875,51.7578125,-66.89453125,41.50390625
-56.15234375,-99.609375,-77.1484375,-32.2265625
-195.80078125,-201.66015625,-91.796875,-212.40234375
-74.70703125,83.984375,-84.47265625,-103.02734375
67.3828125,142.08984375,-71.77734375,31.73828125
55.17578125,71.77734375,-71.77734375,32.2265625
-18.5546875,-43.45703125,-84.47265625,-14.16015625
-162.59765625,-208.49609375,-98.14453125,-187.01171875
-74.70703125,40.0390625,-91.30859375,-112.3046875
80.078125,161.62109375,-80.078125,42.96875
69.3359375,53.7109375,-73.2421875,30.76171875
1.953125,-57.12890625,-74.70703125,-22.94921875
-150.390625,-208.0078125,-94.7265625,-192.87109375
-105.95703125,-13.671875,-94.23828125,-160.15625
68.359375,141.11328125,-68.84765625,20.01953125
67.3828125,50.78125,-63.96484375,35.15625
7.8125,-61.03515625,-63.4765625,20.99609375
-143.06640625,-223.14453125,-78.61328125,-150.87890625
-139.16015625,-30.2734375,-82.51953125,-181.640625
48.828125,137.6953125,-54.19921875,20.99609375
82.51953125,44.921875,-52.734375,54.6875
21.484375,-44.921875,-63.96484375,43.45703125
-130.37109375,-226.5625,-69.82421875,-113.76953125
-155.2734375,-101.5625,-65.4296875,-173.828125
20.99609375,119.62890625,-49.31640625,24.4140625
58.10546875,66.89453125,-49.31640625,50.29296875
27.34375,-2.44140625,-61.5234375,55.6640625
-103.02734375,-204.1015625,-73.2421875,-83.984375
-168.9453125,-161.62109375,-66.40625,-195.80078125
3.90625,104.00390625,-42.96875,6.34765625
61.03515625,81.54296875,-31.25,63.96484375
36.62109375,-9.27734375,-40.0390625,60.546875
-84.9609375,-194.82421875,-59.5703125,-70.3125
-180.6640625,-167.96875,-68.84765625,-221.19140625
-13.671875,103.02734375,-51.26953125,-41.50390625
62.5,60.05859375,-49.31640625,33.203125
30.2734375,-14.6484375,-56.15234375,30.2734375
-75.1953125,-167.96875,-58.10546875,-64.453125
-202.63671875,-209.9609375,-59.08203125,-245.60546875
-59.08203125,86.42578125,-43.9453125,-82.03125
47.8515625,91.30859375,-32.71484375,41.50390625
20.01953125,11.71875,-38.57421875,34.1796875
-63.4765625,-125.48828125,-49.31640625,-47.8515625
-194.82421875,-237.3046875,-62.5,-234.86328125
-88.37890625,19.53125,-56.15234375,-114.2578125
32.71484375,88.8671875,-43.45703125,26.85546875
19.53125,16.11328125,-46.38671875,45.8984375
-60.05859375,-138.671875,-53.7109375,-15.625
-192.87109375,-268.06640625,-68.84765625,-228.515625
-96.19140625,8.7890625,-69.82421875,-133.30078125
51.7578125,114.74609375,-53.7109375,46.38671875
41.50390625,25.87890625,-43.45703125,43.45703125
-25.390625,-105.95703125,-41.50390625,-9.27734375
-156.25,-239.74609375,-56.15234375,-196.77734375
-100.09765625,11.23046875,-57.6171875,-158.203125
52.734375,116.2109375,-44.921875,17.578125
44.921875,0.9765625,-43.9453125,28.3203125
-20.5078125,-94.23828125,-40.52734375,0.9765625
-154.78515625,-252.9296875,-46.38671875,-180.6640625
-146.97265625,-81.54296875,-49.8046875,-189.453125
14.16015625,96.19140625,-38.57421875,22.4609375
35.64453125,28.80859375,-35.15625,58.10546875
-14.16015625,-66.89453125,-36.1328125,32.71484375
-147.4609375,-245.60546875,-56.15234375,-143.5546875
-169.921875,-115.72265625,-64.94140625,-191.89453125
-1.46484375,108.3984375,-48.33984375,21.484375
36.1328125,57.12890625,-33.69140625,59.5703125
-3.41796875,-45.8984375,-30.2734375,49.31640625
-128.41796875,-239.74609375,-43.9453125,-114.2578125
-180.6640625,-145.01953125,-53.7109375,-219.7265625
-13.671875,86.9140625,-41.015625,-4.8828125
38.0859375,46.38671875,-39.0625,64.94140625
2.44140625,-20.5078125,-41.50390625,65.91796875
-103.02734375,-207.03125,-52.734375,-68.359375
-178.7109375,-172.8515625,-63.4765625,-225.09765625
-26.3671875,98.14453125,-46.38671875,-33.69140625
42.96875,75.1953125,-39.0625,62.01171875
15.13671875,7.8125,-37.109375,66.89453125
-88.37890625,-155.2734375,-47.36328125,-56.15234375
-203.125,-218.75,-65.4296875,-249.0234375
-64.94140625,64.453125,-58.10546875,-72.265625
34.1796875,76.66015625,-50.29296875,45.41015625
2.44140625,-14.6484375,-44.921875,39.0625
-78.125,-151.85546875,-41.015625,-50.29296875
-199.21875,-219.23828125,-49.31640625,-245.60546875
-87.890625,54.6875,-36.1328125,-99.609375
26.3671875,106.4453125,-19.04296875,47.8515625
-0.48828125,28.3203125,-23.92578125,41.9921875
-78.125,-138.671875,-31.25,-40.0390625
-199.21875,-238.76953125,-46.875,-246.09375
-107.91015625,40.0390625,-49.31640625,-134.27734375
24.90234375,94.23828125,-30.76171875,36.62109375
22.4609375,-0.9765625,-34.66796875,36.1328125
-36.1328125,-107.421875,-53.22265625,-19.04296875
-166.015625,-252.44140625,-63.96484375,-236.328125
-119.140625,-39.0625,-56.15234375,-185.546875
20.99609375,88.37890625,-40.0390625,10.7421875
23.92578125,25.87890625,-44.921875,25.87890625
-37.109375,-83.49609375,-52.734375,-11.71875
-174.8046875,-245.1171875,-61.5234375,-212.40234375
-151.3671875,-53.22265625,-60.05859375,-189.453125
2.9296875,120.1171875,-46.875,23.4375
14.6484375,65.4296875,-46.38671875,38.57421875
-32.2265625,-63.4765625,-43.9453125,19.04296875
-153.3203125,-268.06640625,-58.10546875,-174.8046875
-151.85546875,-116.69921875,-64.94140625,-228.02734375
12.20703125,88.8671875,-41.015625,0.48828125
39.55078125,34.66796875,-32.2265625,43.9453125
-0.9765625,-47.36328125,-37.109375,36.1328125
-112.3046875,-213.8671875,-49.8046875,-123.53515625
-154.296875,-115.72265625,-54.6875,-222.16796875
3.90625,111.328125,-42.48046875,2.9296875
51.7578125,48.33984375,-41.50390625,64.94140625
23.92578125,-21.484375,-39.0625,55.17578125
-79.58984375,-183.10546875,-53.22265625,-94.23828125
-145.01953125,-168.45703125,-64.94140625,-224.12109375
5.37109375,96.6796875,-40.0390625,-11.23046875
56.640625,62.01171875,-32.71484375,59.5703125
29.78515625,-31.73828125,-43.9453125,58.59375
-65.91796875,-162.59765625,-48.828125,-60.05859375
-156.25,-176.26953125,-51.26953125,-234.375
-25.87890625,81.0546875,-36.1328125,-52.24609375
55.17578125,85.44921875,-25.390625,56.640625
34.66796875,12.20703125,-34.66796875,49.31640625
-47.8515625,-150.390625,-47.36328125,-43.45703125
-161.62109375,-219.7265625,-65.91796875,-246.58203125
-47.36328125,79.1015625,-66.40625,-96.6796875
56.640625,104.4921875,-44.921875,51.7578125
35.15625,-2.9296875,-37.109375,49.8046875
-41.015625,-133.30078125,-43.45703125,-29.296875
-155.76171875,-239.2578125,-57.6171875,-231.93359375
-64.94140625,18.5546875,-52.24609375,-96.19140625
53.7109375,102.05078125,-40.52734375,69.3359375
39.55078125,14.6484375,-45.8984375,52.24609375
-22.4609375,-109.375,-51.26953125,-8.7890625
-144.53125,-248.53515625,-59.08203125,-220.21484375
-92.28515625,-26.3671875,-58.59375,-142.08984375
49.31640625,104.4921875,-45.8984375,55.17578125
55.17578125,37.109375,-38.57421875,69.82421875
-11.23046875,-102.05078125,-40.0390625,20.99609375
-135.7421875,-265.625,-46.875,-194.3359375
-109.375,-51.26953125,-44.921875,-164.55078125
39.0625,101.5625,-37.109375,54.19921875
46.875,21.484375,-42.48046875,70.3125
-15.625,-70.80078125,-50.78125,43.9453125
-128.90625,-234.86328125,-63.4765625,-147.4609375
-132.8125,-64.94140625,-69.3359375,-175.78125
14.6484375,110.83984375,-59.08203125,41.015625
43.9453125,19.04296875,-53.22265625,72.265625
0.0,-59.08203125,-39.0625,60.05859375
-110.83984375,-204.1015625,-44.43359375,-126.953125
-147.94921875,-116.69921875,-56.15234375,-215.8203125
2.44140625,88.37890625,-41.50390625,16.6015625
48.33984375,44.43359375,-32.71484375,71.77734375
17.08984375,-34.1796875,-39.0625,69.82421875
-93.26171875,-210.44921875,-58.10546875,-91.30859375
-176.26953125,-168.9453125,-74.70703125,-238.28125
-32.71484375,73.2421875,-51.26953125,-12.6953125
27.34375,52.24609375,-29.296875,74.21875
-7.8125,-20.01953125,-31.25,58.10546875
-113.76953125,-202.1484375,-43.9453125,-80.078125
-204.58984375,-199.21875,-63.96484375,-243.65234375
-65.91796875,79.58984375,-54.6875,-31.25
16.6015625,58.10546875,-41.015625,81.0546875
-6.34765625,-31.25,-41.015625,67.87109375
-89.35546875,-199.70703125,-47.36328125,-51.26953125
-187.5,-238.76953125,-57.12890625,-240.72265625
-73.73046875,62.5,-46.38671875,-57.6171875
25.87890625,87.890625,-28.80859375,80.56640625
14.16015625,3.41796875,-35.64453125,69.3359375
-57.6171875,-127.9296875,-50.29296875,-13.18359375
-173.828125,-238.28125,-65.91796875,-223.14453125
-76.171875,4.8828125,-58.59375,-92.7734375
44.921875,103.515625,-44.921875,83.984375
19.53125,32.2265625,-47.8515625,79.1015625
-52.24609375,-145.99609375,-55.6640625,-4.39453125
-170.8984375,-258.30078125,-64.453125,-224.609375
-97.65625,1.46484375,-48.828125,-117.67578125
29.296875,87.890625,-33.69140625,82.03125
12.6953125,15.13671875,-36.62109375,74.21875
-42.48046875,-96.19140625,-44.43359375,10.7421875
-163.0859375,-257.8125,-58.10546875,-212.40234375
-124.0234375,-58.59375,-63.96484375,-175.29296875
18.06640625,104.4921875,-50.78125,43.45703125
24.4140625,21.97265625,-36.1328125,56.640625
-19.53125,-83.0078125,-35.64453125,13.671875
-145.99609375,-220.703125,-49.8046875,-195.3125
-138.18359375,-76.66015625,-47.36328125,-202.63671875
9.765625,82.03125,-36.1328125,18.06640625
15.625,31.25,-41.015625,27.34375
-25.390625,-63.4765625,-46.875,3.41796875
-138.671875,-240.234375,-56.15234375,-187.5
-163.57421875,-105.46875,-58.10546875,-257.32421875
-15.625,83.0078125,-44.921875,-20.99609375
11.23046875,26.3671875,-38.57421875,27.83203125
-16.6015625,-52.734375,-37.59765625,20.5078125
-124.0234375,-235.3515625,-50.29296875,-146.97265625
-184.08203125,-151.3671875,-59.08203125,-266.11328125
-26.85546875,124.51171875,-41.9921875,-23.92578125
28.3203125,64.453125,-32.2265625,62.01171875
-0.48828125,-19.53125,-32.71484375,46.875
-96.6796875,-178.7109375,-50.29296875,-108.3984375
-172.8515625,-191.40625,-60.546875,-274.4140625
-37.109375,59.08203125,-37.59765625,-62.5
32.71484375,53.22265625,-26.85546875,47.8515625
19.04296875,0.48828125,-31.25,47.8515625
-67.87109375,-134.765625,-42.48046875,-69.82421875
-169.921875,-186.5234375,-53.7109375,-256.8359375
-47.36328125,58.59375,-44.43359375,-63.96484375
51.7578125,90.8203125,-35.64453125,84.47265625
32.2265625,33.69140625,-38.57421875,76.171875
-50.29296875,-135.7421875,-51.26953125,-29.296875
-158.69140625,-228.515625,-70.80078125,-238.76953125
-66.89453125,55.6640625,-63.4765625,-79.58984375
48.828125,98.14453125,-46.38671875,100.5859375
31.73828125,17.578125,-47.36328125,85.44921875
-33.69140625,-104.98046875,-50.78125,2.44140625
-134.765625,-227.05078125,-52.734375,-205.078125
-65.91796875,13.671875,-44.921875,-107.91015625
36.1328125,99.609375,-39.0625,70.80078125
14.16015625,2.9296875,-48.33984375,72.265625
-36.1328125,-109.375,-41.9921875,28.3203125
-160.64453125,-228.515625,-43.9453125,-192.3828125
-117.1875,-39.0625,-58.10546875,-154.296875
26.85546875,65.91796875,-45.41015625,53.22265625
19.04296875,-1.953125,-29.78515625,67.3828125
-34.66796875,-92.7734375,-33.203125,34.66796875
-161.62109375,-247.0703125,-45.8984375,-166.015625
-147.4609375,-70.80078125,-42.48046875,-156.73828125
11.23046875,94.7265625,-36.1328125,71.77734375
26.85546875,23.92578125,-42.48046875,92.28515625
-3.90625,-61.5234375,-43.45703125,64.453125
-113.76953125,-248.53515625,-52.734375,-149.90234375
-137.6953125,-108.88671875,-54.19921875,-218.26171875
7.8125,111.328125,-40.52734375,15.13671875
41.015625,25.390625,-46.875,47.8515625
6.8359375,-55.17578125,-50.78125,23.92578125
-111.328125,-218.75,-53.22265625,-144.53125
-164.55078125,-149.90234375,-56.15234375,-251.46484375
-17.578125,102.5390625,-38.0859375,-34.1796875
26.85546875,52.24609375,-34.1796875,12.6953125
0.48828125,-18.06640625,-40.52734375,2.44140625
-109.375,-185.05859375,-50.78125,-146.484375
-193.84765625,-176.26953125,-60.546875,-314.453125
-41.50390625,74.21875,-50.78125,-88.37890625
31.73828125,58.10546875,-41.50390625,22.94921875
7.32421875,-0.48828125,-39.0625,14.16015625
-92.7734375,-184.5703125,-47.8515625,-112.3046875
-197.265625,-220.703125,-56.640625,-291.9921875
-58.10546875,74.70703125,-45.41015625,-92.28515625
39.55078125,82.51953125,-31.25,46.38671875
11.23046875,18.06640625,-32.71484375,42.48046875
-66.89453125,-130.37109375,-56.640625,-68.84765625
-178.7109375,-230.46875,-74.21875,-272.4609375
-76.171875,50.78125,-54.19921875,-108.3984375
38.0859375,87.40234375,-38.0859375,55.17578125
19.04296875,-13.671875,-41.015625,44.921875
-49.8046875,-123.046875,-44.43359375,-36.1328125
-156.73828125,-201.66015625,-54.6875,-251.953125
-77.1484375,8.30078125,-51.26953125,-145.99609375
49.8046875,85.9375,-51.26953125,34.66796875
50.29296875,29.78515625,-56.640625,37.59765625
-19.53125,-99.12109375,-53.7109375,-17.08984375
-156.25,-238.28125,-64.453125,-231.93359375
-104.00390625,-13.671875,-58.10546875,-169.43359375
38.0859375,101.07421875,-44.921875,40.0390625
34.1796875,13.671875,-45.41015625,45.8984375
-20.99609375,-80.56640625,-45.41015625,11.71875
-152.83203125,-259.765625,-59.08203125,-202.63671875
-135.7421875,-82.51953125,-68.359375,-205.078125
26.3671875,126.46484375,-56.640625,36.1328125
42.96875,37.59765625,-44.43359375,68.84765625
0.48828125,-88.37890625,-42.48046875,48.828125
-111.328125,-243.65234375,-67.3828125,-142.08984375
-118.1640625,-91.796875,-73.73046875,-177.734375
37.59765625,109.375,-31.25,49.8046875
61.5234375,49.31640625,-25.87890625,70.80078125
13.18359375,-35.15625,-35.64453125,57.12890625
-106.4453125,-212.40234375,-44.43359375,-122.55859375
-147.4609375,-125.48828125,-54.19921875,-222.16796875
10.7421875,104.00390625,-41.50390625,14.6484375
49.8046875,63.4765625,-39.55078125,72.265625
13.671875,-0.48828125,-49.8046875,72.75390625
-97.16796875,-203.61328125,-62.01171875,-90.33203125
-177.24609375,-191.89453125,-73.2421875,-247.0703125
-24.4140625,73.2421875,-57.6171875,-19.53125
37.109375,55.6640625,-42.48046875,67.87109375
7.32421875,-0.9765625,-42.96875,55.6640625
-91.30859375,-172.36328125,-48.828125,-75.1953125
-189.453125,-196.2890625,-63.96484375,-242.67578125
-51.7578125,73.73046875,-52.24609375,-39.55078125
39.55078125,83.0078125,-41.015625,85.44921875
15.625,-1.953125,-42.48046875,70.3125
-72.265625,-157.71484375,-50.78125,-40.0390625
-161.62109375,-187.98828125,-70.3125,-213.8671875
-35.64453125,45.8984375,-54.19921875,-40.0390625
63.96484375,75.1953125,-21.97265625,93.75
20.99609375,11.71875,-16.11328125,69.82421875
-78.61328125,-158.203125,-22.4609375,-23.92578125
-197.265625,-254.8828125,-38.0859375,-229.00390625
-101.07421875,2.44140625,-32.2265625,-95.21484375
20.5078125,67.3828125,-21.97265625,82.51953125
3.90625,-11.23046875,-26.85546875,80.56640625
-58.59375,-139.16015625,-30.2734375,12.6953125
-187.01171875,-265.13671875,-42.48046875,-217.28515625
-130.37109375,-35.64453125,-37.59765625,-147.4609375
17.08984375,104.00390625,-25.87890625,69.82421875
17.08984375,20.01953125,-32.71484375,87.890625
-42.48046875,-117.1875,-43.9453125,37.59765625
-166.015625,-255.37109375,-58.10546875,-178.22265625
-137.6953125,-68.359375,-44.43359375,-153.3203125
19.04296875,94.23828125,-21.484375,72.265625
40.0390625,28.80859375,-23.4375,92.7734375
-11.71875,-99.12109375,-35.15625,60.546875
-143.06640625,-253.41796875,-57.12890625,-133.30078125
-138.18359375,-70.3125,-59.08203125,-163.0859375
24.4140625,116.69921875,-27.83203125,65.91796875
36.62109375,50.29296875,-22.94921875,95.703125
-3.90625,-27.83203125,-31.73828125,74.21875
-117.67578125,-207.03125,-42.48046875,-91.30859375
-156.25,-132.8125,-60.05859375,-172.36328125
-5.37109375,73.73046875,-48.828125,50.29296875
33.203125,35.64453125,-36.62109375,102.05078125
8.30078125,-34.66796875,-38.57421875,96.6796875
-92.28515625,-218.26171875,-47.8515625,-53.7109375
-153.80859375,-157.71484375,-61.5234375,-203.125
3.41796875,116.2109375,-49.31640625,6.34765625
64.453125,64.453125,-41.50390625,93.75
27.83203125,-40.0390625,-42.96875,86.9140625
-64.453125,-180.6640625,-50.29296875,-48.33984375
-164.55078125,-165.0390625,-68.359375,-211.42578125
-36.1328125,92.7734375,-53.7109375,-15.13671875
46.875,74.21875,-39.55078125,77.63671875
16.11328125,-6.34765625,-47.36328125,60.546875
-66.40625,-156.25,-53.7109375,-34.66796875
-177.24609375,-214.35546875,-62.98828125,-221.19140625
-73.73046875,47.8515625,-58.10546875,-75.1953125
35.15625,75.1953125,-40.0390625,57.12890625
17.08984375,4.8828125,-38.0859375,60.05859375
-73.73046875,-136.23046875,-61.03515625,-30.2734375
-195.80078125,-244.62890625,-80.56640625,-245.60546875
-89.35546875,30.76171875,-57.6171875,-124.0234375
43.45703125,122.55859375,-38.57421875,33.69140625
24.4140625,7.32421875,-43.45703125,21.97265625
-46.875,-148.92578125,-41.9921875,-47.36328125
-177.24609375,-252.44140625,-49.31640625,-258.30078125
-109.375,-11.23046875,-50.29296875,-197.265625
26.85546875,96.6796875,-47.36328125,-23.4375
26.3671875,22.94921875,-42.96875,-8.30078125
-32.71484375,-99.609375,-34.66796875,-47.36328125
-178.22265625,-247.0703125,-51.7578125,-259.27734375
-139.16015625,-31.73828125,-71.77734375,-230.95703125
26.3671875,107.421875,-57.12890625,-20.99609375
25.390625,27.34375,-36.62109375,-6.34765625
-34.66796875,-71.2890625,-36.1328125,-35.64453125
-161.62109375,-256.34765625,-47.36328125,-216.796875
-152.83203125,-76.66015625,-51.26953125,-230.95703125
18.06640625,117.1875,-35.64453125,-9.765625
40.0390625,28.3203125,-33.69140625,20.5078125
-16.6015625,-55.6640625,-44.921875,4.8828125
-145.99609375,-225.09765625,-56.15234375,-163.0859375
-173.828125,-107.91015625,-56.15234375,-235.3515625
-15.13671875,110.3515625,-40.52734375,-16.11328125
28.80859375,49.31640625,-32.2265625,45.41015625
-6.34765625,-40.52734375,-32.2265625,36.1328125
-125.48828125,-199.21875,-39.55078125,-111.328125
-172.36328125,-108.3984375,-46.875,-210.44921875
-20.5078125,99.609375,-33.203125,-14.6484375
33.203125,35.15625,-21.97265625,55.17578125
0.0,-21.97265625,-28.3203125,57.6171875
-116.69921875,-201.66015625,-55.17578125,-81.0546875
-183.59375,-177.24609375,-69.82421875,-214.84375
-19.53125,97.16796875,-46.38671875,2.44140625
52.24609375,66.40625,-29.296875,86.9140625
22.94921875,-11.71875,-32.2265625,68.359375
-79.1015625,-171.875,-46.875,-42.48046875
-188.4765625,-205.56640625,-64.94140625,-226.5625
-47.36328125,84.47265625,-54.19921875,-45.8984375
61.5234375,109.375,-36.62109375,87.40234375
37.59765625,-7.32421875,-38.0859375,86.42578125
-55.17578125,-180.17578125,-41.50390625,10.25390625
-174.8046875,-244.140625,-49.31640625,-179.19921875
-58.59375,49.8046875,-47.36328125,-24.4140625
56.640625,104.4921875,-40.0390625,132.8125
33.203125,14.6484375,-40.0390625,103.02734375
-46.875,-130.859375,-47.8515625,11.23046875
-182.12890625,-243.65234375,-62.01171875,-202.63671875
-102.5390625,0.48828125,-52.24609375,-121.58203125
41.50390625,80.56640625,-38.0859375,41.9921875
35.64453125,19.04296875,-43.45703125,33.69140625
-43.45703125,-96.6796875,-42.48046875,-27.34375
-186.5234375,-261.71875,-43.45703125,-247.0703125
-134.27734375,-51.26953125,-39.0625,-220.21484375
27.34375,100.5859375,-31.25,-37.59765625
28.3203125,28.80859375,-35.15625,-43.45703125
-35.64453125,-90.33203125,-40.0390625,-83.49609375
-179.6875,-267.08984375,-60.546875,-286.1328125
-163.0859375,-67.3828125,-69.3359375,-301.7578125
4.39453125,114.2578125,-56.15234375,-94.7265625
17.08984375,23.4375,-54.6875,-86.42578125
-31.25,-76.66015625,-58.10546875,-113.28125
-166.9921875,-229.98046875,-62.98828125,-282.2265625
-179.19921875,-74.21875,-63.4765625,-330.078125
0.0,113.76953125,-50.78125,-95.703125
27.34375,19.04296875,-46.875,-47.36328125
-21.97265625,-50.78125,-52.24609375,-52.24609375
-141.6015625,-221.6796875,-53.22265625,-197.75390625
-195.80078125,-145.99609375,-56.640625,-306.640625
-31.25,80.56640625,-53.7109375,-88.8671875
35.64453125,42.96875,-49.8046875,-13.18359375
10.7421875,-14.16015625,-51.26953125,-10.25390625
-113.76953125,-200.68359375,-60.05859375,-140.13671875
-204.1015625,-179.19921875,-68.84765625,-276.85546875
-38.0859375,105.46875,-59.5703125,-75.1953125
43.9453125,101.07421875,-49.8046875,17.08984375
-1.46484375,-24.90234375,-50.78125,-1.46484375
-105.46875,-205.56640625,-57.6171875,-116.2109375
-208.984375,-202.1484375,-70.3125,-276.3671875
-71.2890625,65.4296875,-63.4765625,-94.7265625
43.45703125,76.66015625,-48.33984375,30.2734375
19.53125,7.8125,-44.43359375,24.90234375
-80.56640625,-154.296875,-48.828125,-62.98828125
-205.56640625,-242.1875,-64.453125,-252.44140625
-82.51953125,45.41015625,-55.17578125,-104.4921875
52.24609375,102.05078125,-39.55078125,46.875
38.57421875,23.4375,-36.62109375,55.17578125
-47.8515625,-120.1171875,-34.1796875,-5.37109375
-187.01171875,-252.44140625,-58.10546875,-203.125
-85.44921875,10.7421875,-61.03515625,-99.609375
60.546875,110.83984375,-40.52734375,79.1015625
38.57421875,2.44140625,-34.66796875,75.68359375
-33.203125,-125.0,-37.109375,18.06640625
-174.31640625,-244.140625,-50.78125,-170.8984375
-118.1640625,-33.69140625,-49.31640625,-121.09375
40.0390625,87.890625,-36.62109375,70.3125
39.0625,23.4375,-32.71484375,86.9140625
-16.6015625,-94.7265625,-29.78515625,50.78125
-156.25,-244.62890625,-43.9453125,-138.18359375
-140.13671875,-25.87890625,-55.17578125,-143.5546875
30.2734375,123.046875,-42.96875,39.0625
49.8046875,31.25,-45.8984375,56.640625
3.41796875,-64.453125,-48.33984375,48.828125
-134.27734375,-251.953125,-52.734375,-119.140625
-155.76171875,-105.46875,-54.19921875,-178.7109375
21.484375,112.3046875,-34.1796875,28.80859375
48.828125,39.55078125,-32.2265625,73.73046875
7.32421875,-27.34375,-36.1328125,75.68359375
-118.65234375,-206.54296875,-46.875,-72.265625
-169.921875,-137.20703125,-57.6171875,-168.9453125
15.625,114.2578125,-38.0859375,45.41015625
68.359375,61.5234375,-31.25,110.3515625
23.4375,-38.0859375,-34.1796875,96.6796875
-101.5625,-215.8203125,-45.8984375,-33.69140625
-176.7578125,-162.109375,-60.05859375,-157.2265625
-5.859375,97.16796875,-45.41015625,27.34375
64.94140625,77.1484375,-40.0390625,111.81640625
33.203125,12.6953125,-36.1328125,104.98046875
-77.1484375,-166.9921875,-40.52734375,-18.06640625
-187.5,-195.80078125,-60.546875,-172.8515625
-33.203125,82.51953125,-53.22265625,3.41796875
61.03515625,75.68359375,-39.0625,109.375
35.64453125,12.20703125,-44.43359375,116.2109375
-57.6171875,-129.39453125,-48.828125,29.78515625
-178.22265625,-210.9375,-55.6640625,-160.15625
-52.734375,44.921875,-53.22265625,-21.484375
70.80078125,79.1015625,-41.9921875,116.2109375
49.31640625,17.578125,-42.48046875,114.74609375
-48.828125,-131.34765625,-46.875,35.15625
-191.40625,-256.34765625,-58.59375,-166.50390625
-84.47265625,21.484375,-58.59375,-48.33984375
76.66015625,109.86328125,-50.78125,129.39453125
54.6875,25.87890625,-46.38671875,125.9765625
-43.45703125,-116.69921875,-44.921875,52.24609375
-196.77734375,-270.01953125,-66.40625,-166.50390625
-124.51171875,-2.44140625,-60.546875,-96.6796875
37.109375,96.6796875,-38.57421875,87.890625
33.69140625,14.6484375,-41.015625,90.8203125
-25.87890625,-93.26171875,-37.59765625,66.89453125
-171.875,-281.73828125,-55.6640625,-127.44140625
-146.97265625,-59.08203125,-61.03515625,-125.0
20.01953125,102.05078125,-46.875,62.5
37.59765625,31.73828125,-41.50390625,82.03125
-12.20703125,-65.4296875,-42.48046875,68.359375
-150.87890625,-256.34765625,-59.5703125,-105.95703125
-144.53125,-104.4921875,-62.01171875,-147.94921875
35.64453125,104.98046875,-46.875,42.48046875
56.15234375,60.546875,-46.38671875,63.4765625
10.25390625,-52.24609375,-37.59765625,42.48046875
-127.44140625,-257.32421875,-42.48046875,-128.41796875
-176.7578125,-128.90625,-54.19921875,-213.37890625
0.9765625,107.421875,-39.55078125,-17.08984375
52.734375,67.3828125,-38.57421875,20.5078125
15.625,-10.25390625,-47.8515625,16.6015625
-107.91015625,-220.703125,-52.24609375,-121.09375
-179.6875,-165.0390625,-52.24609375,-251.46484375
-15.625,89.35546875,-48.828125,-60.05859375
57.12890625,46.875,-48.33984375,2.44140625
24.4140625,-0.48828125,-50.29296875,-6.34765625
-95.21484375,-143.06640625,-53.22265625,-101.07421875
-187.5,-196.2890625,-54.19921875,-248.046875
-28.3203125,71.2890625,-38.0859375,-81.54296875
55.17578125,94.23828125,-30.2734375,10.25390625
29.78515625,5.37109375,-36.1328125,17.578125
-63.96484375,-162.59765625,-37.109375,-56.15234375
-195.3125,-229.98046875,-52.734375,-237.3046875
-64.94140625,45.41015625,-54.19921875,-99.12109375
57.12890625,108.3984375,-38.0859375,29.296875
32.2265625,28.3203125,-42.96875,26.85546875
-62.01171875,-145.5078125,-63.4765625,-48.33984375
-200.1953125,-235.3515625,-70.3125,-235.83984375
-96.19140625,46.38671875,-57.6171875,-119.140625
50.29296875,95.703125,-36.1328125,48.33984375
38.0859375,-2.9296875,-33.69140625,56.640625
-46.38671875,-117.67578125,-45.41015625,-0.48828125
-184.5703125,-254.39453125,-49.8046875,-198.2421875
-110.83984375,-17.578125,-49.8046875,-135.25390625
41.015625,113.76953125,-42.96875,40.52734375
39.0625,36.1328125,-40.52734375,51.26953125
-33.69140625,-100.5859375,-46.875,16.6015625
-182.6171875,-253.90625,-71.2890625,-165.52734375
-125.9765625,-41.015625,-68.84765625,-125.9765625
50.78125,111.328125,-39.0625,59.5703125
47.36328125,53.7109375,-34.66796875,71.77734375
-14.6484375,-72.75390625,-34.1796875,64.94140625
-168.45703125,-278.80859375,-49.8046875,-119.62890625
-170.41015625,-100.09765625,-62.5,-137.20703125
19.53125,111.81640625,-44.921875,65.4296875
59.08203125,52.24609375,-30.2734375,88.8671875
12.6953125,-56.640625,-31.25,81.54296875
-124.0234375,-246.09375,-41.9921875,-68.84765625
-162.59765625,-125.0,-49.31640625,-135.25390625
9.27734375,103.02734375,-46.38671875,62.5
60.546875,45.8984375,-47.36328125,111.81640625
23.92578125,-32.71484375,-40.0390625,103.02734375
-102.05078125,-188.96484375,-34.1796875,-36.62109375
-179.6875,-152.34375,-46.875,-153.3203125
-16.6015625,98.14453125,-42.48046875,29.78515625
64.94140625,64.453125,-33.69140625,96.6796875
33.69140625,-20.5078125,-42.48046875,82.03125
-96.19140625,-184.08203125,-58.59375,-57.12890625
-195.3125,-185.546875,-69.3359375,-215.8203125
-19.53125,97.65625,-59.08203125,-51.26953125
61.03515625,85.9375,-52.734375,16.11328125
24.90234375,11.23046875,-52.734375,-3.90625
-83.984375,-174.8046875,-57.12890625,-107.91015625
-205.078125,-223.6328125,-67.3828125,-276.85546875
-54.6875,86.9140625,-62.98828125,-126.953125
43.45703125,83.984375,-55.6640625,-33.69140625
8.7890625,-13.671875,-65.91796875,-62.98828125
-77.1484375,-155.2734375,-66.40625,-151.85546875
-198.2421875,-230.95703125,-58.59375,-338.8671875
-87.40234375,57.12890625,-56.15234375,-228.02734375
36.1328125,97.16796875,-51.26953125,-97.16796875
25.390625,5.859375,-47.36328125,-95.703125
-56.15234375,-131.34765625,-46.875,-143.06640625
-208.49609375,-258.30078125,-57.12890625,-325.68359375
-123.046875,-3.90625,-57.6171875,-246.09375
31.25,109.375,-46.875,-72.75390625
28.80859375,45.8984375,-49.31640625,-60.546875
-48.33984375,-115.72265625,-59.08203125,-89.35546875
-198.2421875,-276.3671875,-67.3828125,-262.20703125
-145.01953125,-33.69140625,-71.2890625,-217.28515625
28.3203125,108.3984375,-60.05859375,-29.296875
39.0625,32.2265625,-37.59765625,-2.9296875
-35.64453125,-84.9609375,-30.2734375,-13.671875
-178.7109375,-264.16015625,-49.31640625,-181.15234375
-151.85546875,-85.9375,-52.734375,-178.22265625
23.4375,101.5625,-41.50390625,11.23046875
48.33984375,20.01953125,-43.9453125,18.5546875
-1.46484375,-71.2890625,-35.64453125,0.48828125
-145.99609375,-221.19140625,-43.45703125,-155.2734375
-170.8984375,-109.375,-56.640625,-216.796875
23.92578125,97.16796875,-39.55078125,-3.41796875
71.77734375,61.5234375,-33.69140625,45.8984375
1.46484375,-23.92578125,-44.43359375,20.01953125
-144.04296875,-204.58984375,-59.08203125,-123.53515625
-192.87109375,-119.62890625,-87.890625,-215.33203125
6.8359375,125.0,-80.56640625,-6.34765625
66.89453125,98.6328125,-49.31640625,62.98828125
23.4375,41.015625,-50.78125,70.3125
-100.09765625,-164.55078125,-68.359375,-44.921875
-189.94140625,-124.51171875,-79.58984375,-181.640625
-9.765625,181.640625,-67.3828125,-8.7890625
69.3359375,129.8828125,-58.10546875,62.01171875
41.9921875,23.4375,-60.546875,79.1015625
-62.98828125,-161.62109375,-73.2421875,-10.7421875
-175.29296875,-197.265625,-84.9609375,-189.94140625
-29.296875,117.1875,-71.2890625,-29.296875
65.91796875,148.92578125,-65.4296875,84.47265625
47.36328125,60.546875,-73.2421875,71.77734375
-49.8046875,-118.1640625,-67.3828125,-12.6953125
-180.6640625,-194.82421875,-77.63671875,-199.70703125
-51.26953125,93.75,-79.58984375,-73.73046875
75.1953125,147.94921875,-58.10546875,76.171875
54.6875,84.47265625,-46.38671875,91.796875
-29.296875,-108.3984375,-56.640625,25.390625
-180.6640625,-250.0,-71.2890625,-170.41015625
-90.33203125,35.64453125,-69.3359375,-80.56640625
64.94140625,107.91015625,-61.03515625,83.0078125
53.22265625,39.55078125,-49.31640625,90.8203125
-15.13671875,-85.44921875,-44.921875,52.24609375
-168.9453125,-245.1171875,-58.59375,-143.06640625
-125.9765625,-0.9765625,-60.05859375,-96.19140625
38.57421875,131.8359375,-50.78125,103.515625
36.62109375,51.7578125,-51.7578125,125.9765625
-27.34375,-64.453125,-53.7109375,79.1015625
-167.48046875,-234.375,-55.17578125,-123.53515625
-143.06640625,-48.33984375,-47.8515625,-108.88671875
38.57421875,112.79296875,-42.48046875,100.09765625
60.05859375,46.875,-48.828125,126.46484375
7.32421875,-52.734375,-44.43359375,102.5390625
-152.83203125,-237.79296875,-47.36328125,-104.4921875
-186.5234375,-90.8203125,-51.7578125,-166.015625
8.30078125,121.58203125,-37.59765625,64.94140625
53.22265625,52.24609375,-36.1328125,118.65234375
2.9296875,-38.0859375,-40.0390625,112.3046875
-139.16015625,-230.46875,-52.24609375,-69.82421875
-196.77734375,-125.9765625,-63.4765625,-177.734375
-3.41796875,138.18359375,-35.64453125,71.2890625
52.734375,51.26953125,-22.4609375,137.20703125
3.90625,-35.15625,-31.73828125,111.328125
-117.67578125,-204.1015625,-44.43359375,-41.50390625
-200.68359375,-170.8984375,-48.828125,-195.80078125
-28.3203125,109.375,-35.64453125,37.109375
57.12890625,73.73046875,-36.1328125,149.90234375
17.08984375,-3.41796875,-46.38671875,120.60546875
-106.93359375,-161.62109375,-61.03515625,-25.390625
-211.42578125,-184.5703125,-72.75390625,-190.4296875
-49.31640625,83.49609375,-65.4296875,18.06640625
59.5703125,102.5390625,-39.0625,141.6015625
27.83203125,33.69140625,-28.3203125,131.34765625
-81.0546875,-155.2734375,-39.55078125,10.7421875
-212.40234375,-234.86328125,-60.05859375,-208.49609375
-79.58984375,50.78125,-53.22265625,-48.33984375
61.03515625,97.65625,-33.69140625,117.67578125
44.43359375,12.6953125,-38.57421875,119.140625
-47.36328125,-135.7421875,-51.7578125,29.296875
-181.640625,-236.81640625,-67.3828125,-191.40625
-81.0546875,28.3203125,-62.01171875,-83.49609375
47.8515625,106.93359375,-48.33984375,80.078125
32.2265625,31.25,-47.8515625,80.078125
-41.50390625,-91.796875,-42.48046875,13.18359375
-188.96484375,-236.81640625,-54.19921875,-212.890625
-124.0234375,-14.6484375,-55.6640625,-145.99609375
28.80859375,93.26171875,-40.0390625,53.7109375
25.87890625,7.32421875,-42.96875,64.94140625
-36.1328125,-109.375,-46.38671875,14.16015625
-183.59375,-262.6953125,-54.6875,-214.84375
-151.3671875,-50.78125,-51.26953125,-211.9140625
14.6484375,112.79296875,-37.59765625,3.90625
