TP9,AF7,AF8,TP10
56.640625,40.52734375,-30.2734375,124.51171875
16.6015625,-26.3671875,-33.69140625,83.984375
-121.09375,-210.44921875,-51.26953125,-178.22265625
-171.38671875,-126.46484375,-62.98828125,-298.828125
5.859375,100.5859375,-41.015625,42.48046875
56.640625,58.10546875,-35.64453125,135.25390625
14.6484375,-26.3671875,-35.15625,100.5859375
-105.46875,-186.5234375,-42.48046875,-143.5546875
-194.3359375,-159.1796875,-69.82421875,-340.33203125
-37.59765625,66.89453125,-55.17578125,-4.8828125
44.43359375,55.17578125,-31.73828125,129.39453125
20.5078125,-12.20703125,-32.71484375,89.84375
-88.37890625,-178.7109375,-51.26953125,-118.1640625
-203.61328125,-196.2890625,-66.89453125,-358.3984375
-54.6875,72.75390625,-49.8046875,-51.26953125
46.38671875,62.5,-45.41015625,133.7890625
13.18359375,-3.41796875,-43.9453125,92.28515625
-84.47265625,-133.30078125,-47.8515625,-79.1015625
-206.54296875,-225.09765625,-74.21875,-333.49609375
-80.56640625,33.203125,-67.3828125,-81.54296875
51.7578125,83.0078125,-44.43359375,134.765625
35.15625,9.27734375,-38.0859375,117.1875
-52.734375,-129.8828125,-41.015625,-31.73828125
-183.59375,-228.515625,-52.24609375,-323.2421875
-87.890625,16.6015625,-50.29296875,-141.6015625
49.8046875,99.12109375,-38.57421875,106.93359375
50.29296875,27.34375,-41.50390625,97.16796875
-17.578125,-104.00390625,-49.8046875,-15.625
-168.9453125,-227.5390625,-58.59375,-307.12890625
-100.5859375,2.44140625,-51.7578125,-172.36328125
48.33984375,101.07421875,-36.1328125,125.0
37.59765625,17.08984375,-39.0625,117.67578125
-13.18359375,-81.0546875,-44.43359375,24.4140625
-152.83203125,-224.12109375,-60.05859375,-270.5078125
-142.578125,-51.26953125,-56.15234375,-221.19140625
33.69140625,87.890625,-23.92578125,103.02734375
67.87109375,39.0625,-16.11328125,145.5078125
3.90625,-48.33984375,-33.203125,55.17578125
-144.04296875,-217.28515625,-52.24609375,-254.8828125
-155.76171875,-80.56640625,-60.05859375,-255.859375
25.390625,114.74609375,-49.31640625,83.49609375
69.3359375,75.1953125,-50.29296875,128.41796875
21.97265625,-26.85546875,-60.546875,71.2890625
-104.98046875,-204.1015625,-70.80078125,-202.1484375
-153.80859375,-101.5625,-79.58984375,-298.828125
4.39453125,111.328125,-59.5703125,45.41015625
62.98828125,75.68359375,-41.015625,134.27734375
25.87890625,-10.25390625,-44.921875,98.14453125
-121.58203125,-191.89453125,-59.5703125,-156.73828125
-195.80078125,-130.859375,-66.40625,-331.54296875
-19.53125,114.74609375,-53.22265625,15.13671875
51.26953125,62.5,-44.43359375,138.671875
25.390625,-7.32421875,-44.921875,95.703125
-88.8671875,-139.16015625,-56.640625,-134.27734375
-198.73046875,-147.94921875,-68.359375,-356.93359375
-40.0390625,77.1484375,-53.22265625,-32.2265625
56.15234375,62.01171875,-40.52734375,131.8359375
30.2734375,-10.7421875,-41.9921875,105.46875
-69.3359375,-160.64453125,-58.59375,-77.63671875
-187.01171875,-200.68359375,-73.2421875,-338.37890625
-45.8984375,73.2421875,-51.26953125,-59.5703125
71.2890625,94.23828125,-37.109375,141.11328125
43.45703125,18.5546875,-41.015625,116.2109375
-49.31640625,-124.0234375,-45.8984375,-50.29296875
-182.12890625,-214.35546875,-60.546875,-352.05078125
-75.1953125,63.96484375,-50.29296875,-104.4921875
56.15234375,104.98046875,-37.59765625,152.34375
36.62109375,-2.9296875,-41.015625,124.0234375
-53.7109375,-126.953125,-41.015625,-20.99609375
-195.3125,-250.0,-55.6640625,-334.9609375
-113.28125,-13.18359375,-56.15234375,-165.0390625
43.9453125,106.4453125,-42.96875,128.41796875
36.62109375,23.92578125,-45.41015625,131.34765625
-42.96875,-103.515625,-42.96875,22.4609375
-180.6640625,-246.58203125,-51.26953125,-300.78125
-129.39453125,-46.38671875,-50.78125,-219.7265625
41.50390625,99.609375,-37.109375,104.98046875
48.828125,36.62109375,-34.66796875,126.46484375
-8.30078125,-84.9609375,-35.15625,33.203125
-155.76171875,-248.53515625,-52.734375,-271.97265625
-154.78515625,-67.87109375,-58.10546875,-239.74609375
20.01953125,109.86328125,-45.41015625,97.16796875
48.828125,42.96875,-35.15625,125.9765625
-3.90625,-59.08203125,-38.57421875,64.453125
-137.6953125,-232.91015625,-67.3828125,-230.46875
-163.57421875,-100.09765625,-74.21875,-291.50390625
13.671875,105.46875,-44.43359375,68.359375
49.8046875,33.69140625,-34.66796875,139.6484375
-4.8828125,-38.57421875,-39.55078125,84.47265625
-132.32421875,-188.96484375,-47.36328125,-179.19921875
-186.03515625,-141.6015625,-51.7578125,-317.3828125
-14.6484375,77.1484375,-38.57421875,38.57421875
37.59765625,42.48046875,-35.64453125,143.06640625
8.7890625,-28.80859375,-41.015625,116.69921875
-96.19140625,-172.36328125,-54.19921875,-116.2109375
-202.1484375,-150.87890625,-63.4765625,-324.70703125
-45.41015625,83.984375,-47.36328125,12.6953125
48.33984375,67.3828125,-41.9921875,135.25390625
12.6953125,8.7890625,-50.29296875,104.98046875
-81.54296875,-153.3203125,-58.59375,-94.23828125
-193.359375,-192.87109375,-71.2890625,-353.02734375
-61.03515625,79.1015625,-61.03515625,-51.26953125
62.5,78.125,-45.41015625,151.85546875
46.38671875,-19.04296875,-49.8046875,127.44140625
-39.55078125,-141.11328125,-50.78125,-52.734375
-163.0859375,-209.47265625,-60.05859375,-336.9140625
-72.75390625,42.48046875,-54.19921875,-83.0078125
48.33984375,87.40234375,-37.59765625,157.2265625
37.59765625,4.8828125,-39.55078125,137.20703125
-46.38671875,-114.74609375,-51.26953125,-1.953125
-182.12890625,-229.00390625,-66.40625,-330.078125
-91.796875,2.44140625,-61.03515625,-152.34375
46.38671875,95.703125,-42.96875,135.7421875
32.2265625,27.34375,-40.52734375,108.88671875
-34.1796875,-104.98046875,-55.17578125,-28.80859375
-170.8984375,-252.9296875,-70.80078125,-345.21484375
-124.51171875,-49.31640625,-65.4296875,-219.23828125
26.85546875,90.33203125,-46.875,103.02734375
26.85546875,26.85546875,-41.50390625,114.74609375
-31.25,-83.984375,-42.48046875,11.71875
-158.203125,-227.5390625,-56.640625,-309.5703125
-138.671875,-56.640625,-64.94140625,-260.25390625
18.5546875,93.26171875,-56.15234375,80.56640625
32.71484375,27.83203125,-51.7578125,110.3515625
-15.13671875,-62.5,-46.38671875,46.38671875
-138.671875,-205.56640625,-57.12890625,-259.765625
-148.92578125,-97.16796875,-59.5703125,-296.38671875
12.6953125,79.58984375,-33.203125,69.82421875
47.36328125,36.1328125,-26.3671875,122.55859375
-0.48828125,-62.5,-37.109375,61.5234375
-114.74609375,-214.84375,-50.29296875,-204.58984375
-161.1328125,-125.0,-56.15234375,-312.5
-11.23046875,82.03125,-35.64453125,40.0390625
37.59765625,31.73828125,-27.83203125,128.90625
-1.46484375,-40.0390625,-39.0625,80.078125
-104.00390625,-193.359375,-61.03515625,-188.4765625
-177.734375,-158.69140625,-74.70703125,-364.2578125
-28.80859375,88.8671875,-54.6875,-9.765625
55.17578125,54.6875,-36.62109375,125.9765625
14.16015625,-27.83203125,-43.45703125,99.609375
-88.37890625,-163.0859375,-60.05859375,-125.0
-178.22265625,-184.08203125,-72.75390625,-372.0703125
-42.96875,54.6875,-57.6171875,-60.05859375
54.6875,70.3125,-43.9453125,126.46484375
22.94921875,-12.6953125,-53.7109375,88.37890625
-66.89453125,-162.109375,-59.08203125,-100.5859375
-180.17578125,-206.0546875,-65.4296875,-365.234375
-64.453125,42.96875,-49.8046875,-86.42578125
46.875,86.9140625,-32.2265625,139.6484375
26.3671875,25.390625,-32.71484375,124.0234375
-58.10546875,-133.30078125,-37.59765625,-41.015625
-190.4296875,-243.65234375,-54.19921875,-352.5390625
-96.6796875,11.71875,-52.24609375,-138.671875
54.6875,90.8203125,-37.59765625,136.23046875
37.109375,14.6484375,-37.59765625,115.234375
-48.828125,-100.09765625,-41.015625,-37.109375
-180.17578125,-223.14453125,-55.17578125,-359.86328125
-126.953125,-11.71875,-58.59375,-194.3359375
32.2265625,111.328125,-46.875,132.32421875
32.71484375,22.94921875,-43.45703125,117.1875
-46.875,-96.6796875,-54.6875,-9.765625
-156.25,-205.56640625,-68.84765625,-307.12890625
-115.72265625,-41.50390625,-56.640625,-208.0078125
35.64453125,73.2421875,-41.9921875,114.2578125
44.43359375,17.578125,-44.921875,128.90625
-20.99609375,-87.40234375,-48.33984375,43.45703125
-131.8359375,-230.95703125,-62.98828125,-273.4375
-121.09375,-77.63671875,-60.05859375,-273.4375
33.203125,73.73046875,-41.50390625,82.51953125
52.24609375,29.296875,-41.9921875,134.765625
10.7421875,-41.50390625,-36.62109375,73.2421875
-110.3515625,-208.49609375,-53.7109375,-234.375
-155.76171875,-100.5859375,-60.546875,-315.4296875
2.9296875,104.98046875,-45.41015625,49.31640625
53.7109375,52.734375,-42.48046875,127.9296875
10.7421875,-44.921875,-43.9453125,84.47265625
-104.98046875,-207.51953125,-59.5703125,-179.19921875
-163.57421875,-146.484375,-62.98828125,-326.66015625
-12.6953125,83.984375,-61.5234375,26.3671875
50.78125,68.84765625,-61.5234375,143.06640625
14.6484375,-0.9765625,-49.8046875,102.05078125
-91.30859375,-161.62109375,-51.7578125,-137.6953125
-174.8046875,-151.3671875,-72.265625,-346.6796875
-37.109375,86.9140625,-64.453125,-5.859375
55.6640625,67.3828125,-41.015625,154.78515625
28.80859375,4.39453125,-45.8984375,115.234375
-59.5703125,-152.83203125,-62.98828125,-90.8203125
-153.3203125,-199.70703125,-66.40625,-351.5625
-50.78125,57.6171875,-43.9453125,-49.31640625
34.1796875,66.89453125,-25.390625,147.94921875
0.9765625,-19.53125,-36.1328125,95.21484375
-84.47265625,-159.66796875,-43.45703125,-88.8671875
-201.171875,-233.3984375,-47.36328125,-388.671875
-107.421875,11.23046875,-42.48046875,-138.18359375
17.08984375,49.31640625,-33.203125,129.39453125
-10.25390625,-35.15625,-26.85546875,100.5859375
-91.30859375,-152.83203125,-24.4140625,-51.26953125
-198.2421875,-247.0703125,-36.62109375,-350.5859375
-118.65234375,-40.52734375,-37.109375,-174.8046875
10.7421875,30.76171875,-29.296875,114.2578125
7.32421875,-23.92578125,-26.85546875,127.9296875
-51.26953125,-130.37109375,-31.73828125,12.20703125
-182.12890625,-252.9296875,-54.6875,-321.77734375
-145.5078125,-40.0390625,-53.7109375,-207.03125
9.765625,68.84765625,-38.0859375,128.41796875
27.83203125,-17.578125,-38.57421875,134.27734375
-37.109375,-117.1875,-37.59765625,34.1796875
-164.55078125,-250.9765625,-50.78125,-283.203125
-154.296875,-82.03125,-53.22265625,-258.7890625
0.0,80.56640625,-40.52734375,85.44921875
26.85546875,12.6953125,-41.015625,114.74609375
-18.06640625,-95.703125,-41.9921875,46.875
-137.6953125,-243.65234375,-59.5703125,-246.58203125
-166.015625,-115.72265625,-66.40625,-298.33984375
-5.859375,73.2421875,-43.45703125,59.08203125
44.43359375,17.578125,-34.66796875,114.74609375
-2.44140625,-63.4765625,-37.109375,65.4296875
-122.0703125,-209.9609375,-54.6875,-207.03125
-165.52734375,-116.2109375,-60.546875,-310.546875
-8.30078125,81.0546875,-39.0625,67.3828125
50.78125,42.96875,-38.57421875,153.3203125
18.06640625,-8.30078125,-46.875,112.3046875
-93.75,-190.4296875,-55.6640625,-139.6484375
-172.36328125,-170.8984375,-67.3828125,-335.44921875
-24.4140625,73.2421875,-54.6875,12.20703125
46.38671875,50.78125,-37.59765625,150.390625
10.25390625,-8.7890625,-33.69140625,117.67578125
-83.0078125,-149.4140625,-35.64453125,-98.6328125
-189.453125,-168.9453125,-51.26953125,-344.23828125
-62.5,69.82421875,-54.19921875,-26.85546875
39.0625,78.61328125,-45.41015625,168.45703125
15.13671875,6.34765625,-41.9921875,129.39453125
-71.2890625,-138.671875,-47.36328125,-73.73046875
-203.125,-187.5,-62.01171875,-350.09765625
-87.40234375,42.48046875,-48.33984375,-77.1484375
39.55078125,49.31640625,-34.1796875,161.1328125
15.625,1.46484375,-37.59765625,146.97265625
-64.94140625,-118.1640625,-38.57421875,-17.08984375
-192.3828125,-228.02734375,-60.546875,-317.3828125
-95.21484375,14.6484375,-60.546875,-105.46875
39.0625,91.796875,-34.1796875,160.15625
27.83203125,21.484375,-23.92578125,134.27734375
-38.0859375,-100.5859375,-30.76171875,-17.08984375
-178.22265625,-232.91015625,-49.31640625,-342.7734375
-128.90625,-14.6484375,-55.17578125,-193.84765625
46.38671875,112.3046875,-44.43359375,138.18359375
57.12890625,16.6015625,-32.2265625,155.2734375
-43.45703125,-110.83984375,-43.45703125,24.90234375
-193.359375,-247.0703125,-62.01171875,-316.40625
-155.2734375,-67.3828125,-46.38671875,-239.74609375
12.6953125,79.1015625,-34.1796875,110.83984375
31.73828125,16.6015625,-42.96875,142.578125
-20.5078125,-88.8671875,-41.9921875,56.640625
-166.50390625,-248.046875,-52.24609375,-277.34375
-173.33984375,-85.9375,-54.6875,-296.875
2.9296875,84.9609375,-38.57421875,70.3125
34.66796875,25.87890625,-31.25,120.1171875
-0.9765625,-41.015625,-33.69140625,72.265625
-124.51171875,-223.14453125,-55.6640625,-221.19140625
-157.71484375,-130.859375,-62.01171875,-332.51953125
20.5078125,89.35546875,-42.96875,37.109375
72.265625,39.0625,-42.48046875,125.0
44.921875,-40.0390625,-40.0390625,78.61328125
-92.28515625,-209.47265625,-41.9921875,-187.01171875
-186.03515625,-169.921875,-51.7578125,-354.00390625
-12.20703125,92.7734375,-32.71484375,2.44140625
61.5234375,72.75390625,-30.2734375,119.140625
22.4609375,-22.94921875,-44.43359375,65.91796875
-94.7265625,-186.03515625,-50.29296875,-166.9921875
-189.453125,-167.96875,-51.26953125,-381.34765625
-20.99609375,75.1953125,-38.0859375,-32.71484375
76.171875,56.640625,-30.2734375,139.6484375
41.015625,-1.953125,-29.296875,102.5390625
-76.171875,-160.15625,-50.29296875,-90.8203125
-207.51953125,-212.40234375,-73.73046875,-366.2109375
-70.80078125,58.59375,-54.19921875,-75.68359375
66.40625,82.03125,-33.69140625,158.69140625
44.921875,7.8125,-25.390625,124.0234375
-49.31640625,-125.48828125,-30.2734375,-58.10546875
-186.5234375,-227.5390625,-55.17578125,-361.81640625
-83.49609375,28.80859375,-52.24609375,-136.71875
61.03515625,107.91015625,-36.1328125,126.46484375
50.78125,11.23046875,-33.69140625,120.1171875
-47.8515625,-139.16015625,-46.875,-38.0859375
-205.56640625,-247.0703125,-71.2890625,-369.140625
-114.2578125,2.44140625,-71.2890625,-185.546875
53.7109375,94.7265625,-45.8984375,124.0234375
50.78125,16.11328125,-29.296875,123.53515625
-24.90234375,-97.65625,-34.1796875,16.11328125
-187.5,-246.09375,-52.24609375,-315.91796875
-130.37109375,-39.0625,-54.19921875,-220.703125
57.6171875,110.3515625,-37.109375,122.55859375
55.17578125,47.36328125,-39.0625,118.1640625
-24.4140625,-50.78125,-49.31640625,7.8125
-193.359375,-233.88671875,-62.98828125,-306.15234375
-181.15234375,-97.16796875,-76.66015625,-270.5078125
29.78515625,83.984375,-59.08203125,96.6796875
45.41015625,26.85546875,-38.57421875,131.8359375
-25.87890625,-73.2421875,-32.71484375,50.78125
-168.45703125,-236.81640625,-39.55078125,-241.69921875
-197.75390625,-114.74609375,-45.8984375,-298.828125
-1.953125,86.42578125,-29.296875,66.89453125
57.12890625,40.0390625,-30.76171875,138.18359375
16.11328125,-46.875,-47.36328125,85.44921875
-130.859375,-222.65625,-62.98828125,-203.125
-198.2421875,-126.46484375,-62.01171875,-340.33203125
-8.7890625,94.7265625,-38.57421875,42.96875
68.84765625,53.7109375,-26.85546875,150.390625
33.69140625,-16.6015625,-27.83203125,99.609375
-102.5390625,-206.54296875,-45.41015625,-155.76171875
-220.21484375,-174.8046875,-69.82421875,-373.53515625
-41.9921875,94.23828125,-54.19921875,-29.296875
77.1484375,83.984375,-35.64453125,137.6953125
39.0625,9.765625,-43.45703125,98.6328125
-94.7265625,-158.203125,-57.6171875,-117.67578125
-222.65625,-206.54296875,-70.80078125,-363.76953125
-56.640625,60.05859375,-55.17578125,-53.22265625
75.68359375,100.09765625,-37.109375,147.4609375
42.48046875,14.6484375,-38.57421875,126.953125
-65.4296875,-158.203125,-43.9453125,-56.640625
-203.61328125,-217.7734375,-54.6875,-359.86328125
-65.4296875,52.24609375,-41.50390625,-93.75
73.73046875,102.05078125,-34.1796875,145.99609375
50.78125,17.578125,-43.45703125,103.02734375
-52.24609375,-155.2734375,-49.31640625,-57.12890625
-213.37890625,-255.37109375,-59.08203125,-371.09375
-102.05078125,21.484375,-53.22265625,-162.109375
71.77734375,106.4453125,-37.59765625,139.6484375
62.5,22.94921875,-37.109375,124.51171875
-25.390625,-89.35546875,-47.8515625,2.9296875
-193.359375,-251.953125,-63.96484375,-318.84765625
-135.25390625,-48.828125,-53.22265625,-189.94140625
51.26953125,105.95703125,-26.85546875,138.671875
68.359375,30.76171875,-23.92578125,142.08984375
-13.671875,-110.3515625,-35.64453125,36.1328125
-191.89453125,-264.6484375,-57.6171875,-288.0859375
-158.203125,-55.17578125,-63.4765625,-233.88671875
39.0625,110.83984375,-50.78125,118.65234375
65.91796875,50.29296875,-33.69140625,148.92578125
5.37109375,-63.96484375,-27.34375,73.2421875
-159.66796875,-248.53515625,-46.875,-234.375
-170.41015625,-87.890625,-49.8046875,-264.6484375
27.83203125,82.03125,-34.66796875,103.02734375
62.98828125,16.6015625,-37.59765625,159.1796875
10.25390625,-41.50390625,-36.1328125,93.75
-145.5078125,-207.03125,-48.828125,-206.0546875
-196.77734375,-117.1875,-63.4765625,-324.70703125
15.13671875,114.74609375,-40.0390625,46.875
73.73046875,66.89453125,-36.62109375,140.13671875
24.90234375,-36.1328125,-37.59765625,89.84375
-109.375,-193.84765625,-41.50390625,-168.9453125
-206.0546875,-140.13671875,-61.03515625,-349.609375
-17.08984375,106.4453125,-44.43359375,16.11328125
75.68359375,83.984375,-27.83203125,156.73828125
35.64453125,-5.37109375,-34.1796875,116.2109375
-104.4921875,-200.68359375,-48.828125,-113.76953125
-209.47265625,-194.3359375,-61.5234375,-350.09765625
-10.7421875,98.14453125,-43.9453125,-11.71875
75.1953125,91.796875,-26.85546875,162.109375
30.76171875,6.8359375,-25.390625,120.60546875
-83.0078125,-161.62109375,-40.0390625,-84.47265625
-241.69921875,-222.16796875,-69.3359375,-376.46484375
-83.0078125,60.546875,-44.921875,-70.80078125
47.36328125,81.54296875,-17.578125,148.4375
14.6484375,-5.37109375,-25.390625,96.19140625
-78.61328125,-136.71875,-41.9921875,-63.96484375
-231.4453125,-254.39453125,-56.640625,-365.234375
-107.91015625,-1.46484375,-42.96875,-140.13671875
66.89453125,84.47265625,-29.78515625,136.23046875
51.7578125,-2.44140625,-29.296875,122.55859375
-43.9453125,-125.9765625,-39.55078125,-21.484375
-208.984375,-256.34765625,-49.31640625,-331.54296875
-131.34765625,-24.4140625,-40.52734375,-168.45703125
60.546875,100.09765625,-27.34375,137.20703125
65.4296875,10.25390625,-26.3671875,128.90625
-26.85546875,-123.53515625,-46.875,10.25390625
-204.1015625,-266.11328125,-61.5234375,-308.10546875
-154.296875,-38.57421875,-50.29296875,-225.09765625
53.22265625,107.91015625,-25.87890625,113.28125
62.5,23.4375,-18.5546875,124.51171875
-17.08984375,-78.61328125,-26.85546875,25.87890625
-187.01171875,-252.9296875,-48.33984375,-279.78515625
-179.19921875,-88.37890625,-56.640625,-266.6015625
32.2265625,102.05078125,-41.015625,87.890625
69.82421875,21.97265625,-46.875,124.0234375
7.32421875,-73.73046875,-56.640625,56.15234375
-154.296875,-241.69921875,-60.546875,-242.67578125
-191.89453125,-111.328125,-52.24609375,-312.5
11.71875,103.02734375,-35.15625,54.6875
83.0078125,60.05859375,-29.78515625,135.25390625
30.76171875,-41.015625,-31.73828125,99.12109375
-135.7421875,-231.4453125,-48.33984375,-171.875
-206.54296875,-150.87890625,-66.40625,-330.56640625
-5.859375,95.703125,-51.7578125,24.4140625
81.0546875,65.91796875,-29.78515625,131.34765625
40.0390625,-14.16015625,-36.1328125,98.14453125
-105.46875,-189.94140625,-50.29296875,-134.27734375
-210.44921875,-165.52734375,-60.05859375,-348.6328125
-17.08984375,98.6328125,-45.41015625,-1.46484375
80.56640625,56.640625,-31.25,147.4609375
36.1328125,3.41796875,-38.57421875,101.07421875
-84.47265625,-129.8828125,-51.7578125,-110.3515625
-223.6328125,-203.125,-64.94140625,-374.51171875
-77.1484375,48.33984375,-49.31640625,-72.75390625
52.24609375,85.9375,-35.64453125,129.39453125
35.64453125,9.27734375,-27.34375,102.05078125
-76.171875,-157.71484375,-33.203125,-79.1015625
-234.375,-241.2109375,-63.96484375,-382.32421875
-96.6796875,36.1328125,-56.640625,-126.953125
77.63671875,104.4921875,-35.64453125,126.46484375
67.3828125,8.30078125,-33.203125,99.609375
-39.55078125,-130.37109375,-43.9453125,-43.9453125
-217.28515625,-240.234375,-66.89453125,-350.5859375
-123.53515625,5.859375,-62.01171875,-167.48046875
52.24609375,94.23828125,-47.8515625,120.60546875
51.26953125,12.20703125,-45.41015625,125.48828125
-23.92578125,-99.12109375,-45.41015625,13.18359375
-197.75390625,-252.44140625,-56.15234375,-317.3828125
-144.04296875,-40.52734375,-47.8515625,-206.0546875
56.640625,100.09765625,-30.76171875,120.1171875
62.98828125,24.90234375,-32.71484375,134.765625
-10.7421875,-83.984375,-40.0390625,44.43359375
-176.26953125,-243.1640625,-54.19921875,-280.76171875
-171.875,-71.77734375,-48.828125,-252.44140625
20.5078125,89.35546875,-29.296875,90.33203125
65.4296875,50.78125,-29.78515625,130.37109375
21.484375,-65.91796875,-30.2734375,65.91796875
-145.5078125,-262.20703125,-37.59765625,-248.046875
-174.31640625,-92.7734375,-50.29296875,-305.6640625
24.90234375,105.46875,-39.0625,49.31640625
67.3828125,53.22265625,-28.80859375,114.74609375
22.4609375,-22.94921875,-31.25,74.21875
-138.671875,-216.796875,-45.8984375,-209.47265625
-211.9140625,-142.08984375,-54.19921875,-334.47265625
-4.8828125,97.65625,-41.50390625,39.55078125
74.70703125,57.6171875,-41.015625,142.578125
34.1796875,-18.5546875,-41.015625,102.5390625
-122.55859375,-181.640625,-48.33984375,-144.53125
-227.5390625,-173.33984375,-60.546875,-340.8203125
-24.90234375,79.58984375,-39.55078125,3.90625
76.171875,79.58984375,-23.92578125,154.296875
35.64453125,-3.90625,-25.87890625,118.65234375
-94.23828125,-170.8984375,-32.71484375,-100.5859375
-220.703125,-186.5234375,-47.8515625,-338.37890625
-43.45703125,74.21875,-36.1328125,-18.06640625
79.1015625,83.0078125,-25.87890625,166.50390625
55.17578125,24.4140625,-24.90234375,133.30078125
-60.546875,-136.71875,-31.73828125,-60.546875
-220.703125,-221.6796875,-55.6640625,-349.609375
-70.80078125,61.03515625,-45.8984375,-70.80078125
81.54296875,83.984375,-29.78515625,163.0859375
58.59375,-2.44140625,-42.96875,127.44140625
-50.78125,-133.7890625,-49.8046875,-44.921875
-210.44921875,-245.60546875,-57.12890625,-347.16796875
-84.9609375,19.04296875,-55.6640625,-124.51171875
80.078125,99.609375,-42.48046875,137.20703125
65.91796875,27.34375,-39.55078125,118.65234375
-27.83203125,-96.19140625,-46.38671875,-13.671875
-207.51953125,-244.62890625,-62.98828125,-338.37890625
-137.6953125,-14.6484375,-61.5234375,-195.80078125
52.24609375,120.60546875,-50.29296875,124.0234375
65.4296875,48.828125,-47.8515625,140.625
-15.13671875,-101.07421875,-46.875,39.55078125
-200.1953125,-271.484375,-67.3828125,-279.296875
-157.2265625,-56.640625,-65.4296875,-205.56640625
40.52734375,97.16796875,-39.0625,126.46484375
60.546875,32.71484375,-34.66796875,140.625
0.48828125,-65.91796875,-36.1328125,61.03515625
-176.26953125,-241.69921875,-50.78125,-242.67578125
-175.78125,-86.9140625,-58.10546875,-256.8359375
36.62109375,103.515625,-41.50390625,94.7265625
75.1953125,44.43359375,-43.9453125,142.578125
21.484375,-48.828125,-50.78125,82.51953125
-138.18359375,-219.7265625,-61.03515625,-210.9375
-192.3828125,-123.046875,-71.77734375,-312.01171875
4.39453125,80.56640625,-65.4296875,43.45703125
67.87109375,38.0859375,-61.03515625,125.0
27.83203125,-23.4375,-52.734375,84.47265625
-128.41796875,-199.70703125,-61.03515625,-178.22265625
-220.703125,-146.97265625,-68.84765625,-341.30859375
-5.37109375,110.3515625,-40.52734375,26.3671875
98.14453125,74.70703125,-25.87890625,156.25
52.734375,0.0,-38.0859375,120.60546875
-96.6796875,-189.453125,-50.29296875,-106.4453125
-215.33203125,-187.5,-58.10546875,-335.9375
-29.78515625,114.2578125,-50.29296875,-0.9765625
86.42578125,77.63671875,-48.33984375,170.41015625
51.26953125,2.44140625,-39.55078125,133.30078125
-73.73046875,-149.4140625,-38.0859375,-60.05859375
-215.33203125,-230.95703125,-50.29296875,-345.21484375
-52.734375,59.08203125,-36.1328125,-74.21875
85.44921875,89.84375,-25.87890625,141.6015625
57.6171875,14.16015625,-32.2265625,121.09375
-42.96875,-128.90625,-41.50390625,-45.8984375
-205.56640625,-229.00390625,-59.08203125,-347.65625
-85.9375,37.59765625,-53.22265625,-130.859375
88.8671875,118.65234375,-38.0859375,120.60546875
77.1484375,40.0390625,-37.59765625,118.65234375
-36.1328125,-133.30078125,-46.875,-13.671875
-205.078125,-262.20703125,-68.359375,-335.9375
-117.67578125,2.9296875,-63.4765625,-180.6640625
56.640625,107.421875,-42.48046875,107.421875
64.94140625,38.57421875,-38.57421875,107.91015625
-23.92578125,-98.6328125,-35.64453125,3.90625
-186.5234375,-255.859375,-45.8984375,-298.33984375
-133.7890625,-27.83203125,-48.828125,-206.54296875
43.9453125,119.62890625,-36.62109375,101.5625
60.05859375,52.734375,-34.66796875,121.09375
-2.9296875,-57.6171875,-40.0390625,44.43359375
-172.8515625,-224.609375,-62.01171875,-258.7890625
-164.0625,-59.5703125,-70.80078125,-231.4453125
39.0625,116.69921875,-51.26953125,117.67578125
61.03515625,49.8046875,-41.9921875,139.16015625
-0.48828125,-50.29296875,-39.55078125,62.01171875
-168.9453125,-216.796875,-49.31640625,-245.60546875
-203.61328125,-88.37890625,-59.5703125,-318.84765625
5.37109375,114.2578125,-50.78125,33.69140625
47.8515625,48.33984375,-51.7578125,94.23828125
11.23046875,-29.78515625,-50.29296875,57.12890625
-132.8125,-221.6796875,-57.6171875,-196.77734375
-208.0078125,-149.90234375,-63.4765625,-324.21875
-6.34765625,105.95703125,-47.8515625,23.92578125
64.94140625,47.8515625,-48.828125,125.48828125
23.4375,-27.83203125,-56.15234375,97.65625
-112.79296875,-187.5,-68.84765625,-142.578125
-211.42578125,-163.57421875,-69.82421875,-337.890625
-25.390625,106.4453125,-42.96875,1.953125
68.84765625,78.61328125,-32.71484375,140.625
37.59765625,-3.90625,-38.0859375,104.98046875
-82.03125,-161.1328125,-53.7109375,-89.84375
-213.8671875,-188.4765625,-65.91796875,-330.078125
-51.7578125,85.9375,-49.31640625,-31.73828125
80.078125,92.7734375,-34.66796875,157.71484375
47.36328125,21.97265625,-37.59765625,131.8359375
-70.3125,-136.71875,-42.48046875,-58.59375
-208.49609375,-223.6328125,-64.453125,-358.88671875
-78.125,34.66796875,-65.91796875,-111.81640625
67.3828125,70.3125,-46.875,125.48828125
42.96875,-5.859375,-40.52734375,105.46875
-60.546875,-129.39453125,-42.96875,-43.9453125
-211.42578125,-229.98046875,-69.82421875,-340.33203125
-109.86328125,11.71875,-64.453125,-146.484375
49.8046875,98.14453125,-41.015625,125.48828125
46.875,14.6484375,-36.62109375,120.1171875
-32.71484375,-110.3515625,-38.0859375,-9.27734375
-210.44921875,-227.05078125,-62.01171875,-326.66015625
-146.97265625,-30.76171875,-63.96484375,-191.40625
50.29296875,99.12109375,-43.9453125,119.140625
57.12890625,49.31640625,-38.0859375,126.953125
-15.13671875,-83.984375,-41.9921875,32.2265625
-182.6171875,-246.09375,-62.5,-290.52734375
-155.2734375,-49.31640625,-59.08203125,-234.86328125
57.6171875,111.328125,-34.1796875,118.65234375
94.23828125,39.55078125,-33.203125,149.90234375
9.27734375,-54.6875,-37.59765625,52.734375
-173.33984375,-221.19140625,-53.22265625,-268.06640625
-179.6875,-77.63671875,-61.5234375,-288.0859375
27.83203125,126.46484375,-40.52734375,86.42578125
64.453125,63.96484375,-42.96875,144.53125
10.7421875,-36.1328125,-61.5234375,83.0078125
-139.6484375,-206.0546875,-75.1953125,-209.47265625
-196.2890625,-117.67578125,-74.70703125,-335.9375
-1.953125,105.46875,-54.19921875,25.390625
72.265625,72.265625,-41.9921875,128.90625
35.64453125,-19.53125,-46.38671875,78.61328125
-116.2109375,-201.66015625,-63.4765625,-197.265625
-207.51953125,-150.87890625,-72.265625,-372.55859375
-22.94921875,97.16796875,-52.734375,-18.5546875
63.4765625,76.66015625,-49.31640625,113.76953125
27.83203125,13.671875,-61.5234375,84.47265625
-96.6796875,-169.921875,-70.80078125,-131.34765625
-199.70703125,-192.87109375,-75.1953125,-350.5859375
-31.73828125,81.54296875,-60.05859375,-17.08984375
79.58984375,78.125,-60.546875,150.87890625
53.22265625,-2.9296875,-61.03515625,110.3515625
-62.5,-151.85546875,-56.640625,-80.078125
-211.9140625,-200.68359375,-67.87109375,-350.09765625
-77.63671875,73.73046875,-59.08203125,-74.70703125
63.4765625,104.4921875,-48.33984375,141.6015625
43.9453125,15.13671875,-53.7109375,114.74609375
-60.05859375,-125.9765625,-58.10546875,-45.41015625
-209.47265625,-215.8203125,-66.40625,-330.56640625
-88.8671875,33.69140625,-57.12890625,-100.5859375
66.40625,93.26171875,-48.828125,143.06640625
45.41015625,11.23046875,-58.10546875,120.1171875
-37.109375,-121.58203125,-58.10546875,-1.953125
-196.77734375,-236.328125,-58.59375,-322.265625
-128.90625,9.765625,-51.26953125,-185.05859375
50.78125,101.07421875,-34.1796875,111.328125
58.10546875,19.53125,-31.25,117.1875
-18.5546875,-98.14453125,-41.015625,6.8359375
-182.12890625,-236.81640625,-62.5,-300.78125
-139.6484375,-32.71484375,-72.75390625,-220.21484375
52.24609375,118.1640625,-58.10546875,106.4453125
69.82421875,44.921875,-42.48046875,148.4375
0.0,-86.9140625,-34.1796875,59.08203125
-168.9453125,-250.0,-47.36328125,-263.18359375
-175.29296875,-81.54296875,-58.59375,-256.8359375
17.578125,92.7734375,-45.41015625,85.9375
51.26953125,31.25,-35.64453125,135.25390625
3.41796875,-51.7578125,-32.2265625,77.63671875
-146.484375,-223.14453125,-43.9453125,-206.0546875
-188.4765625,-111.328125,-53.22265625,-271.484375
10.25390625,101.5625,-39.55078125,85.9375
74.21875,50.78125,-41.015625,151.85546875
23.4375,-10.7421875,-45.8984375,92.7734375
-141.6015625,-204.58984375,-57.6171875,-191.40625
-211.42578125,-143.06640625,-73.73046875,-331.54296875
-0.9765625,121.09375,-57.6171875,45.8984375
74.21875,56.640625,-45.8984375,149.4140625
25.87890625,-14.16015625,-48.33984375,103.02734375
-114.2578125,-182.12890625,-57.12890625,-129.8828125
-225.09765625,-166.015625,-67.87109375,-345.21484375
-44.43359375,107.421875,-52.734375,-24.90234375
59.5703125,70.80078125,-41.015625,124.0234375
20.01953125,-1.46484375,-39.0625,94.23828125
-105.46875,-151.85546875,-48.828125,-108.3984375
-230.95703125,-192.87109375,-61.5234375,-363.28125
-73.2421875,62.5,-51.26953125,-53.7109375
46.38671875,70.80078125,-42.96875,134.765625
21.484375,9.27734375,-51.26953125,94.23828125
-72.265625,-126.953125,-61.03515625,-64.453125
-211.42578125,-206.0546875,-72.265625,-343.26171875
-79.58984375,58.10546875,-64.94140625,-89.84375
68.359375,90.33203125,-47.36328125,153.80859375
41.9921875,22.4609375,-43.45703125,118.1640625
-49.31640625,-104.98046875,-52.24609375,-27.34375
-199.70703125,-221.19140625,-65.4296875,-325.68359375
-98.14453125,26.3671875,-54.6875,-138.671875
68.359375,114.74609375,-37.59765625,145.01953125
51.26953125,14.16015625,-38.57421875,129.8828125
-38.0859375,-117.67578125,-41.50390625,-5.37109375
-188.96484375,-235.3515625,-54.6875,-319.3359375
-117.67578125,-25.390625,-60.546875,-193.359375
53.7109375,94.23828125,-46.875,119.62890625
54.19921875,27.34375,-41.015625,125.0
-11.23046875,-76.171875,-38.57421875,36.62109375
-166.50390625,-221.6796875,-47.36328125,-270.01953125
-134.27734375,-43.45703125,-51.7578125,-230.46875
51.26953125,91.796875,-41.015625,99.609375
63.96484375,26.3671875,-38.0859375,115.234375
14.6484375,-50.29296875,-35.64453125,44.921875
-155.76171875,-237.79296875,-53.22265625,-245.60546875
-186.5234375,-113.76953125,-59.5703125,-288.57421875
26.3671875,99.609375,-42.48046875,63.4765625
78.125,41.015625,-43.45703125,125.9765625
22.94921875,-40.0390625,-48.33984375,73.2421875
-124.0234375,-205.078125,-59.08203125,-203.61328125
-175.29296875,-125.48828125,-58.59375,-304.6875
9.27734375,92.28515625,-38.57421875,62.01171875
68.359375,53.22265625,-38.0859375,149.4140625
39.55078125,-16.11328125,-33.203125,120.60546875
-100.5859375,-191.89453125,-37.109375,-124.51171875
-195.3125,-159.1796875,-55.17578125,-324.21875
-4.39453125,84.9609375,-39.55078125,20.5078125
80.56640625,51.7578125,-32.71484375,153.3203125
46.875,-21.484375,-38.0859375,111.328125
-78.125,-193.359375,-47.36328125,-113.76953125
-211.42578125,-201.171875,-64.453125,-351.5625
-48.33984375,83.0078125,-53.7109375,-36.1328125
69.3359375,90.8203125,-40.0390625,147.4609375
34.66796875,13.18359375,-43.9453125,113.76953125
-70.3125,-148.92578125,-57.6171875,-70.3125
-207.03125,-226.07421875,-66.40625,-343.75
-80.078125,38.57421875,-50.78125,-92.7734375
69.3359375,106.93359375,-32.71484375,137.6953125
52.734375,16.11328125,-35.15625,110.83984375
-57.12890625,-146.97265625,-54.19921875,-63.4765625
-205.078125,-233.3984375,-78.125,-357.91015625
-85.9375,9.27734375,-56.15234375,-125.9765625
68.359375,81.0546875,-29.78515625,148.4375
62.01171875,11.71875,-33.69140625,136.71875
-21.484375,-109.86328125,-42.48046875,0.48828125
-195.80078125,-234.375,-57.6171875,-323.73046875
-114.2578125,-3.41796875,-51.26953125,-179.6875
68.84765625,103.515625,-36.1328125,125.9765625
57.12890625,13.18359375,-37.59765625,125.48828125
-21.484375,-87.890625,-51.26953125,17.08984375
-183.59375,-241.69921875,-70.3125,-292.96875
-149.4140625,-61.5234375,-54.6875,-226.5625
42.48046875,81.0546875,-38.0859375,94.7265625
56.640625,10.25390625,-38.57421875,117.1875
-11.23046875,-79.1015625,-33.203125,30.76171875
-168.45703125,-226.5625,-49.31640625,-279.296875
-166.015625,-78.61328125,-62.01171875,-284.66796875
33.69140625,94.23828125,-45.8984375,67.3828125
68.359375,30.76171875,-37.59765625,114.74609375
14.6484375,-62.01171875,-41.50390625,57.12890625
-134.27734375,-213.8671875,-52.734375,-234.86328125
-179.19921875,-100.09765625,-59.5703125,-314.453125
26.3671875,90.33203125,-46.875,67.87109375
73.2421875,37.109375,-47.36328125,150.390625
12.20703125,-32.71484375,-54.6875,89.84375
-128.90625,-199.21875,-64.94140625,-185.05859375
-203.61328125,-136.23046875,-71.2890625,-329.58984375
-5.37109375,112.79296875,-52.734375,42.48046875
77.1484375,77.63671875,-42.48046875,149.90234375
34.1796875,1.953125,-41.9921875,105.46875
-104.00390625,-168.45703125,-52.24609375,-136.23046875
-214.35546875,-188.4765625,-63.96484375,-364.74609375
-40.52734375,80.078125,-50.29296875,-13.18359375
70.3125,104.4921875,-42.48046875,152.83203125
36.1328125,13.18359375,-42.48046875,109.86328125
-79.1015625,-158.203125,-50.78125,-109.375
-199.21875,-198.73046875,-65.91796875,-388.671875
-38.0859375,64.453125,-50.78125,-74.21875
73.73046875,89.35546875,-38.0859375,147.4609375
37.109375,10.25390625,-39.55078125,115.234375
-56.640625,-138.18359375,-47.36328125,-56.15234375
-209.47265625,-228.515625,-68.84765625,-356.93359375
-96.19140625,36.62109375,-57.12890625,-122.55859375
56.640625,93.26171875,-40.0390625,131.34765625
42.48046875,7.8125,-46.875,117.1875
-45.41015625,-94.7265625,-59.08203125,-27.83203125
-192.87109375,-217.28515625,-69.82421875,-345.21484375
-119.62890625,-30.76171875,-66.89453125,-164.0625
40.52734375,81.54296875,-53.7109375,143.06640625
37.109375,19.53125,-40.52734375,138.18359375
-43.9453125,-108.88671875,-38.57421875,1.953125
-192.3828125,-245.60546875,-60.05859375,-337.40234375
-133.30078125,-42.96875,-56.15234375,-216.796875
44.921875,89.35546875,-38.57421875,133.30078125
44.43359375,26.85546875,-47.8515625,128.90625
-20.01953125,-89.84375,-49.31640625,25.87890625
-163.57421875,-250.9765625,-59.5703125,-298.33984375
-148.92578125,-57.12890625,-71.2890625,-269.04296875
27.83203125,97.16796875,-49.31640625,106.93359375
45.8984375,31.73828125,-37.59765625,140.625
-1.46484375,-55.17578125,-38.57421875,58.59375
-139.16015625,-233.3984375,-59.08203125,-251.953125
-159.66796875,-105.95703125,-73.73046875,-301.7578125
28.3203125,94.7265625,-48.828125,94.23828125
66.89453125,37.109375,-34.66796875,165.0390625
19.04296875,-49.8046875,-38.0859375,87.40234375
-124.51171875,-214.84375,-58.10546875,-226.07421875
-186.5234375,-143.06640625,-65.91796875,-352.05078125
8.30078125,90.8203125,-42.96875,50.78125
72.265625,65.4296875,-34.66796875,147.94921875
18.06640625,-24.90234375,-40.0390625,95.21484375
-99.12109375,-187.98828125,-55.6640625,-153.80859375
-188.4765625,-159.1796875,-64.453125,-358.88671875
-26.85546875,73.73046875,-50.78125,15.13671875
63.4765625,74.70703125,-42.96875,165.52734375
26.85546875,7.8125,-37.109375,120.1171875
-84.47265625,-170.8984375,-45.8984375,-111.81640625
-201.171875,-195.80078125,-70.3125,-386.71875
-49.8046875,47.36328125,-56.640625,-44.43359375
57.6171875,57.6171875,-28.80859375,168.45703125
26.85546875,13.671875,-36.1328125,130.37109375
-71.2890625,-115.234375,-54.6875,-76.66015625
-190.91796875,-207.51953125,-63.96484375,-387.20703125
-67.3828125,23.4375,-49.31640625,-101.5625
56.640625,74.21875,-37.59765625,148.4375
40.0390625,4.39453125,-40.52734375,117.1875
-50.78125,-125.0,-44.43359375,-59.5703125
-189.94140625,-231.93359375,-59.5703125,-392.578125
-96.6796875,6.34765625,-51.26953125,-169.921875
46.38671875,98.6328125,-38.57421875,141.6015625
52.734375,29.296875,-37.59765625,133.30078125
-33.203125,-109.86328125,-39.0625,-34.1796875
-192.3828125,-239.74609375,-59.08203125,-379.39453125
-123.046875,-17.08984375,-55.17578125,-215.33203125
41.015625,88.37890625,-33.69140625,123.046875
54.6875,26.3671875,-29.296875,131.8359375
-12.6953125,-83.0078125,-38.0859375,16.6015625
-166.50390625,-233.3984375,-55.6640625,-330.56640625
-137.6953125,-47.36328125,-51.7578125,-258.7890625
24.4140625,92.7734375,-40.0390625,108.3984375
34.66796875,26.3671875,-39.0625,141.6015625
-26.3671875,-86.9140625,-44.921875,50.29296875
-172.8515625,-246.09375,-60.05859375,-293.9453125
-172.8515625,-95.703125,-62.5,-304.19921875
20.01953125,88.37890625,-58.59375,92.7734375
60.05859375,45.8984375,-51.26953125,154.296875
19.04296875,-40.52734375,-35.64453125,100.5859375
-116.69921875,-216.796875,-42.96875,-222.16796875
-164.55078125,-111.81640625,-55.17578125,-331.0546875
13.671875,104.00390625,-39.55078125,76.66015625
63.96484375,45.41015625,-33.203125,164.0625
24.4140625,-30.2734375,-38.0859375,104.4921875
-101.5625,-194.82421875,-50.29296875,-178.7109375
-168.9453125,-157.2265625,-52.24609375,-357.421875
0.48828125,83.49609375,-33.69140625,35.64453125
65.4296875,58.10546875,-29.296875,186.5234375
38.0859375,-10.25390625,-28.80859375,147.4609375
-67.87109375,-147.94921875,-45.41015625,-122.55859375
-188.4765625,-176.7578125,-65.91796875,-375.48828125
-50.29296875,63.4765625,-48.828125,-14.6484375
44.921875,69.82421875,-41.015625,153.80859375
30.76171875,-4.39453125,-40.52734375,125.9765625
-57.6171875,-153.3203125,-52.734375,-79.1015625
-204.58984375,-217.28515625,-71.77734375,-393.06640625
-77.1484375,42.96875,-55.6640625,-83.0078125
67.3828125,83.0078125,-26.3671875,182.12890625
52.734375,11.71875,-18.5546875,160.15625
-48.33984375,-138.671875,-38.57421875,-51.26953125
-187.01171875,-228.515625,-53.22265625,-377.44140625
-70.80078125,33.69140625,-46.38671875,-119.140625
67.87109375,84.9609375,-43.45703125,170.41015625
39.0625,-9.27734375,-40.52734375,152.83203125
-44.921875,-125.9765625,-37.59765625,-16.11328125
-192.3828125,-244.62890625,-48.33984375,-365.72265625
-117.67578125,-20.01953125,-44.921875,-173.828125
39.0625,88.37890625,-37.109375,148.4375
30.76171875,3.41796875,-41.9921875,134.27734375
-39.0625,-109.375,-41.9921875,3.41796875
-190.4296875,-246.09375,-53.7109375,-346.6796875
-147.94921875,-50.29296875,-51.26953125,-225.5859375
27.83203125,87.890625,-35.15625,144.04296875
44.921875,33.203125,-33.203125,161.62109375
-14.6484375,-81.0546875,-42.96875,58.59375
-154.78515625,-250.9765625,-63.4765625,-287.109375
-144.04296875,-83.49609375,-54.6875,-269.04296875
26.3671875,91.30859375,-28.80859375,121.58203125
49.8046875,34.1796875,-29.296875,156.73828125
-8.30078125,-48.828125,-38.57421875,57.12890625
-153.3203125,-215.8203125,-57.12890625,-266.11328125
-180.17578125,-104.98046875,-62.5,-322.75390625
-10.7421875,90.33203125,-40.52734375,65.91796875
37.59765625,31.25,-34.1796875,144.04296875
0.9765625,-42.96875,-41.015625,94.7265625
-119.62890625,-196.77734375,-52.734375,-214.35546875
-181.15234375,-156.73828125,-62.5,-369.62890625
-21.97265625,66.89453125,-55.6640625,32.71484375
41.015625,53.22265625,-48.828125,151.85546875
3.41796875,-15.13671875,-46.875,106.93359375
-104.00390625,-177.734375,-51.7578125,-160.15625
-188.4765625,-169.43359375,-58.59375,-382.32421875
-37.59765625,82.51953125,-45.8984375,0.9765625
58.10546875,66.89453125,-34.66796875,175.78125
33.69140625,-11.23046875,-36.62109375,128.90625
-84.47265625,-164.0625,-54.19921875,-114.2578125
-195.80078125,-197.265625,-66.40625,-379.8828125
-49.8046875,68.84765625,-55.6640625,-41.50390625
54.19921875,88.37890625,-47.36328125,166.015625
24.4140625,-0.48828125,-40.0390625,123.046875
-69.82421875,-138.18359375,-41.50390625,-68.359375
-197.75390625,-208.49609375,-60.546875,-370.60546875
-78.125,31.25,-58.59375,-97.16796875
52.24609375,80.56640625,-36.1328125,170.41015625
36.62109375,8.7890625,-33.203125,144.53125
-50.29296875,-127.9296875,-48.828125,-34.66796875
-191.40625,-234.86328125,-69.82421875,-371.58203125
-103.515625,4.8828125,-59.08203125,-145.5078125
44.43359375,92.7734375,-45.8984375,160.15625
30.76171875,14.6484375,-48.828125,140.13671875
-41.015625,-124.51171875,-44.921875,2.44140625
-171.875,-249.0234375,-60.546875,-336.9140625
-131.8359375,-33.69140625,-60.05859375,-206.0546875
17.578125,84.47265625,-45.8984375,134.27734375
17.08984375,22.94921875,-46.38671875,129.8828125
-43.9453125,-76.66015625,-48.33984375,10.25390625
-167.96875,-221.6796875,-62.5,-307.6171875
-151.3671875,-65.4296875,-65.4296875,-255.859375
20.01953125,93.75,-48.33984375,97.65625
44.43359375,34.66796875,-42.48046875,128.41796875
-14.16015625,-62.01171875,-48.828125,37.109375
-148.4375,-208.49609375,-60.05859375,-280.2734375
-155.76171875,-95.21484375,-51.26953125,-300.78125
16.11328125,67.3828125,-25.87890625,78.125
52.24609375,15.13671875,-26.85546875,139.6484375
2.44140625,-62.5,-35.15625,79.58984375
-131.8359375,-211.42578125,-47.36328125,-229.4921875
-168.45703125,-118.65234375,-55.17578125,-341.796875
6.34765625,77.63671875,-40.52734375,45.8984375
56.15234375,45.8984375,-37.59765625,145.01953125
22.4609375,-18.06640625,-43.9453125,106.4453125
-100.5859375,-178.7109375,-48.828125,-162.109375
-178.22265625,-126.46484375,-54.19921875,-346.6796875
-18.5546875,107.421875,-41.9921875,30.76171875
52.734375,49.31640625,-30.2734375,168.45703125
20.01953125,-25.390625,-28.80859375,134.765625
-104.4921875,-161.62109375,-44.921875,-116.2109375
-201.66015625,-171.38671875,-65.4296875,-383.30078125
-46.38671875,61.03515625,-50.29296875,-29.78515625
44.43359375,51.26953125,-39.55078125,154.78515625
26.3671875,-9.765625,-40.52734375,118.65234375
-66.89453125,-129.8828125,-49.31640625,-83.0078125
-195.80078125,-189.453125,-67.3828125,-380.37109375
-70.80078125,31.25,-51.26953125,-88.37890625
49.31640625,75.1953125,-39.0625,145.99609375
27.34375,23.92578125,-48.33984375,118.1640625
-59.08203125,-117.67578125,-52.24609375,-52.734375
-183.10546875,-223.14453125,-62.5,-369.62890625
-87.890625,7.32421875,-49.8046875,-125.9765625
43.45703125,88.8671875,-31.25,158.203125
30.2734375,17.08984375,-37.109375,133.7890625
-43.45703125,-108.88671875,-48.33984375,-19.53125
-178.22265625,-220.21484375,-62.01171875,-354.00390625
-110.3515625,-4.39453125,-50.78125,-186.03515625
52.734375,96.6796875,-34.1796875,146.484375
50.29296875,9.765625,-38.0859375,143.5546875
-24.4140625,-96.6796875,-47.36328125,12.20703125
-150.390625,-201.66015625,-65.4296875,-319.82421875
-113.28125,-18.5546875,-62.5,-235.83984375
43.9453125,85.9375,-39.55078125,115.234375
58.59375,16.11328125,-39.0625,140.13671875
6.34765625,-68.359375,-47.36328125,42.96875
-124.51171875,-213.37890625,-61.03515625,-280.2734375
-122.0703125,-68.359375,-62.5,-269.04296875
41.50390625,101.07421875,-39.0625,109.86328125
61.03515625,45.41015625,-31.25,169.43359375
6.8359375,-44.921875,-41.015625,88.37890625
-115.234375,-203.125,-60.05859375,-230.46875
-134.27734375,-97.65625,-51.26953125,-291.9921875
15.13671875,104.00390625,-27.83203125,89.35546875
31.73828125,20.5078125,-29.78515625,144.04296875
-7.32421875,-67.3828125,-35.15625,80.56640625
-113.28125,-202.63671875,-46.38671875,-176.7578125
-170.41015625,-153.80859375,-46.875,-320.3125
-9.27734375,83.0078125,-30.76171875,53.22265625
31.73828125,46.38671875,-26.85546875,158.69140625
0.48828125,-37.59765625,-28.80859375,90.33203125
-98.14453125,-184.5703125,-43.45703125,-156.25
-183.59375,-171.875,-57.12890625,-366.69921875
-30.76171875,63.4765625,-45.41015625,-12.20703125
48.828125,49.31640625,-34.1796875,150.390625
16.11328125,-18.06640625,-34.66796875,111.81640625
-88.37890625,-180.17578125,-51.7578125,-115.72265625
-195.80078125,-226.07421875,-67.87109375,-384.27734375
-61.5234375,39.0625,-61.5234375,-64.453125
33.69140625,67.87109375,-52.734375,149.4140625
2.44140625,0.48828125,-42.96875,120.60546875
-81.54296875,-133.7890625,-45.41015625,-77.63671875
-203.125,-217.28515625,-63.96484375,-393.5546875
-94.23828125,28.80859375,-55.6640625,-127.9296875
36.62109375,79.1015625,-45.8984375,134.765625
29.78515625,0.48828125,-47.36328125,109.86328125
-48.33984375,-130.37109375,-53.7109375,-55.6640625
-184.08203125,-226.07421875,-70.3125,-376.46484375
-107.421875,-12.6953125,-62.98828125,-172.8515625
33.203125,65.4296875,-54.6875,139.6484375
32.2265625,10.7421875,-52.734375,143.5546875
-33.69140625,-106.4453125,-41.015625,11.71875
-174.8046875,-235.83984375,-55.6640625,-329.58984375
-123.046875,-36.1328125,-57.6171875,-216.796875
34.66796875,90.8203125,-34.1796875,111.328125
31.25,25.390625,-28.3203125,114.2578125
-35.15625,-87.890625,-36.62109375,6.34765625
-181.640625,-244.62890625,-55.6640625,-320.80078125
-171.38671875,-62.98828125,-54.19921875,-283.69140625
-1.46484375,98.14453125,-42.48046875,85.9375
23.92578125,9.27734375,-48.33984375,122.0703125
-36.1328125,-79.1015625,-45.41015625,39.0625
-164.0625,-215.33203125,-55.17578125,-268.06640625
-178.7109375,-88.8671875,-61.5234375,-315.4296875
-9.765625,90.8203125,-41.50390625,50.78125
30.2734375,33.69140625,-34.66796875,110.3515625
-5.37109375,-44.921875,-37.109375,62.98828125
-126.46484375,-206.54296875,-51.7578125,-223.14453125
-184.08203125,-122.0703125,-61.5234375,-344.7265625
-22.4609375,83.984375,-43.45703125,46.875
24.90234375,48.828125,-41.015625,130.859375
-8.7890625,-6.8359375,-43.45703125,76.66015625
-119.62890625,-189.94140625,-50.29296875,-181.15234375
-202.63671875,-179.19921875,-62.01171875,-369.62890625
-47.36328125,64.94140625,-43.9453125,-0.9765625
30.76171875,45.41015625,-33.69140625,137.20703125
-1.46484375,-20.01953125,-38.57421875,92.28515625
-117.1875,-163.0859375,-47.36328125,-130.859375
-213.37890625,-187.01171875,-63.96484375,-380.37109375
-72.265625,52.734375,-55.6640625,-56.640625
22.4609375,62.01171875,-48.828125,136.71875
3.90625,-11.71875,-43.9453125,107.421875
-83.984375,-135.25390625,-46.875,-79.1015625
-194.82421875,-186.5234375,-61.5234375,-368.65234375
-71.77734375,31.25,-49.8046875,-87.890625
47.8515625,76.66015625,-38.0859375,152.34375
22.4609375,16.6015625,-46.38671875,130.859375
-60.05859375,-132.8125,-50.78125,-45.41015625
-185.546875,-222.16796875,-59.5703125,-366.69921875
-95.703125,6.8359375,-48.33984375,-140.13671875
41.9921875,83.0078125,-25.87890625,139.16015625
33.69140625,23.4375,-32.71484375,131.8359375
-41.50390625,-100.09765625,-43.45703125,-0.48828125
-186.03515625,-231.4453125,-65.4296875,-335.44921875
-138.671875,-19.04296875,-61.5234375,-191.40625
17.08984375,108.3984375,-40.52734375,125.48828125
25.87890625,15.625,-42.96875,121.09375
-34.66796875,-110.83984375,-52.24609375,2.44140625
-169.921875,-231.4453125,-67.87109375,-323.2421875
-145.01953125,-51.26953125,-62.5,-246.58203125
24.90234375,88.37890625,-37.59765625,101.5625
52.734375,29.78515625,-30.2734375,127.44140625
-6.34765625,-78.61328125,-36.62109375,57.12890625
-148.92578125,-231.4453125,-58.59375,-259.27734375
-148.4375,-87.890625,-65.4296875,-287.59765625
16.6015625,78.61328125,-46.38671875,68.359375
52.24609375,33.69140625,-42.48046875,122.0703125
7.32421875,-34.66796875,-49.31640625,62.98828125
-121.09375,-208.49609375,-63.4765625,-232.421875
-164.55078125,-134.765625,-65.4296875,-316.89453125
-2.9296875,80.078125,-45.8984375,63.4765625
51.7578125,51.26953125,-45.8984375,150.390625
7.32421875,-29.78515625,-52.24609375,97.16796875
-125.48828125,-194.3359375,-58.59375,-168.9453125
-194.82421875,-145.5078125,-65.4296875,-333.49609375
-28.80859375,91.30859375,-47.8515625,18.5546875
48.828125,78.61328125,-35.64453125,142.578125
14.16015625,-4.39453125,-43.45703125,100.09765625
-90.33203125,-161.1328125,-52.734375,-146.484375
-179.6875,-145.01953125,-52.24609375,-368.65234375
-42.48046875,80.078125,-38.0859375,-27.34375
50.78125,38.57421875,-35.64453125,140.13671875
21.484375,-20.01953125,-32.71484375,112.79296875
-82.03125,-144.53125,-33.69140625,-80.078125
-195.80078125,-186.03515625,-47.8515625,-345.703125
-67.87109375,60.05859375,-43.9453125,-60.546875
45.41015625,78.125,-31.25,147.94921875
21.97265625,8.30078125,-27.83203125,123.53515625
-68.84765625,-119.62890625,-33.203125,-63.4765625
-200.1953125,-200.1953125,-47.8515625,-367.67578125
-91.796875,28.80859375,-35.15625,-117.67578125
46.38671875,102.5390625,-19.53125,153.80859375
30.2734375,14.6484375,-25.87890625,138.18359375
-57.12890625,-128.90625,-40.52734375,-28.3203125
-189.94140625,-207.03125,-52.734375,-356.4453125
-115.72265625,4.39453125,-40.52734375,-175.78125
24.4140625,83.49609375,-33.203125,120.60546875
26.3671875,13.18359375,-29.78515625,118.1640625
-48.828125,-106.93359375,-34.1796875,-2.9296875
-192.3828125,-237.3046875,-55.6640625,-340.8203125
-150.390625,-53.7109375,-57.6171875,-243.1640625
17.08984375,75.68359375,-39.0625,95.703125
38.57421875,15.13671875,-34.66796875,115.234375
-21.97265625,-60.05859375,-38.57421875,22.4609375
-153.3203125,-219.7265625,-51.7578125,-299.8046875
-146.484375,-86.42578125,-45.8984375,-268.5546875
15.625,92.7734375,-21.97265625,105.95703125
45.41015625,21.484375,-24.4140625,159.66796875
-11.71875,-78.61328125,-39.0625,91.796875
-154.296875,-224.609375,-49.31640625,-223.14453125
-178.22265625,-94.23828125,-50.78125,-289.55078125
4.8828125,88.37890625,-39.55078125,72.265625
57.12890625,35.15625,-38.57421875,131.8359375
9.27734375,-36.62109375,-52.734375,84.9609375
-115.72265625,-197.265625,-70.80078125,-177.734375
-165.0390625,-105.46875,-66.40625,-295.41015625
-10.7421875,86.42578125,-41.50390625,57.12890625
40.52734375,32.71484375,-37.109375,135.7421875
-2.9296875,-26.85546875,-42.48046875,70.80078125
-100.09765625,-164.0625,-57.6171875,-164.55078125
-180.17578125,-123.53515625,-73.73046875,-338.8671875
-42.96875,85.9375,-56.640625,-8.7890625
48.828125,43.45703125,-44.921875,143.5546875
20.01953125,-34.1796875,-49.8046875,113.76953125
-87.890625,-166.9921875,-62.01171875,-105.95703125
-193.84765625,-181.640625,-78.125,-361.81640625
-54.19921875,69.3359375,-58.59375,-46.38671875
51.7578125,95.703125,-36.1328125,153.3203125
27.34375,12.20703125,-42.48046875,125.0
-69.82421875,-140.625,-58.10546875,-72.265625
-192.87109375,-202.1484375,-61.5234375,-355.95703125
-71.77734375,42.96875,-43.9453125,-79.1015625
51.26953125,82.03125,-35.15625,157.71484375
38.0859375,10.25390625,-36.1328125,126.46484375
-40.0390625,-122.0703125,-34.1796875,-30.2734375
-168.9453125,-219.7265625,-43.9453125,-337.40234375
-80.56640625,16.6015625,-41.9921875,-134.27734375
51.26953125,72.75390625,-31.73828125,134.765625
36.62109375,4.8828125,-32.2265625,114.74609375
-40.52734375,-88.37890625,-44.921875,-16.11328125
-166.50390625,-228.515625,-65.4296875,-331.54296875
-113.28125,-33.203125,-58.10546875,-207.51953125
42.96875,85.9375,-35.64453125,109.86328125
49.31640625,18.06640625,-38.0859375,122.0703125
-32.2265625,-88.37890625,-44.921875,14.16015625
-162.109375,-226.07421875,-54.6875,-294.921875
-135.7421875,-48.33984375,-51.26953125,-233.88671875
10.7421875,81.54296875,-35.15625,94.23828125
24.4140625,13.671875,-27.83203125,112.3046875
-20.01953125,-72.75390625,-30.76171875,30.76171875
-145.5078125,-215.8203125,-57.6171875,-279.296875
-149.4140625,-76.171875,-66.40625,-279.296875
9.27734375,95.703125,-43.45703125,86.9140625
37.59765625,26.85546875,-29.296875,136.23046875
-6.34765625,-66.89453125,-30.76171875,75.68359375
-134.27734375,-211.42578125,-50.29296875,-208.984375
-170.8984375,-107.91015625,-57.6171875,-304.6875
1.953125,95.21484375,-49.8046875,43.9453125
48.828125,44.43359375,-50.78125,122.55859375
8.7890625,-34.66796875,-44.43359375,77.1484375
-99.609375,-190.91796875,-50.78125,-178.22265625
-168.45703125,-144.53125,-63.96484375,-338.37890625
-22.4609375,91.30859375,-50.29296875,17.08984375
47.36328125,80.56640625,-45.41015625,140.625
13.18359375,0.0,-47.8515625,101.07421875
-91.30859375,-158.203125,-55.6640625,-121.58203125
-192.87109375,-162.109375,-64.453125,-342.7734375
-60.546875,60.546875,-54.19921875,-26.3671875
42.96875,61.5234375,-50.78125,133.7890625
17.578125,-8.30078125,-37.109375,97.65625
-81.54296875,-152.83203125,-40.52734375,-102.5390625
-194.82421875,-195.3125,-59.5703125,-380.859375
-61.03515625,53.22265625,-47.8515625,-86.42578125
68.359375,80.56640625,-39.0625,140.625
32.2265625,4.8828125,-41.9921875,119.62890625
-70.3125,-121.09375,-57.12890625,-60.05859375
-191.40625,-216.30859375,-77.1484375,-366.69921875
-95.21484375,10.25390625,-58.10546875,-132.32421875
38.57421875,82.51953125,-32.2265625,126.46484375
29.78515625,15.13671875,-24.90234375,122.55859375
-43.45703125,-97.65625,-39.0625,-18.5546875
-177.24609375,-217.28515625,-61.03515625,-341.796875
-113.76953125,-25.87890625,-56.15234375,-180.17578125
45.41015625,81.54296875,-44.43359375,130.859375
40.0390625,9.765625,-41.50390625,134.27734375
-41.9921875,-104.98046875,-49.31640625,7.8125
-169.43359375,-231.93359375,-65.91796875,-325.1953125
-131.34765625,-23.92578125,-66.40625,-231.93359375
17.08984375,95.21484375,-52.24609375,115.72265625
15.13671875,4.39453125,-40.52734375,126.46484375
-37.59765625,-85.9375,-37.59765625,22.94921875
-164.0625,-232.91015625,-54.19921875,-281.25
-151.85546875,-89.35546875,-67.87109375,-272.4609375
15.625,74.21875,-54.6875,80.56640625
48.828125,17.578125,-44.43359375,139.16015625
5.859375,-65.91796875,-47.8515625,79.58984375
-130.37109375,-206.54296875,-65.91796875,-228.515625
-164.55078125,-104.4921875,-64.94140625,-292.48046875
9.765625,100.09765625,-34.66796875,75.1953125
55.17578125,73.73046875,-31.25,129.39453125
5.859375,-28.3203125,-49.31640625,75.1953125
-111.328125,-204.58984375,-66.40625,-182.6171875
-162.59765625,-149.4140625,-66.40625,-311.5234375
-5.37109375,63.96484375,-39.0625,45.41015625
58.59375,44.43359375,-29.78515625,151.3671875
14.16015625,-22.4609375,-39.55078125,106.93359375
-102.5390625,-177.734375,-52.24609375,-134.27734375
-190.4296875,-159.66796875,-62.01171875,-343.26171875
-44.43359375,79.58984375,-42.48046875,-13.18359375
49.8046875,66.40625,-32.2265625,139.6484375
25.87890625,-5.859375,-32.71484375,115.72265625
-76.171875,-140.625,-44.43359375,-94.7265625
-183.59375,-182.6171875,-64.453125,-358.3984375
-58.59375,41.015625,-50.29296875,-57.12890625
40.0390625,65.91796875,-34.66796875,140.13671875
19.53125,-6.34765625,-32.71484375,119.140625
-77.1484375,-146.484375,-39.0625,-62.98828125
-191.89453125,-204.1015625,-49.8046875,-365.234375
-71.77734375,38.57421875,-41.015625,-106.93359375
62.01171875,74.70703125,-37.109375,146.484375
43.9453125,-9.27734375,-39.0625,128.90625
-45.8984375,-130.859375,-37.109375,-28.3203125
-176.7578125,-216.30859375,-55.6640625,-344.23828125
-99.12109375,22.4609375,-54.6875,-147.94921875
41.015625,92.7734375,-38.57421875,133.30078125
40.52734375,14.16015625,-40.0390625,116.69921875
-22.94921875,-103.515625,-48.828125,-2.9296875
-167.96875,-250.48828125,-61.03515625,-312.5
-121.58203125,-28.3203125,-57.12890625,-198.73046875
43.45703125,107.421875,-45.41015625,116.69921875
52.734375,31.73828125,-41.9921875,132.8125
-10.25390625,-69.3359375,-40.52734375,28.80859375
-144.53125,-207.51953125,-52.734375,-281.73828125
-112.3046875,-51.26953125,-43.45703125,-227.5390625
44.43359375,99.12109375,-23.4375,118.1640625
44.43359375,32.71484375,-32.71484375,146.484375
-3.41796875,-74.70703125,-35.64453125,63.96484375
-125.48828125,-231.93359375,-51.7578125,-240.72265625
-145.99609375,-95.21484375,-67.87109375,-275.390625
10.7421875,96.6796875,-49.31640625,76.171875
44.43359375,42.96875,-43.45703125,125.48828125
12.6953125,-35.64453125,-61.5234375,74.70703125
-104.00390625,-207.51953125,-70.80078125,-200.68359375
-169.921875,-118.1640625,-55.17578125,-317.87109375
-22.4609375,81.0546875,-37.109375,38.57421875
39.55078125,35.64453125,-34.66796875,133.30078125
19.04296875,-16.11328125,-35.15625,91.796875
-86.9140625,-172.36328125,-50.78125,-157.71484375
-165.52734375,-157.2265625,-61.5234375,-328.125
-8.7890625,58.59375,-48.828125,25.87890625
54.6875,49.8046875,-46.875,156.25
26.3671875,-3.41796875,-42.96875,122.0703125
-68.359375,-160.64453125,-51.26953125,-102.5390625
-175.29296875,-178.7109375,-69.82421875,-343.26171875
-36.62109375,60.05859375,-59.5703125,-25.390625
62.98828125,65.91796875,-47.8515625,150.87890625
37.59765625,3.41796875,-42.48046875,113.28125
-68.359375,-156.73828125,-46.38671875,-83.0078125
-183.10546875,-192.87109375,-55.17578125,-340.8203125
-63.96484375,71.77734375,-43.9453125,-61.5234375
50.78125,72.265625,-35.64453125,145.5078125
30.2734375,-10.25390625,-42.48046875,108.88671875
-59.08203125,-124.0234375,-48.33984375,-51.7578125
-175.29296875,-210.9375,-60.546875,-348.6328125
-69.82421875,13.18359375,-53.7109375,-133.7890625
62.5,77.1484375,-38.0859375,138.671875
49.8046875,14.16015625,-41.50390625,130.37109375
-24.90234375,-111.328125,-47.8515625,-6.8359375
-157.71484375,-229.98046875,-54.6875,-315.4296875
-102.05078125,-13.671875,-49.31640625,-163.0859375
45.41015625,88.8671875,-32.71484375,139.16015625
45.8984375,28.3203125,-27.34375,144.04296875
-34.66796875,-85.44921875,-43.45703125,35.64453125
-167.96875,-249.51171875,-65.4296875,-284.66796875
-141.11328125,-69.3359375,-54.19921875,-208.984375
23.4375,93.75,-32.2265625,123.046875
55.17578125,37.59765625,-33.69140625,149.90234375
-0.48828125,-67.87109375,-37.59765625,71.2890625
-140.625,-220.21484375,-51.26953125,-260.25390625
-133.30078125,-70.3125,-56.15234375,-265.13671875
26.85546875,83.49609375,-38.0859375,97.65625
52.24609375,27.83203125,-29.296875,144.53125
10.7421875,-44.921875,-34.66796875,84.47265625
-114.2578125,-191.89453125,-54.6875,-209.9609375
-153.80859375,-102.5390625,-62.98828125,-298.33984375
2.44140625,79.1015625,-45.8984375,53.7109375
53.22265625,40.52734375,-36.1328125,128.41796875
18.06640625,-47.8515625,-36.62109375,77.63671875
-95.21484375,-192.87109375,-60.05859375,-181.640625
-166.50390625,-128.90625,-70.3125,-328.125
-16.11328125,74.70703125,-49.31640625,21.97265625
51.26953125,54.6875,-43.45703125,144.53125
6.8359375,-7.32421875,-49.8046875,110.83984375
-105.95703125,-172.8515625,-59.08203125,-126.953125
-184.5703125,-156.25,-70.3125,-338.37890625
-15.13671875,87.40234375,-62.01171875,11.71875
87.890625,61.5234375,-33.69140625,185.546875
28.3203125,-18.5546875,-21.484375,130.859375
-90.33203125,-171.875,-40.52734375,-105.95703125
-204.1015625,-216.30859375,-53.7109375,-371.09375
-78.61328125,49.31640625,-38.57421875,-71.77734375
41.50390625,83.984375,-39.0625,129.39453125
29.78515625,-1.953125,-48.828125,103.515625
-73.2421875,-165.0390625,-44.921875,-80.56640625
-206.0546875,-241.69921875,-44.921875,-378.90625
-94.23828125,15.625,-34.66796875,-129.8828125
29.78515625,68.359375,-28.80859375,119.140625
18.06640625,2.44140625,-33.203125,113.76953125
-49.8046875,-153.80859375,-33.203125,-18.5546875
-187.01171875,-262.20703125,-43.9453125,-338.37890625
-118.65234375,-0.9765625,-43.9453125,-157.2265625
37.59765625,90.33203125,-40.0390625,131.8359375
39.0625,18.06640625,-39.0625,123.046875
-18.06640625,-96.19140625,-34.66796875,13.671875
-165.52734375,-250.9765625,-58.59375,-307.6171875
-135.7421875,-55.6640625,-52.24609375,-206.0546875
29.296875,89.84375,-22.94921875,122.55859375
42.48046875,10.7421875,-28.80859375,140.13671875
-21.97265625,-98.14453125,-34.1796875,51.7578125
-165.52734375,-223.6328125,-47.36328125,-268.06640625
-150.87890625,-68.84765625,-47.8515625,-252.44140625
12.6953125,66.89453125,-29.78515625,81.54296875
28.80859375,14.16015625,-32.71484375,110.3515625
-23.92578125,-76.66015625,-38.0859375,44.43359375
-148.92578125,-233.3984375,-56.15234375,-246.09375
-167.96875,-112.79296875,-71.2890625,-288.57421875
5.859375,80.078125,-44.921875,74.70703125
46.38671875,38.0859375,-35.64453125,136.23046875
-7.32421875,-46.875,-40.0390625,72.75390625
-135.7421875,-215.33203125,-45.41015625,-203.61328125
-174.8046875,-114.2578125,-52.734375,-314.94140625
2.44140625,121.58203125,-39.0625,46.38671875
62.98828125,54.6875,-31.73828125,139.16015625
21.97265625,-42.96875,-32.71484375,93.75
-111.81640625,-210.44921875,-55.6640625,-156.25
-206.0546875,-171.38671875,-72.75390625,-341.30859375
-32.71484375,82.03125,-46.38671875,7.8125
52.24609375,62.98828125,-36.62109375,139.6484375
10.7421875,-10.7421875,-40.52734375,90.33203125
-88.8671875,-148.92578125,-40.0390625,-126.46484375
-187.5,-165.0390625,-52.734375,-359.86328125
-53.7109375,49.8046875,-39.0625,-50.78125
46.875,62.5,-27.34375,122.0703125
26.85546875,29.296875,-32.71484375,98.14453125
-71.2890625,-134.765625,-43.9453125,-83.984375
-195.3125,-203.61328125,-56.15234375,-361.328125
-83.984375,48.33984375,-57.12890625,-93.75
45.8984375,63.96484375,-52.24609375,142.08984375
27.34375,0.48828125,-44.921875,119.62890625
-71.2890625,-121.58203125,-43.9453125,-48.828125
-202.1484375,-210.9375,-55.17578125,-345.21484375
-101.5625,24.90234375,-51.26953125,-143.5546875
37.59765625,90.8203125,-30.76171875,117.67578125
24.4140625,8.30078125,-27.83203125,108.88671875
-48.33984375,-98.14453125,-39.55078125,-20.5078125
-178.7109375,-213.37890625,-57.6171875,-333.984375
-119.140625,-20.99609375,-62.01171875,-193.84765625
32.71484375,76.171875,-59.08203125,106.93359375
48.828125,4.8828125,-49.31640625,111.328125
-17.08984375,-95.703125,-33.69140625,11.23046875
-162.59765625,-218.75,-51.26953125,-309.08203125
-139.6484375,-35.15625,-64.453125,-248.046875
31.25,95.21484375,-51.7578125,84.47265625
49.8046875,30.2734375,-38.0859375,114.74609375
-6.8359375,-76.66015625,-37.109375,42.48046875
-148.4375,-237.3046875,-57.12890625,-262.20703125
-153.3203125,-78.125,-63.96484375,-264.16015625
35.64453125,115.72265625,-45.41015625,88.8671875
65.91796875,31.25,-37.59765625,135.7421875
5.37109375,-72.75390625,-43.45703125,66.40625
-127.44140625,-220.21484375,-55.17578125,-224.12109375
-176.7578125,-122.0703125,-61.5234375,-308.10546875
-3.90625,92.7734375,-51.26953125,48.828125
54.19921875,56.15234375,-49.31640625,134.765625
16.11328125,-27.34375,-53.22265625,84.9609375
-123.046875,-202.63671875,-60.546875,-174.8046875
-196.77734375,-148.4375,-66.40625,-323.2421875
-23.92578125,82.03125,-52.24609375,16.11328125
45.41015625,56.640625,-46.875,129.8828125
17.578125,3.90625,-50.78125,101.07421875
-103.02734375,-172.36328125,-57.12890625,-125.9765625
-202.1484375,-194.82421875,-60.546875,-340.33203125
-42.48046875,71.2890625,-40.52734375,-13.671875
51.26953125,71.2890625,-36.62109375,135.7421875
38.57421875,11.23046875,-42.48046875,101.07421875
-75.68359375,-133.7890625,-51.7578125,-91.796875
-211.9140625,-199.70703125,-71.2890625,-353.02734375
-68.359375,59.5703125,-63.4765625,-71.2890625
49.8046875,98.6328125,-46.875,130.37109375
37.109375,14.6484375,-36.1328125,113.76953125
-59.08203125,-128.90625,-45.41015625,-57.12890625
-194.3359375,-201.171875,-62.01171875,-344.23828125
-83.0078125,26.85546875,-46.875,-102.5390625
60.546875,79.58984375,-37.109375,140.625
45.41015625,12.20703125,-41.50390625,119.62890625
-59.08203125,-129.39453125,-46.38671875,-26.85546875
-200.1953125,-236.328125,-58.10546875,-320.80078125
-106.4453125,3.41796875,-53.22265625,-149.90234375
41.50390625,91.30859375,-42.48046875,114.74609375
19.04296875,21.97265625,-45.8984375,109.375
-41.015625,-90.33203125,-50.29296875,3.41796875
-178.22265625,-240.72265625,-61.03515625,-304.19921875
-141.11328125,-35.15625,-51.7578125,-199.70703125
25.87890625,113.28125,-29.296875,106.93359375
30.2734375,20.01953125,-33.69140625,109.375
-29.296875,-90.33203125,-50.29296875,26.3671875
-161.62109375,-225.5859375,-67.3828125,-267.578125
-153.3203125,-74.21875,-61.03515625,-236.328125
26.3671875,85.9375,-38.0859375,98.14453125
54.6875,34.1796875,-37.59765625,123.046875
0.0,-55.17578125,-41.9921875,65.4296875
-145.01953125,-215.8203125,-55.6640625,-212.40234375
-175.29296875,-103.515625,-64.453125,-270.5078125
10.7421875,98.14453125,-46.875,72.265625
55.6640625,57.12890625,-41.9921875,131.34765625
16.11328125,-23.4375,-42.48046875,78.125
-125.0,-216.796875,-59.08203125,-200.68359375
-193.359375,-158.69140625,-70.80078125,-325.68359375
6.34765625,89.35546875,-51.7578125,39.0625
73.73046875,57.6171875,-45.8984375,140.13671875
5.859375,-23.92578125,-47.8515625,88.37890625
-121.58203125,-172.8515625,-51.7578125,-142.578125
-209.47265625,-166.50390625,-56.15234375,-339.84375
-46.875,61.5234375,-42.96875,-19.53125
55.6640625,51.7578125,-31.25,134.27734375
20.5078125,-16.11328125,-30.2734375,101.07421875
-95.21484375,-170.8984375,-44.43359375,-103.515625
-199.21875,-191.40625,-51.26953125,-341.796875
-63.96484375,48.33984375,-33.69140625,-41.50390625
45.41015625,49.31640625,-29.296875,150.390625
20.5078125,-15.625,-35.15625,112.79296875
-77.63671875,-151.85546875,-43.45703125,-67.87109375
-194.82421875,-213.37890625,-53.22265625,-331.54296875
-81.54296875,24.90234375,-41.9921875,-76.171875
56.640625,63.96484375,-30.76171875,146.484375
44.43359375,0.9765625,-39.0625,123.53515625
-52.734375,-132.32421875,-49.8046875,-21.97265625
-188.4765625,-243.65234375,-58.59375,-317.87109375
-106.93359375,4.8828125,-44.921875,-118.65234375
36.62109375,104.98046875,-30.2734375,141.11328125
27.83203125,4.8828125,-41.50390625,108.3984375
-53.7109375,-131.34765625,-57.12890625,-19.04296875
-192.3828125,-235.83984375,-71.77734375,-316.89453125
-125.48828125,-23.92578125,-58.59375,-183.10546875
47.36328125,88.37890625,-32.71484375,115.72265625
45.8984375,13.18359375,-28.80859375,112.3046875
-24.90234375,-104.4921875,-32.71484375,26.85546875
-165.0390625,-262.20703125,-51.7578125,-272.94921875
-140.13671875,-80.56640625,-65.4296875,-233.88671875
33.203125,85.9375,-51.7578125,96.19140625
64.453125,21.484375,-44.43359375,119.62890625
2.9296875,-64.94140625,-44.921875,30.2734375
-147.94921875,-224.12109375,-61.5234375,-267.08984375
-158.69140625,-104.00390625,-67.87109375,-281.73828125
8.7890625,89.84375,-38.57421875,64.453125
50.29296875,48.828125,-31.25,119.62890625
12.20703125,-44.921875,-30.76171875,80.56640625
-128.41796875,-223.6328125,-43.45703125,-190.91796875
-174.31640625,-129.39453125,-56.640625,-295.8984375
19.53125,98.14453125,-42.96875,54.6875
82.51953125,43.9453125,-41.9921875,146.484375
27.83203125,-36.1328125,-38.57421875,97.65625
-105.95703125,-189.94140625,-49.31640625,-161.62109375
-172.36328125,-125.48828125,-67.87109375,-326.171875
4.39453125,90.8203125,-50.29296875,14.16015625
71.2890625,44.43359375,-39.55078125,126.953125
35.15625,-2.44140625,-47.8515625,84.9609375
-74.21875,-176.7578125,-58.10546875,-128.41796875
-181.640625,-192.87109375,-58.59375,-348.6328125
-35.15625,61.03515625,-43.9453125,-30.2734375
74.70703125,78.61328125,-41.50390625,152.83203125
43.45703125,14.16015625,-42.96875,121.09375
-79.1015625,-152.34375,-49.8046875,-70.80078125
-197.75390625,-208.49609375,-62.01171875,-321.77734375
-58.59375,56.15234375,-51.7578125,-51.7578125
57.12890625,108.3984375,-41.015625,158.203125
37.109375,11.23046875,-40.0390625,118.65234375
-54.6875,-164.55078125,-50.29296875,-65.4296875
-193.359375,-242.1875,-63.4765625,-341.796875
-87.890625,20.5078125,-56.640625,-118.1640625
64.94140625,104.98046875,-38.57421875,127.44140625
51.7578125,19.53125,-41.9921875,114.74609375
-38.57421875,-125.9765625,-56.640625,-24.4140625
-186.5234375,-230.46875,-66.89453125,-337.40234375
-119.62890625,-8.7890625,-63.4765625,-187.98828125
35.15625,90.8203125,-49.8046875,98.6328125
41.50390625,38.0859375,-38.57421875,101.07421875
-32.2265625,-68.84765625,-39.55078125,-6.8359375
-196.2890625,-251.46484375,-62.01171875,-312.5
-147.4609375,-69.82421875,-62.5,-234.86328125
41.50390625,93.75,-43.9453125,79.58984375
52.24609375,28.3203125,-42.48046875,105.95703125
-6.34765625,-67.3828125,-52.24609375,38.57421875
-153.80859375,-215.8203125,-67.3828125,-247.55859375
-153.3203125,-67.87109375,-62.01171875,-236.81640625
31.25,101.07421875,-41.9921875,93.75
61.5234375,37.109375,-40.52734375,129.8828125
0.0,-81.54296875,-49.31640625,67.3828125
-134.765625,-235.3515625,-62.5,-225.09765625
-157.2265625,-95.21484375,-69.82421875,-291.015625
28.3203125,89.35546875,-52.734375,62.98828125
65.91796875,38.0859375,-34.1796875,123.53515625
9.27734375,-37.59765625,-32.2265625,77.63671875
-133.7890625,-219.7265625,-48.33984375,-179.6875
-207.51953125,-152.83203125,-54.19921875,-323.73046875
-17.08984375,87.890625,-32.2265625,31.25
59.08203125,42.48046875,-26.85546875,131.8359375
21.97265625,-38.57421875,-30.76171875,84.9609375
-105.95703125,-191.89453125,-42.96875,-143.5546875
-208.49609375,-171.875,-53.22265625,-337.890625
-46.875,83.0078125,-36.1328125,-12.20703125
52.734375,79.1015625,-30.2734375,142.578125
32.2265625,-8.7890625,-33.69140625,114.74609375
-83.984375,-187.01171875,-42.48046875,-93.75
-196.77734375,-218.26171875,-55.17578125,-333.49609375
-51.7578125,54.6875,-43.9453125,-42.48046875
59.08203125,80.078125,-30.76171875,145.99609375
42.48046875,1.46484375,-29.296875,134.765625
-65.4296875,-152.34375,-39.55078125,-32.2265625
-199.70703125,-222.16796875,-58.10546875,-324.70703125
-78.125,34.66796875,-50.78125,-100.5859375
53.22265625,88.8671875,-42.48046875,122.55859375
39.0625,27.34375,-44.921875,106.4453125
-44.43359375,-95.703125,-46.38671875,-25.390625
-192.3828125,-237.79296875,-66.89453125,-329.58984375
-104.4921875,-15.13671875,-69.3359375,-156.25
56.640625,88.8671875,-54.19921875,115.234375
44.921875,-2.9296875,-52.734375,94.23828125
-27.34375,-100.5859375,-59.08203125,-21.97265625
-172.8515625,-218.75,-65.91796875,-311.03515625
-128.90625,-36.1328125,-61.03515625,-201.171875
26.3671875,87.890625,-43.9453125,101.5625
29.78515625,21.484375,-39.0625,105.46875
-37.109375,-101.5625,-47.36328125,4.8828125
-183.10546875,-241.2109375,-64.94140625,-282.2265625
-163.57421875,-45.41015625,-67.3828125,-242.67578125
19.04296875,90.33203125,-47.36328125,75.1953125
41.50390625,7.8125,-45.8984375,109.86328125
-14.6484375,-81.54296875,-42.96875,49.8046875
-153.80859375,-233.88671875,-41.50390625,-228.515625
-167.96875,-91.30859375,-45.41015625,-261.23046875
14.16015625,92.28515625,-34.66796875,77.1484375
41.9921875,24.4140625,-39.55078125,120.1171875
-9.765625,-41.50390625,-48.828125,52.734375
-143.5546875,-210.9375,-69.3359375,-213.8671875
-195.3125,-135.25390625,-79.1015625,-313.96484375
-13.671875,82.03125,-52.734375,31.73828125
53.7109375,61.5234375,-32.2265625,125.0
17.578125,-10.25390625,-25.87890625,91.796875
-109.375,-209.47265625,-40.52734375,-142.08984375
-195.80078125,-168.45703125,-52.734375,-318.359375
-23.4375,89.84375,-40.52734375,8.30078125
62.5,65.91796875,-38.57421875,138.671875
31.25,-9.27734375,-39.0625,101.5625
-84.47265625,-176.26953125,-49.31640625,-108.88671875
-200.68359375,-191.40625,-83.984375,-335.9375
-46.38671875,65.4296875,-69.3359375,-29.78515625
64.453125,52.734375,-40.0390625,136.71875
39.55078125,-6.8359375,-35.64453125,104.98046875
-77.63671875,-134.27734375,-39.55078125,-65.4296875
-208.49609375,-215.33203125,-56.15234375,-329.1015625
-81.0546875,36.1328125,-57.12890625,-77.63671875
41.9921875,91.796875,-43.9453125,132.32421875
36.1328125,5.859375,-40.0390625,117.1875
-55.6640625,-133.30078125,-45.8984375,-31.73828125
-199.70703125,-216.30859375,-62.01171875,-329.58984375
-89.35546875,26.3671875,-58.10546875,-123.046875
45.8984375,84.47265625,-44.921875,123.53515625
28.80859375,15.625,-39.0625,102.05078125
-47.36328125,-111.81640625,-43.45703125,-15.13671875
-195.3125,-248.046875,-61.03515625,-312.5
-119.140625,0.0,-55.17578125,-167.48046875
52.734375,104.00390625,-43.9453125,112.79296875
53.7109375,-3.90625,-51.7578125,96.19140625
-15.13671875,-102.05078125,-53.22265625,9.765625
-165.0390625,-240.234375,-61.03515625,-279.296875
-138.18359375,-53.7109375,-55.17578125,-209.9609375
37.109375,99.12109375,-36.62109375,101.07421875
48.828125,22.94921875,-34.1796875,109.375
-18.5546875,-82.03125,-34.66796875,36.1328125
-163.57421875,-230.46875,-46.875,-237.79296875
-157.71484375,-73.73046875,-58.59375,-242.1875
32.71484375,102.05078125,-40.0390625,78.125
69.82421875,47.36328125,-30.76171875,120.60546875
13.18359375,-71.77734375,-39.55078125,62.5
-136.23046875,-256.34765625,-51.26953125,-208.0078125
-171.875,-105.95703125,-57.12890625,-270.01953125
21.97265625,100.5859375,-44.43359375,69.82421875
67.3828125,42.48046875,-38.57421875,136.23046875
20.99609375,-34.1796875,-40.52734375,90.8203125
-112.79296875,-208.49609375,-57.12890625,-168.9453125
-192.87109375,-140.625,-63.96484375,-314.453125
-11.23046875,109.86328125,-47.36328125,29.78515625
76.171875,68.359375,-40.0390625,141.11328125
38.57421875,-14.16015625,-36.1328125,106.4453125
-90.8203125,-166.50390625,-41.015625,-105.95703125
-192.3828125,-180.6640625,-49.8046875,-309.08203125
-27.34375,67.3828125,-40.0390625,-7.8125
69.82421875,76.171875,-31.73828125,130.37109375
41.015625,-1.46484375,-42.48046875,94.7265625
-60.05859375,-151.3671875,-57.6171875,-85.9375
-182.12890625,-193.359375,-62.5,-325.1953125
-44.921875,63.4765625,-41.015625,-44.921875
74.70703125,91.796875,-23.4375,149.4140625
47.36328125,9.765625,-26.3671875,119.140625
-51.7578125,-132.32421875,-30.2734375,-46.38671875
-192.3828125,-210.44921875,-48.33984375,-326.66015625
-80.078125,50.78125,-44.921875,-109.375
63.96484375,85.9375,-28.80859375,122.55859375
47.36328125,3.90625,-34.66796875,111.328125
-45.41015625,-115.234375,-47.36328125,-33.203125
-189.453125,-239.2578125,-70.80078125,-335.44921875
-96.19140625,5.37109375,-62.98828125,-172.36328125
51.26953125,106.4453125,-38.57421875,104.4921875
39.0625,19.53125,-31.73828125,100.09765625
-31.73828125,-91.30859375,-29.78515625,-9.765625
-182.6171875,-227.5390625,-44.921875,-295.8984375
-124.51171875,-47.36328125,-51.7578125,-198.2421875
61.03515625,85.44921875,-43.45703125,102.05078125
76.171875,32.71484375,-37.59765625,126.46484375
-6.34765625,-94.7265625,-39.55078125,30.76171875
-169.43359375,-260.25390625,-54.6875,-270.5078125
-152.83203125,-86.9140625,-59.08203125,-233.3984375
22.94921875,78.125,-42.48046875,101.5625
51.7578125,33.203125,-34.1796875,146.484375
-1.46484375,-55.17578125,-42.96875,65.91796875
-151.85546875,-232.421875,-57.6171875,-233.3984375
-178.22265625,-101.07421875,-51.7578125,-276.85546875
4.39453125,95.21484375,-34.66796875,57.6171875
51.26953125,24.4140625,-28.3203125,113.76953125
4.39453125,-48.33984375,-25.390625,67.3828125
-127.44140625,-197.75390625,-42.96875,-180.6640625
-183.10546875,-132.8125,-58.10546875,-297.8515625
0.0,62.01171875,-40.52734375,22.94921875
64.453125,31.25,-34.66796875,110.3515625
18.06640625,-31.73828125,-34.1796875,79.58984375
-113.28125,-196.2890625,-40.52734375,-152.83203125
-196.2890625,-164.0625,-57.6171875,-328.61328125
-16.11328125,67.87109375,-41.015625,0.48828125
62.5,51.26953125,-23.4375,123.53515625
25.87890625,-7.8125,-23.92578125,96.6796875
-98.14453125,-172.36328125,-35.15625,-95.703125
-221.6796875,-190.91796875,-43.9453125,-325.68359375
-60.546875,89.84375,-34.1796875,-31.25
56.15234375,74.70703125,-32.71484375,132.8125
29.78515625,-8.7890625,-37.109375,96.19140625
-69.3359375,-157.71484375,-40.52734375,-70.3125
-205.078125,-232.421875,-47.36328125,-329.58984375
-74.21875,43.9453125,-38.0859375,-86.9140625
58.10546875,73.2421875,-29.78515625,126.46484375
37.59765625,-3.90625,-33.69140625,112.79296875
-57.12890625,-125.0,-43.45703125,-40.0390625
-205.56640625,-222.65625,-57.6171875,-337.890625
-107.421875,6.34765625,-44.921875,-143.06640625
48.33984375,96.6796875,-27.34375,114.74609375
37.59765625,41.015625,-24.90234375,108.3984375
-55.6640625,-116.69921875,-28.3203125,-14.16015625
-196.77734375,-251.46484375,-41.9921875,-303.22265625
-125.9765625,-17.578125,-41.50390625,-166.50390625
38.0859375,83.0078125,-23.4375,114.74609375
41.9921875,15.13671875,-24.4140625,117.1875
-25.390625,-101.07421875,-37.109375,25.390625
-186.5234375,-269.53125,-53.22265625,-279.78515625
-162.59765625,-58.10546875,-49.31640625,-227.5390625
23.4375,104.00390625,-38.0859375,80.56640625
50.29296875,24.90234375,-46.875,102.05078125
-9.765625,-76.66015625,-48.33984375,30.2734375
-164.55078125,-221.6796875,-53.7109375,-250.0
-179.19921875,-101.07421875,-52.24609375,-261.23046875
5.37109375,74.21875,-33.203125,64.453125
48.33984375,23.92578125,-30.76171875,110.3515625
-8.30078125,-62.98828125,-36.1328125,60.05859375
-152.83203125,-220.21484375,-47.8515625,-202.1484375
-189.453125,-117.67578125,-54.6875,-282.2265625
1.46484375,93.75,-28.80859375,41.015625
55.6640625,44.921875,-16.6015625,118.65234375
9.27734375,-41.50390625,-28.80859375,78.61328125
-129.39453125,-221.6796875,-50.29296875,-187.01171875
-209.9609375,-145.5078125,-64.94140625,-332.03125
-29.296875,104.98046875,-48.33984375,1.46484375
44.43359375,43.9453125,-40.0390625,104.98046875
11.71875,-26.3671875,-42.96875,74.70703125
-104.4921875,-173.33984375,-58.10546875,-133.30078125
-210.44921875,-193.84765625,-75.68359375,-336.42578125
-54.6875,62.01171875,-58.10546875,-25.87890625
45.8984375,74.21875,-41.50390625,129.8828125
23.92578125,8.30078125,-36.1328125,108.88671875
-81.54296875,-158.69140625,-46.875,-69.82421875
-206.0546875,-208.984375,-57.12890625,-316.40625
-60.546875,56.15234375,-43.45703125,-51.26953125
62.5,75.68359375,-37.109375,146.97265625
36.62109375,17.08984375,-40.0390625,117.67578125
-56.640625,-126.46484375,-48.33984375,-46.38671875
-193.84765625,-231.4453125,-61.5234375,-325.68359375
-82.51953125,26.85546875,-51.7578125,-116.69921875
64.94140625,94.23828125,-41.015625,116.2109375
55.6640625,24.4140625,-37.59765625,92.7734375
-41.015625,-113.28125,-49.8046875,-43.9453125
-196.2890625,-233.88671875,-75.1953125,-332.51953125
-106.93359375,9.765625,-62.98828125,-178.7109375
58.10546875,100.5859375,-35.15625,98.6328125
49.8046875,22.94921875,-28.80859375,102.5390625
-22.94921875,-88.8671875,-41.9921875,-3.90625
-166.9921875,-233.88671875,-62.5,-294.43359375
-127.9296875,-37.59765625,-64.453125,-199.21875
42.96875,102.5390625,-41.015625,107.91015625
62.01171875,27.34375,-34.66796875,120.60546875
5.859375,-93.75,-41.50390625,38.0859375
-150.87890625,-240.72265625,-52.24609375,-247.55859375
-153.80859375,-68.84765625,-58.59375,-235.83984375
27.83203125,84.47265625,-40.52734375,82.51953125
54.19921875,20.01953125,-34.66796875,116.69921875
2.44140625,-52.24609375,-40.52734375,63.4765625
-146.484375,-218.75,-56.15234375,-219.23828125
-162.109375,-108.3984375,-63.96484375,-266.6015625
36.1328125,105.95703125,-59.5703125,79.1015625
63.4765625,39.55078125,-55.17578125,119.62890625
20.99609375,-53.7109375,-35.15625,75.68359375
-117.67578125,-215.8203125,-44.921875,-177.734375
-179.19921875,-126.953125,-62.98828125,-295.8984375
14.16015625,105.46875,-46.875,42.96875
85.9375,70.3125,-41.50390625,125.48828125
47.8515625,-17.578125,-48.828125,90.8203125
-93.26171875,-208.49609375,-60.546875,-125.48828125
-188.96484375,-166.9921875,-65.91796875,-314.453125
-11.71875,93.26171875,-43.9453125,-1.953125
77.1484375,71.2890625,-47.36328125,134.27734375
43.9453125,15.625,-62.01171875,108.88671875
-76.66015625,-160.15625,-54.6875,-88.8671875
-207.51953125,-204.58984375,-52.24609375,-328.61328125
-57.6171875,66.89453125,-36.1328125,-41.015625
63.4765625,67.3828125,-26.85546875,129.8828125
43.9453125,3.41796875,-35.64453125,101.5625
-66.40625,-137.20703125,-56.15234375,-60.546875
-211.42578125,-236.328125,-78.125,-332.03125
-75.68359375,36.1328125,-61.5234375,-96.6796875
66.40625,91.796875,-47.36328125,117.67578125
39.55078125,-7.8125,-49.8046875,99.12109375
-61.03515625,-137.6953125,-49.8046875,-40.52734375
-201.66015625,-229.00390625,-55.6640625,-318.359375
-110.3515625,-5.859375,-43.9453125,-131.8359375
29.296875,66.40625,-35.64453125,113.28125
15.625,12.20703125,-41.015625,105.46875
-54.19921875,-102.05078125,-47.8515625,-6.34765625
-192.87109375,-230.95703125,-80.078125,-298.828125
-127.9296875,-22.94921875,-80.56640625,-178.22265625
40.52734375,74.70703125,-36.62109375,110.83984375
44.43359375,11.71875,-37.109375,118.1640625
-23.4375,-87.890625,-59.5703125,21.97265625
-172.8515625,-246.09375,-60.05859375,-267.578125
-138.671875,-54.6875,-51.7578125,-209.9609375
46.875,123.53515625,-46.875,97.16796875
60.546875,39.0625,-44.921875,112.79296875
-9.765625,-89.84375,-38.57421875,41.9921875
-171.38671875,-249.51171875,-51.26953125,-240.72265625
-180.6640625,-86.42578125,-61.5234375,-264.6484375
17.578125,99.12109375,-40.52734375,72.75390625
58.10546875,29.296875,-36.1328125,126.953125
1.46484375,-47.8515625,-38.57421875,72.75390625
-145.99609375,-214.84375,-44.43359375,-184.08203125
-185.546875,-120.1171875,-59.5703125,-271.484375
14.16015625,97.16796875,-47.8515625,65.4296875
67.3828125,56.15234375,-39.0625,136.71875
-1.953125,0.48828125,-40.0390625,90.33203125
-143.5546875,-191.89453125,-52.734375,-163.57421875
-202.63671875,-144.53125,-65.91796875,-332.51953125
-12.20703125,118.1640625,-64.453125,1.953125
65.91796875,70.80078125,-64.94140625,112.79296875
18.06640625,3.41796875,-64.453125,82.03125
-91.796875,-151.3671875,-79.58984375,-115.72265625
-180.17578125,-140.625,-86.9140625,-318.359375
-20.5078125,139.16015625,-75.1953125,-24.4140625
83.49609375,139.6484375,-76.66015625,110.83984375
59.08203125,56.15234375,-81.54296875,72.75390625
-41.9921875,-102.5390625,-87.890625,-106.93359375
-175.29296875,-136.23046875,-106.93359375,-359.375
-44.43359375,109.375,-99.609375,-94.7265625
79.1015625,113.28125,-77.63671875,104.98046875
56.15234375,44.43359375,-79.58984375,82.03125
-33.203125,-105.46875,-88.8671875,-64.453125
-187.01171875,-204.58984375,-93.26171875,-338.37890625
-88.8671875,54.6875,-73.2421875,-127.44140625
61.5234375,121.58203125,-56.15234375,110.3515625
50.78125,46.38671875,-49.8046875,97.65625
-27.83203125,-84.47265625,-51.26953125,-23.4375
-175.29296875,-207.03125,-69.3359375,-319.3359375
-93.75,21.484375,-64.453125,-169.921875
72.75390625,131.34765625,-49.31640625,112.79296875
59.5703125,48.33984375,-49.8046875,107.421875
-11.23046875,-93.75,-54.19921875,2.9296875
-165.0390625,-222.65625,-65.4296875,-287.59765625
-132.32421875,-14.6484375,-70.80078125,-202.1484375
37.59765625,115.72265625,-61.5234375,114.2578125
53.22265625,55.6640625,-50.78125,127.44140625
-13.18359375,-63.96484375,-48.33984375,30.76171875
-174.31640625,-225.09765625,-55.6640625,-254.8828125
-157.2265625,-57.6171875,-61.03515625,-226.5625
25.390625,76.171875,-52.24609375,97.65625
53.22265625,33.69140625,-40.0390625,115.72265625
10.25390625,-15.13671875,-33.203125,61.03515625
-132.8125,-202.63671875,-44.921875,-208.49609375
-167.96875,-100.5859375,-57.12890625,-277.83203125
8.7890625,96.19140625,-45.8984375,60.05859375
62.01171875,41.9921875,-46.38671875,129.8828125
20.01953125,-19.04296875,-47.8515625,85.9375
-116.2109375,-188.4765625,-60.546875,-169.43359375
-172.8515625,-145.99609375,-68.359375,-298.828125
-4.39453125,87.890625,-48.828125,46.875
53.22265625,68.84765625,-38.0859375,143.5546875
15.625,-6.8359375,-41.015625,98.14453125
-106.93359375,-174.31640625,-50.78125,-130.859375
-203.61328125,-148.92578125,-62.98828125,-325.1953125
-42.48046875,79.58984375,-54.19921875,-2.9296875
41.9921875,38.0859375,-41.9921875,135.25390625
12.20703125,-18.06640625,-39.0625,108.88671875
-98.6328125,-153.3203125,-55.17578125,-92.7734375
-206.0546875,-187.5,-74.21875,-350.09765625
-56.15234375,54.19921875,-54.19921875,-46.38671875
62.01171875,71.77734375,-33.203125,135.25390625
21.484375,11.23046875,-33.203125,87.890625
-86.42578125,-125.9765625,-42.96875,-81.0546875
-199.21875,-208.0078125,-60.546875,-351.5625
-77.1484375,45.41015625,-49.8046875,-94.23828125
59.08203125,101.5625,-30.2734375,152.34375
38.57421875,2.44140625,-29.78515625,128.41796875
-46.875,-113.76953125,-44.43359375,-19.53125
-181.640625,-208.0078125,-67.3828125,-319.82421875
-95.703125,1.953125,-58.59375,-132.8125
53.22265625,88.8671875,-35.15625,145.99609375
38.0859375,21.484375,-36.1328125,124.0234375
-33.69140625,-99.609375,-45.41015625,-2.9296875
-171.875,-219.7265625,-56.15234375,-301.26953125
-127.44140625,-7.8125,-53.7109375,-186.5234375
32.71484375,109.375,-37.109375,113.76953125
30.76171875,26.3671875,-41.9921875,120.60546875
-28.80859375,-98.14453125,-47.36328125,20.99609375
-171.38671875,-260.7421875,-51.26953125,-279.296875
-161.1328125,-90.8203125,-47.36328125,-233.3984375
0.0,77.63671875,-36.1328125,92.28515625
15.13671875,25.87890625,-38.0859375,117.1875
-30.2734375,-52.734375,-42.96875,42.96875
-153.80859375,-205.56640625,-60.546875,-240.234375
-160.15625,-103.02734375,-60.546875,-272.94921875
5.859375,77.63671875,-36.1328125,71.77734375
42.96875,18.06640625,-33.203125,133.30078125
8.30078125,-65.4296875,-40.52734375,75.1953125
-121.58203125,-214.84375,-52.734375,-194.3359375
-166.9921875,-111.328125,-55.17578125,-300.78125
5.859375,90.33203125,-42.96875,35.64453125
54.6875,27.83203125,-34.66796875,123.046875
15.13671875,-32.71484375,-31.25,82.03125
-104.00390625,-191.40625,-53.7109375,-173.828125
-180.17578125,-149.4140625,-63.4765625,-335.9375
-25.87890625,85.9375,-47.36328125,10.7421875
46.875,41.9921875,-41.015625,134.27734375
15.13671875,-21.484375,-39.55078125,93.75
-100.09765625,-156.25,-48.828125,-132.8125
-194.82421875,-172.36328125,-59.5703125,-352.5390625
-46.38671875,76.66015625,-39.0625,-35.15625
43.45703125,84.47265625,-20.99609375,134.765625
18.5546875,-2.9296875,-21.97265625,106.93359375
-83.984375,-170.8984375,-35.15625,-86.42578125
-199.21875,-224.609375,-60.05859375,-352.5390625
-71.2890625,33.69140625,-54.6875,-76.171875
41.50390625,80.56640625,-37.109375,144.04296875
30.76171875,14.16015625,-37.59765625,117.67578125
-56.15234375,-115.234375,-55.6640625,-45.8984375
-181.640625,-208.0078125,-70.80078125,-338.37890625
-82.51953125,21.484375,-48.33984375,-125.0
47.8515625,79.58984375,-41.50390625,132.8125
35.64453125,14.16015625,-42.48046875,108.3984375
-34.1796875,-99.609375,-33.203125,-28.80859375
-169.43359375,-237.3046875,-41.9921875,-332.03125
-112.79296875,-35.64453125,-45.41015625,-174.8046875
27.83203125,80.078125,-37.59765625,125.0
25.390625,11.71875,-34.66796875,124.51171875
-42.48046875,-98.6328125,-41.50390625,17.578125
-182.12890625,-231.4453125,-57.6171875,-298.33984375
-146.484375,-58.10546875,-56.640625,-226.07421875
0.9765625,71.2890625,-44.43359375,87.40234375
14.16015625,11.71875,-46.38671875,98.14453125
-26.85546875,-79.1015625,-49.31640625,12.6953125
-171.875,-226.5625,-61.5234375,-292.48046875
-165.0390625,-59.5703125,-60.05859375,-275.390625
16.6015625,83.984375,-54.6875,73.73046875
47.36328125,18.5546875,-52.24609375,124.51171875
-5.37109375,-44.921875,-48.33984375,72.265625
-138.18359375,-222.65625,-58.59375,-225.5859375
-167.96875,-120.1171875,-61.5234375,-306.15234375
5.37109375,94.23828125,-54.6875,51.26953125
55.6640625,50.29296875,-52.734375,126.953125
9.765625,-40.52734375,-55.6640625,77.1484375
-115.72265625,-208.984375,-59.08203125,-183.59375
-179.6875,-139.16015625,-56.640625,-321.77734375
-23.4375,80.56640625,-38.0859375,22.4609375
48.828125,46.875,-31.25,131.8359375
20.99609375,-21.484375,-28.80859375,100.09765625
-103.515625,-191.89453125,-43.45703125,-146.484375
-199.21875,-168.9453125,-61.03515625,-348.6328125
-46.875,83.984375,-47.36328125,3.90625
42.96875,63.96484375,-44.43359375,153.80859375
3.90625,-16.11328125,-47.36328125,101.5625
-91.796875,-170.41015625,-56.640625,-99.12109375
-194.82421875,-192.3828125,-72.75390625,-355.95703125
-66.40625,63.4765625,-55.17578125,-61.5234375
51.26953125,65.4296875,-34.66796875,147.4609375
29.296875,7.32421875,-33.69140625,123.046875
-68.84765625,-112.3046875,-35.64453125,-57.12890625
-210.44921875,-224.609375,-46.875,-367.1875
-99.609375,9.765625,-46.875,-123.046875
35.15625,70.3125,-45.41015625,135.25390625
7.32421875,-23.4375,-41.50390625,101.5625
-64.453125,-141.6015625,-40.0390625,-51.26953125
-202.1484375,-227.5390625,-58.59375,-351.5625
-142.578125,-13.671875,-59.5703125,-169.43359375
11.71875,82.51953125,-40.52734375,110.83984375
27.83203125,26.85546875,-23.4375,104.4921875
-48.33984375,-112.3046875,-26.3671875,-12.6953125
-190.4296875,-237.3046875,-53.7109375,-325.68359375
-138.671875,-25.390625,-52.734375,-206.54296875
20.5078125,73.2421875,-26.3671875,116.2109375
32.2265625,-10.25390625,-33.69140625,126.953125
-31.73828125,-108.88671875,-48.33984375,33.69140625
-160.15625,-230.95703125,-63.96484375,-281.25
-143.06640625,-61.03515625,-72.75390625,-254.39453125
9.765625,89.35546875,-48.828125,84.47265625
34.1796875,22.4609375,-35.15625,122.0703125
-9.27734375,-68.84765625,-36.62109375,62.98828125
-134.27734375,-206.0546875,-47.8515625,-222.65625
-152.34375,-90.33203125,-53.7109375,-259.765625
18.06640625,83.49609375,-37.59765625,95.703125
48.828125,47.8515625,-36.62109375,152.83203125
2.44140625,-33.69140625,-42.96875,84.47265625
-112.3046875,-213.37890625,-48.33984375,-201.171875
-169.43359375,-136.71875,-51.26953125,-312.5
-10.25390625,80.078125,-41.015625,37.109375
52.734375,31.25,-37.59765625,133.30078125
17.08984375,-37.109375,-29.78515625,106.93359375
-99.609375,-180.6640625,-39.0625,-146.97265625
-173.828125,-153.80859375,-57.12890625,-334.47265625
-19.53125,73.2421875,-40.52734375,16.6015625
50.78125,57.12890625,-27.83203125,146.97265625
20.99609375,-10.7421875,-30.76171875,115.72265625
-81.0546875,-147.4609375,-42.48046875,-95.21484375
-185.546875,-185.546875,-59.5703125,-351.5625
-41.9921875,47.8515625,-52.734375,-34.1796875
65.4296875,77.63671875,-37.109375,160.64453125
32.71484375,-18.5546875,-41.9921875,122.0703125
-60.05859375,-165.52734375,-53.22265625,-66.89453125
-169.921875,-199.21875,-64.94140625,-346.19140625
-52.734375,50.78125,-50.29296875,-84.9609375
62.01171875,80.56640625,-28.3203125,136.71875
41.50390625,17.08984375,-31.25,121.09375
-37.59765625,-108.3984375,-41.50390625,-38.0859375
-170.41015625,-206.0546875,-58.10546875,-349.609375
-86.42578125,30.2734375,-59.5703125,-138.18359375
50.29296875,77.1484375,-41.9921875,132.32421875
34.66796875,-12.6953125,-36.1328125,113.76953125
-42.96875,-105.46875,-41.9921875,-20.5078125
-185.05859375,-222.65625,-54.6875,-328.61328125
-132.8125,-5.859375,-57.12890625,-189.453125
24.4140625,107.91015625,-50.29296875,114.2578125
25.390625,20.5078125,-48.33984375,118.1640625
-38.57421875,-97.16796875,-44.921875,9.765625
-163.0859375,-242.1875,-53.22265625,-305.17578125
-135.7421875,-76.66015625,-55.6640625,-234.375
21.484375,82.03125,-40.0390625,101.07421875
40.52734375,51.26953125,-39.0625,124.51171875
-8.7890625,-72.265625,-43.45703125,41.50390625
-139.6484375,-232.91015625,-55.6640625,-267.08984375
-141.11328125,-82.51953125,-57.6171875,-269.53125
15.625,76.171875,-39.55078125,78.61328125
40.0390625,21.484375,-32.2265625,125.0
0.48828125,-56.15234375,-38.0859375,59.5703125
-131.34765625,-216.796875,-57.12890625,-228.02734375
-171.875,-119.140625,-56.15234375,-306.15234375
-13.671875,79.1015625,-41.015625,43.45703125
18.5546875,25.87890625,-37.109375,115.72265625
-27.83203125,-34.66796875,-37.59765625,67.3828125
-137.6953125,-176.7578125,-54.19921875,-176.26953125
-202.63671875,-146.97265625,-64.453125,-329.1015625
-45.41015625,72.75390625,-43.45703125,10.7421875
25.87890625,48.828125,-30.76171875,131.8359375
6.8359375,-24.90234375,-28.3203125,104.98046875
-100.09765625,-169.921875,-36.62109375,-127.44140625
-204.1015625,-166.9921875,-55.17578125,-352.05078125
-41.015625,73.2421875,-39.55078125,-13.18359375
60.546875,66.40625,-22.4609375,159.66796875
22.4609375,-11.71875,-28.3203125,118.1640625
-81.0546875,-158.203125,-50.29296875,-85.44921875
-192.3828125,-193.359375,-57.6171875,-345.703125
-61.5234375,57.6171875,-32.71484375,-66.89453125
58.10546875,71.2890625,-19.04296875,133.7890625
22.4609375,-12.20703125,-25.390625,97.65625
-83.49609375,-149.90234375,-41.9921875,-81.54296875
-198.2421875,-226.5625,-62.98828125,-372.55859375
-90.8203125,26.85546875,-57.6171875,-129.8828125
35.64453125,81.54296875,-39.55078125,126.953125
20.99609375,-0.9765625,-36.1328125,105.46875
-58.10546875,-110.83984375,-53.7109375,-37.59765625
-200.1953125,-222.16796875,-64.453125,-344.23828125
-138.18359375,-20.01953125,-46.875,-174.31640625
11.23046875,81.54296875,-27.83203125,124.51171875
23.4375,31.73828125,-30.2734375,125.9765625
-49.8046875,-121.58203125,-42.96875,-0.48828125
-187.01171875,-263.671875,-53.22265625,-315.91796875
-126.46484375,-30.76171875,-44.921875,-209.9609375
25.87890625,82.51953125,-32.2265625,106.4453125
28.80859375,15.13671875,-38.57421875,118.1640625
-24.90234375,-77.63671875,-39.0625,27.83203125
-163.0859375,-228.02734375,-50.29296875,-275.390625
-157.2265625,-74.70703125,-58.10546875,-249.0234375
7.32421875,78.61328125,-40.0390625,89.35546875
40.0390625,22.94921875,-45.8984375,129.39453125
-5.859375,-52.24609375,-55.6640625,49.31640625
-143.5546875,-209.9609375,-55.17578125,-244.140625
-165.0390625,-100.09765625,-45.8984375,-282.2265625
7.8125,80.078125,-26.85546875,63.96484375
35.64453125,30.2734375,-36.1328125,112.79296875
-13.18359375,-41.50390625,-43.9453125,57.6171875
-121.58203125,-202.63671875,-56.640625,-205.56640625
-168.45703125,-122.0703125,-62.5,-324.70703125
-14.16015625,83.0078125,-43.9453125,28.3203125
43.45703125,43.45703125,-39.55078125,126.46484375
13.671875,-21.484375,-43.45703125,95.21484375
-92.7734375,-179.6875,-55.17578125,-137.6953125
-171.875,-149.90234375,-62.5,-334.9609375
-19.04296875,106.4453125,-40.0390625,6.34765625
62.98828125,66.89453125,-30.2734375,149.90234375
17.08984375,-20.01953125,-33.69140625,109.375
-96.6796875,-154.78515625,-40.0390625,-103.02734375
-203.125,-185.546875,-57.6171875,-355.46875
-62.98828125,59.08203125,-47.8515625,-43.9453125
39.55078125,69.82421875,-34.66796875,145.99609375
13.18359375,5.37109375,-34.1796875,118.1640625
-73.73046875,-129.39453125,-45.41015625,-54.6875
-194.3359375,-196.77734375,-63.4765625,-336.42578125
-83.0078125,29.296875,-50.78125,-81.54296875
47.8515625,81.54296875,-33.69140625,143.06640625
32.2265625,26.85546875,-37.59765625,112.3046875
-46.875,-122.0703125,-48.33984375,-40.52734375
-168.9453125,-236.81640625,-61.5234375,-340.8203125
-89.84375,7.8125,-53.7109375,-147.94921875
52.24609375,87.890625,-41.50390625,123.53515625
43.9453125,6.8359375,-45.8984375,108.88671875
-29.296875,-88.8671875,-53.7109375,-23.92578125
-167.48046875,-221.6796875,-65.91796875,-333.984375
-121.58203125,-32.71484375,-60.546875,-200.1953125
31.73828125,94.23828125,-39.55078125,112.3046875
37.109375,34.1796875,-36.1328125,121.09375
-27.83203125,-89.35546875,-46.875,19.04296875
-165.0390625,-221.19140625,-66.40625,-286.1328125
-146.484375,-43.45703125,-61.03515625,-224.609375
11.23046875,74.70703125,-44.921875,102.05078125
27.34375,11.23046875,-48.33984375,127.44140625
-13.18359375,-91.796875,-46.38671875,61.5234375
-135.7421875,-231.4453125,-68.359375,-230.46875
-151.3671875,-65.91796875,-73.2421875,-250.0
16.6015625,94.23828125,-38.57421875,103.02734375
46.875,26.3671875,-32.71484375,145.01953125
-1.953125,-52.24609375,-40.52734375,77.1484375
-123.046875,-213.37890625,-50.29296875,-201.66015625
-162.59765625,-119.140625,-58.10546875,-308.10546875
16.6015625,99.12109375,-41.50390625,57.6171875
62.98828125,26.85546875,-33.69140625,140.625
6.34765625,-46.38671875,-46.875,77.63671875
-111.81640625,-183.10546875,-61.5234375,-172.8515625
-178.22265625,-148.92578125,-65.91796875,-322.75390625
-7.8125,102.5390625,-49.8046875,24.90234375
54.19921875,70.80078125,-44.43359375,132.8125
8.7890625,-16.11328125,-49.8046875,94.23828125
-97.16796875,-157.71484375,-53.22265625,-131.8359375
-182.6171875,-178.22265625,-56.15234375,-357.91015625
-44.921875,52.24609375,-50.29296875,-32.2265625
33.69140625,62.5,-40.52734375,140.13671875
16.11328125,8.30078125,-36.1328125,113.28125
-83.49609375,-149.4140625,-47.36328125,-91.796875
-195.80078125,-200.68359375,-62.01171875,-358.3984375
-65.4296875,55.17578125,-50.78125,-69.82421875
42.48046875,62.01171875,-40.52734375,143.5546875
22.94921875,-1.46484375,-45.41015625,120.60546875
-68.359375,-112.3046875,-56.640625,-50.29296875
-195.3125,-211.42578125,-76.66015625,-341.30859375
-94.23828125,11.71875,-64.453125,-123.046875
30.76171875,78.61328125,-41.50390625,123.046875
25.390625,11.71875,-45.8984375,104.4921875
-45.8984375,-98.6328125,-53.7109375,-28.80859375
-171.38671875,-196.2890625,-60.05859375,-328.125
-102.5390625,-4.8828125,-61.03515625,-168.45703125
40.52734375,80.078125,-49.8046875,117.1875
47.36328125,24.4140625,-42.96875,117.67578125
-11.71875,-83.984375,-42.96875,14.16015625
-146.484375,-227.05078125,-58.59375,-304.6875
-115.234375,-31.25,-61.03515625,-227.5390625
40.52734375,104.00390625,-40.52734375,102.05078125
51.26953125,31.25,-37.109375,120.60546875
-10.7421875,-73.73046875,-44.43359375,31.25
-150.87890625,-238.28125,-60.05859375,-270.01953125
-147.4609375,-72.75390625,-60.546875,-256.8359375
19.04296875,104.00390625,-42.96875,84.9609375
39.55078125,20.99609375,-44.921875,122.55859375
-13.671875,-75.68359375,-53.22265625,52.24609375
-142.578125,-222.16796875,-57.12890625,-233.88671875
-174.8046875,-102.5390625,-60.05859375,-287.59765625
-14.16015625,92.28515625,-54.6875,57.6171875
35.15625,29.78515625,-36.62109375,125.0
0.48828125,-48.33984375,-29.78515625,80.56640625
-127.9296875,-215.33203125,-50.78125,-188.96484375
-188.4765625,-160.15625,-60.05859375,-324.21875
-27.34375,77.1484375,-49.8046875,24.4140625
39.55078125,70.80078125,-40.52734375,125.0
12.6953125,7.8125,-33.203125,93.26171875
-99.12109375,-163.57421875,-46.38671875,-138.18359375
-189.94140625,-171.875,-57.6171875,-345.21484375
-34.66796875,63.4765625,-42.96875,-3.90625
43.45703125,43.9453125,-42.48046875,151.3671875
12.20703125,-19.04296875,-42.48046875,109.375
-79.1015625,-151.85546875,-49.31640625,-95.703125
-192.3828125,-183.10546875,-61.5234375,-341.796875
-66.89453125,67.3828125,-48.828125,-42.96875
47.8515625,87.890625,-36.1328125,147.94921875
29.78515625,0.0,-35.64453125,118.1640625
-61.03515625,-134.765625,-47.36328125,-52.734375
-184.08203125,-182.6171875,-63.4765625,-331.54296875
-87.890625,22.4609375,-56.15234375,-88.8671875
41.50390625,56.15234375,-38.57421875,148.4375
40.52734375,5.859375,-34.66796875,131.34765625
-36.1328125,-126.953125,-39.0625,-20.99609375
-164.0625,-221.6796875,-56.15234375,-341.30859375
-81.54296875,14.16015625,-59.08203125,-154.296875
62.98828125,83.984375,-46.875,135.25390625
49.8046875,1.46484375,-41.50390625,124.51171875
-35.15625,-110.3515625,-50.78125,-14.6484375
-158.69140625,-228.515625,-64.94140625,-328.61328125
-98.6328125,-23.4375,-50.78125,-196.77734375
34.66796875,95.21484375,-29.78515625,112.79296875
29.296875,23.92578125,-29.78515625,122.0703125
-32.2265625,-87.890625,-41.015625,26.3671875
-177.734375,-235.3515625,-71.77734375,-287.59765625
-163.57421875,-67.87109375,-70.80078125,-248.046875
9.27734375,90.33203125,-38.0859375,91.30859375
42.96875,27.83203125,-31.25,134.765625
-7.8125,-92.28515625,-46.875,61.03515625
-142.08984375,-241.2109375,-64.94140625,-245.1171875
-158.203125,-94.7265625,-53.22265625,-277.83203125
-12.6953125,84.9609375,-33.203125,60.546875
30.76171875,35.64453125,-34.1796875,122.0703125
4.8828125,-49.31640625,-32.2265625,73.2421875
-118.65234375,-224.12109375,-48.33984375,-198.73046875
-167.48046875,-149.4140625,-65.4296875,-301.7578125
-9.27734375,74.21875,-47.36328125,43.9453125
49.31640625,36.1328125,-34.1796875,134.765625
21.484375,-37.109375,-35.64453125,90.33203125
-87.890625,-193.84765625,-51.7578125,-162.59765625
-171.38671875,-159.1796875,-66.89453125,-338.8671875
-28.80859375,87.40234375,-47.8515625,6.8359375
39.0625,59.08203125,-45.41015625,140.13671875
5.859375,-36.62109375,-56.15234375,110.83984375
-96.19140625,-181.640625,-57.6171875,-111.81640625
-197.265625,-170.8984375,-63.4765625,-347.65625
-62.5,53.22265625,-47.8515625,-39.55078125
31.25,35.64453125,-35.64453125,131.34765625
1.46484375,-15.625,-37.109375,101.5625
-95.703125,-159.1796875,-51.26953125,-95.21484375
-207.03125,-208.0078125,-59.08203125,-361.81640625
-80.078125,62.98828125,-37.59765625,-72.265625
44.921875,81.0546875,-33.69140625,149.90234375
21.484375,-12.6953125,-40.52734375,113.28125
-67.3828125,-130.859375,-37.109375,-50.29296875
-195.80078125,-224.12109375,-53.7109375,-337.890625
-102.5390625,4.8828125,-44.43359375,-119.62890625
39.0625,93.26171875,-16.6015625,134.27734375
29.78515625,11.23046875,-31.73828125,113.28125
-43.9453125,-130.37109375,-51.26953125,-19.53125
-171.38671875,-241.69921875,-61.03515625,-334.47265625
-107.421875,-17.08984375,-59.5703125,-195.3125
36.1328125,99.12109375,-46.875,116.69921875
35.64453125,20.01953125,-38.57421875,109.375
-25.390625,-93.75,-38.57421875,-8.7890625
-154.296875,-226.5625,-55.6640625,-312.98828125
-135.7421875,-48.33984375,-49.8046875,-229.98046875
4.39453125,85.44921875,-30.2734375,101.07421875
25.87890625,28.3203125,-33.69140625,118.65234375
-23.92578125,-52.24609375,-44.43359375,42.96875
-168.45703125,-232.91015625,-62.01171875,-254.8828125
-163.0859375,-95.21484375,-61.03515625,-255.859375
18.5546875,82.51953125,-44.43359375,85.44921875
44.43359375,7.32421875,-41.50390625,129.8828125
-1.46484375,-72.75390625,-41.015625,62.01171875
-135.25390625,-216.30859375,-53.22265625,-224.609375
-170.8984375,-110.3515625,-59.5703125,-288.57421875
2.9296875,89.84375,-48.33984375,61.03515625
47.8515625,58.10546875,-54.19921875,128.90625
6.34765625,-18.5546875,-57.12890625,95.703125
-111.328125,-179.6875,-58.10546875,-165.0390625
-164.55078125,-111.328125,-62.5,-325.1953125
-4.39453125,84.9609375,-43.9453125,29.78515625
64.453125,29.296875,-38.57421875,139.6484375
34.66796875,-23.92578125,-43.45703125,105.46875
-83.49609375,-166.015625,-52.734375,-119.62890625
-172.8515625,-150.390625,-63.96484375,-326.66015625
-17.578125,99.609375,-41.9921875,3.90625
59.08203125,72.265625,-31.25,147.4609375
20.99609375,-11.23046875,-38.57421875,99.609375
-83.0078125,-154.78515625,-59.5703125,-103.515625
-197.265625,-202.63671875,-71.77734375,-353.515625
-64.94140625,53.7109375,-39.55078125,-52.24609375
47.8515625,94.23828125,-22.4609375,145.01953125
16.11328125,0.48828125,-32.2265625,114.2578125
-75.68359375,-144.53125,-48.33984375,-58.59375
-183.10546875,-201.66015625,-60.546875,-345.21484375
-68.84765625,44.921875,-57.6171875,-99.609375
53.22265625,75.1953125,-43.9453125,134.765625
40.0390625,1.46484375,-32.71484375,113.76953125
-47.36328125,-104.00390625,-35.15625,-36.62109375
-184.08203125,-212.40234375,-58.10546875,-347.16796875
-96.6796875,3.90625,-57.12890625,-163.57421875
50.29296875,74.21875,-34.1796875,119.62890625
38.57421875,8.30078125,-33.203125,108.88671875
-33.69140625,-86.42578125,-41.015625,-8.30078125
-171.875,-235.83984375,-55.17578125,-314.94140625
-120.60546875,-40.52734375,-52.24609375,-205.56640625
42.48046875,106.4453125,-39.0625,110.3515625
35.64453125,36.1328125,-40.52734375,122.0703125
-31.25,-72.75390625,-35.64453125,22.4609375
-164.55078125,-213.37890625,-43.9453125,-282.71484375
-160.15625,-68.84765625,-52.734375,-246.09375
1.46484375,84.9609375,-50.29296875,82.51953125
41.015625,27.83203125,-55.6640625,119.140625
-0.48828125,-73.2421875,-55.6640625,47.36328125
-138.18359375,-208.0078125,-54.19921875,-241.69921875
-178.22265625,-75.1953125,-56.15234375,-283.69140625
-21.97265625,83.984375,-46.875,63.96484375
26.85546875,0.48828125,-31.73828125,122.55859375
-14.16015625,-67.3828125,-34.1796875,65.4296875
-137.20703125,-204.1015625,-49.8046875,-199.21875
-193.84765625,-144.53125,-51.26953125,-323.73046875
-33.203125,64.453125,-38.0859375,20.99609375
34.66796875,31.73828125,-33.69140625,113.76953125
2.9296875,-40.0390625,-32.71484375,66.89453125
-111.81640625,-180.17578125,-46.38671875,-163.0859375
-182.12890625,-151.3671875,-60.05859375,-328.61328125
-27.83203125,65.4296875,-46.38671875,2.9296875
56.640625,63.4765625,-44.43359375,137.20703125
27.83203125,-12.20703125,-49.8046875,107.91015625
-81.54296875,-164.0625,-55.6640625,-107.421875
-181.15234375,-170.8984375,-68.359375,-336.42578125
-38.57421875,45.41015625,-57.12890625,-30.76171875
58.10546875,59.08203125,-37.59765625,145.5078125
36.62109375,12.20703125,-35.64453125,126.46484375
-54.19921875,-127.44140625,-46.38671875,-53.7109375
-184.08203125,-200.1953125,-51.7578125,-332.03125
-66.89453125,34.1796875,-43.45703125,-74.70703125
50.78125,72.265625,-40.0390625,137.6953125
28.80859375,7.8125,-42.48046875,113.76953125
-53.7109375,-99.12109375,-56.640625,-34.1796875
-180.17578125,-208.49609375,-71.77734375,-333.984375
-92.28515625,0.9765625,-59.08203125,-134.765625
44.921875,90.33203125,-38.57421875,130.859375
30.76171875,8.30078125,-35.15625,115.72265625
-46.38671875,-111.328125,-42.96875,-19.53125
-166.015625,-214.84375,-55.6640625,-307.6171875
-112.3046875,-21.97265625,-60.05859375,-165.52734375
32.71484375,82.51953125,-42.96875,115.72265625
47.36328125,18.5546875,-32.2265625,110.3515625
-20.5078125,-95.703125,-40.0390625,5.859375
-161.62109375,-236.81640625,-55.17578125,-289.0625
-131.8359375,-40.0390625,-55.17578125,-216.796875
10.25390625,87.40234375,-43.9453125,109.375
25.390625,6.34765625,-41.50390625,125.9765625
-14.16015625,-73.73046875,-39.0625,44.921875
-152.34375,-218.26171875,-52.734375,-256.34765625
-155.76171875,-69.3359375,-58.59375,-259.765625
10.7421875,99.609375,-38.0859375,93.26171875
41.9921875,31.73828125,-34.66796875,135.7421875
-3.90625,-46.875,-37.109375,54.19921875
-145.5078125,-195.80078125,-49.31640625,-219.23828125
-178.22265625,-106.4453125,-60.05859375,-275.390625
7.32421875,109.375,-34.1796875,79.1015625
58.59375,60.05859375,-20.01953125,147.4609375
19.04296875,-49.8046875,-30.76171875,87.890625
-103.515625,-202.1484375,-41.9921875,-157.71484375
-178.7109375,-143.5546875,-52.734375,-319.82421875
-2.9296875,71.2890625,-38.0859375,17.578125
68.84765625,47.8515625,-28.3203125,140.625
20.5078125,-18.5546875,-37.109375,95.703125
-85.9375,-174.31640625,-47.8515625,-132.32421875
-166.50390625,-162.59765625,-66.89453125,-327.1484375
-3.90625,79.58984375,-45.41015625,7.32421875
78.125,68.359375,-17.08984375,148.92578125
20.01953125,-7.8125,-23.92578125,101.07421875
-80.56640625,-141.11328125,-38.0859375,-81.54296875
-195.3125,-190.4296875,-51.7578125,-335.44921875
-83.0078125,36.1328125,-42.96875,-58.10546875
27.83203125,57.12890625,-38.57421875,129.8828125
2.44140625,-12.20703125,-39.55078125,94.7265625
-87.890625,-140.625,-45.8984375,-64.453125
-209.47265625,-222.16796875,-67.3828125,-346.19140625
-104.4921875,15.13671875,-55.17578125,-105.95703125
27.34375,79.58984375,-33.69140625,124.0234375
9.27734375,9.765625,-41.015625,92.28515625
-68.84765625,-122.55859375,-54.6875,-35.15625
-196.2890625,-229.4921875,-65.4296875,-322.75390625
-114.74609375,3.90625,-60.546875,-155.76171875
35.15625,66.89453125,-43.9453125,116.2109375
23.4375,5.859375,-36.62109375,104.00390625
-42.48046875,-91.796875,-41.015625,-15.13671875
-170.8984375,-240.72265625,-56.640625,-303.22265625
-127.44140625,-38.57421875,-55.6640625,-203.125
34.66796875,95.21484375,-36.62109375,100.09765625
52.734375,18.06640625,-33.203125,117.1875
-3.90625,-96.19140625,-43.45703125,34.66796875
-147.94921875,-232.91015625,-57.6171875,-253.90625
-140.625,-75.1953125,-51.7578125,-229.98046875
28.80859375,75.1953125,-38.0859375,101.5625
50.29296875,27.83203125,-36.62109375,134.27734375
6.8359375,-74.21875,-33.203125,75.1953125
-134.27734375,-239.2578125,-45.8984375,-200.68359375
-172.8515625,-97.16796875,-49.8046875,-263.18359375
0.9765625,99.609375,-35.15625,63.4765625
45.41015625,48.33984375,-36.1328125,116.2109375
11.71875,-30.2734375,-41.015625,67.3828125
-105.46875,-205.078125,-53.22265625,-191.89453125
-161.62109375,-130.859375,-63.4765625,-313.4765625
4.39453125,73.73046875,-54.19921875,29.296875
69.3359375,24.4140625,-42.96875,132.8125
32.71484375,-30.76171875,-42.48046875,99.609375
-94.23828125,-146.97265625,-57.6171875,-125.9765625
-179.19921875,-133.30078125,-71.77734375,-312.5
-12.6953125,67.3828125,-56.640625,-1.46484375
61.03515625,56.640625,-39.55078125,126.46484375
26.85546875,-0.48828125,-35.64453125,99.609375
-78.61328125,-151.85546875,-51.7578125,-99.12109375
-189.94140625,-183.10546875,-73.73046875,-332.51953125
-50.78125,55.6640625,-54.19921875,-41.015625
54.6875,70.3125,-36.62109375,128.41796875
35.15625,5.859375,-39.0625,95.703125
-67.3828125,-145.01953125,-52.734375,-75.68359375
-193.359375,-212.40234375,-71.77734375,-331.54296875
-71.2890625,42.96875,-60.546875,-78.125
49.31640625,81.54296875,-46.38671875,127.44140625
30.76171875,-1.953125,-50.29296875,87.40234375
-52.24609375,-124.0234375,-57.6171875,-59.08203125
-185.05859375,-224.12109375,-72.265625,-335.9375
-95.703125,6.34765625,-64.453125,-134.765625
46.875,89.84375,-41.015625,123.53515625
41.9921875,17.578125,-32.71484375,110.83984375
-30.76171875,-115.72265625,-39.55078125,-11.23046875
-176.7578125,-241.69921875,-59.5703125,-321.77734375
-119.62890625,-23.4375,-53.7109375,-195.3125
33.203125,92.7734375,-37.59765625,98.14453125
47.36328125,32.71484375,-34.1796875,113.28125
-15.625,-78.61328125,-36.1328125,19.53125
-166.015625,-242.1875,-54.6875,-280.2734375
-139.16015625,-57.12890625,-58.10546875,-214.84375
14.16015625,88.37890625,-42.96875,97.16796875
33.69140625,17.578125,-42.48046875,114.74609375
-19.04296875,-70.80078125,-43.9453125,49.8046875
-167.96875,-230.46875,-58.10546875,-235.83984375
-169.921875,-82.51953125,-67.3828125,-262.6953125
2.44140625,98.14453125,-52.734375,61.03515625
42.48046875,26.85546875,-42.96875,110.83984375
2.44140625,-50.29296875,-39.55078125,64.453125
-136.23046875,-196.77734375,-56.640625,-199.70703125
-182.12890625,-123.53515625,-68.359375,-285.15625
-3.41796875,83.984375,-49.8046875,48.33984375
45.41015625,45.8984375,-48.33984375,115.234375
7.8125,-36.62109375,-49.8046875,68.359375
-117.1875,-182.12890625,-56.640625,-172.36328125
-191.89453125,-135.7421875,-69.82421875,-326.66015625
-24.90234375,78.61328125,-54.6875,-1.953125
55.6640625,55.6640625,-46.875,119.140625
28.80859375,-5.859375,-49.8046875,88.37890625
-89.35546875,-170.8984375,-58.59375,-130.37109375
-187.5,-158.69140625,-68.359375,-348.6328125
-19.04296875,103.02734375,-52.734375,-41.9921875
68.84765625,67.3828125,-45.41015625,119.140625
26.85546875,-18.06640625,-45.41015625,88.8671875
-78.61328125,-153.80859375,-49.31640625,-91.30859375
-199.70703125,-205.078125,-60.546875,-338.37890625
-67.3828125,58.59375,-53.22265625,-79.58984375
42.48046875,79.58984375,-43.9453125,116.2109375
23.4375,-17.08984375,-49.8046875,97.16796875
-65.91796875,-144.53125,-62.98828125,-60.546875
-206.54296875,-215.8203125,-79.1015625,-350.5859375
-92.7734375,32.71484375,-67.87109375,-134.27734375
48.828125,107.91015625,-47.8515625,119.62890625
25.390625,27.34375,-45.41015625,112.3046875
-56.15234375,-126.953125,-46.38671875,-24.90234375
-200.68359375,-242.67578125,-66.89453125,-324.21875
-119.140625,-11.71875,-59.5703125,-161.1328125
49.31640625,92.28515625,-39.55078125,119.62890625
45.41015625,22.4609375,-42.48046875,114.74609375
-31.25,-102.5390625,-50.78125,7.32421875
-189.94140625,-250.48828125,-72.265625,-297.8515625
-148.92578125,-34.1796875,-59.08203125,-213.37890625
26.3671875,117.1875,-33.69140625,89.35546875
31.73828125,27.83203125,-38.0859375,97.16796875
-30.2734375,-79.58984375,-40.52734375,17.08984375
-177.24609375,-226.07421875,-58.59375,-273.92578125
-164.55078125,-83.49609375,-62.5,-250.9765625
10.7421875,83.984375,-38.0859375,66.40625
37.59765625,41.50390625,-37.59765625,97.16796875
-7.8125,-52.24609375,-45.8984375,40.52734375
-148.4375,-230.95703125,-54.19921875,-234.375
-181.15234375,-113.76953125,-62.5,-287.109375
-2.9296875,90.8203125,-47.36328125,47.36328125
38.57421875,37.109375,-37.109375,116.69921875
1.953125,-38.0859375,-46.875,74.21875
-119.62890625,-206.54296875,-64.94140625,-177.24609375
-181.15234375,-128.41796875,-70.3125,-296.875
0.0,113.28125,-51.26953125,40.0390625
71.77734375,56.15234375,-41.9921875,142.578125
27.83203125,-41.50390625,-42.96875,96.19140625
-104.00390625,-196.2890625,-59.5703125,-143.5546875
-190.4296875,-157.71484375,-77.63671875,-335.44921875
-16.11328125,95.21484375,-61.5234375,-7.8125
71.2890625,67.3828125,-46.38671875,131.8359375
35.15625,-12.20703125,-44.43359375,96.6796875
-64.94140625,-155.2734375,-56.15234375,-95.21484375
-181.15234375,-177.24609375,-66.89453125,-322.265625
-40.0390625,72.75390625,-56.15234375,-38.57421875
65.91796875,76.171875,-42.96875,126.953125
36.62109375,14.6484375,-33.203125,96.6796875
-62.01171875,-145.99609375,-36.62109375,-67.3828125
-190.4296875,-234.86328125,-50.78125,-334.9609375
-67.3828125,37.109375,-44.43359375,-95.703125
55.6640625,84.47265625,-34.66796875,129.39453125
37.109375,12.6953125,-34.66796875,113.76953125
-47.8515625,-120.60546875,-43.9453125,-28.80859375
-196.77734375,-241.2109375,-64.453125,-315.91796875
-114.74609375,-1.46484375,-59.08203125,-137.20703125
47.36328125,98.14453125,-38.57421875,118.65234375
47.8515625,23.92578125,-33.69140625,113.76953125
-32.71484375,-101.07421875,-47.8515625,2.44140625
-183.10546875,-229.98046875,-61.5234375,-297.8515625
-128.41796875,-41.015625,-53.22265625,-192.87109375
38.0859375,67.87109375,-41.9921875,100.5859375
42.48046875,12.20703125,-45.8984375,110.83984375
-32.71484375,-94.7265625,-50.29296875,0.0
-179.6875,-220.21484375,-60.05859375,-289.0625
-143.06640625,-48.33984375,-62.01171875,-222.16796875
23.4375,77.1484375,-46.38671875,77.63671875
40.0390625,21.484375,-34.66796875,109.375
-13.671875,-70.3125,-39.55078125,39.0625
-154.78515625,-229.00390625,-62.98828125,-242.67578125
-157.2265625,-79.1015625,-63.4765625,-259.765625
16.6015625,111.328125,-43.9453125,61.5234375
58.10546875,30.2734375,-35.64453125,117.67578125
11.23046875,-66.89453125,-47.8515625,60.546875
-144.53125,-212.40234375,-72.75390625,-199.21875
-192.87109375,-118.65234375,-71.77734375,-289.55078125
-9.765625,98.6328125,-44.43359375,36.1328125
54.19921875,57.12890625,-36.62109375,118.1640625
14.16015625,-25.390625,-45.8984375,78.61328125
-118.1640625,-193.84765625,-59.5703125,-152.83203125
-192.87109375,-150.390625,-65.4296875,-311.5234375
-24.90234375,88.8671875,-45.41015625,16.6015625
61.03515625,63.4765625,-34.66796875,145.01953125
46.38671875,-1.46484375,-41.50390625,123.046875
-67.3828125,-183.59375,-43.45703125,-73.73046875
-188.4765625,-203.125,-41.015625,-301.26953125
-46.38671875,64.453125,-32.71484375,-18.06640625
59.08203125,55.17578125,-30.2734375,134.765625
34.1796875,-4.39453125,-30.2734375,108.88671875
-72.265625,-139.6484375,-41.015625,-75.68359375
-202.1484375,-203.125,-56.15234375,-340.8203125
-68.359375,48.828125,-41.9921875,-75.68359375
60.546875,76.171875,-31.73828125,133.7890625
36.1328125,-13.18359375,-28.3203125,104.4921875
-55.6640625,-129.39453125,-27.34375,-50.78125
-189.453125,-211.42578125,-48.33984375,-328.125
-90.8203125,7.8125,-46.38671875,-132.8125
46.875,68.359375,-31.73828125,104.4921875
38.0859375,2.9296875,-33.203125,100.09765625
-44.921875,-115.72265625,-45.41015625,-16.11328125
-194.3359375,-237.3046875,-73.73046875,-311.5234375
-121.09375,-15.625,-69.3359375,-177.734375
45.41015625,81.0546875,-48.828125,100.5859375
43.9453125,7.8125,-43.9453125,111.328125
-26.85546875,-92.28515625,-36.1328125,22.4609375
-177.734375,-233.3984375,-50.78125,-270.99609375
-145.99609375,-48.33984375,-49.31640625,-202.1484375
37.109375,98.14453125,-23.92578125,103.02734375
45.41015625,14.6484375,-28.3203125,124.51171875
-22.4609375,-104.4921875,-44.43359375,40.52734375
-175.29296875,-247.55859375,-47.36328125,-232.421875
-169.43359375,-83.49609375,-42.48046875,-225.5859375
23.4375,93.26171875,-35.64453125,80.078125
53.7109375,21.484375,-37.59765625,105.95703125
2.44140625,-55.17578125,-41.015625,50.29296875
-142.08984375,-222.16796875,-53.22265625,-207.51953125
-183.10546875,-114.2578125,-55.6640625,-282.71484375
9.765625,98.6328125,-35.15625,41.9921875
65.91796875,40.0390625,-29.296875,111.81640625
15.625,-29.78515625,-30.76171875,71.2890625
-112.3046875,-199.21875,-48.33984375,-175.78125
-184.5703125,-152.34375,-66.40625,-307.6171875
-14.16015625,84.47265625,-51.26953125,30.2734375
64.94140625,53.22265625,-34.66796875,132.32421875
34.66796875,-4.39453125,-30.76171875,92.28515625
-91.796875,-163.0859375,-43.9453125,-124.0234375
-192.87109375,-175.78125,-54.6875,-316.89453125
-42.48046875,79.58984375,-34.66796875,-6.34765625
59.08203125,76.171875,-25.87890625,141.6015625
42.96875,0.0,-29.78515625,123.046875
-76.66015625,-166.015625,-48.828125,-80.078125
-199.70703125,-189.94140625,-68.84765625,-333.49609375
-55.6640625,62.01171875,-43.9453125,-45.41015625
59.08203125,66.89453125,-24.90234375,136.71875
32.2265625,10.7421875,-26.3671875,112.3046875
-67.87109375,-142.08984375,-39.0625,-53.22265625
-201.171875,-236.328125,-54.6875,-321.2890625
-78.125,39.55078125,-45.41015625,-91.30859375
50.78125,108.88671875,-36.62109375,130.37109375
41.9921875,30.2734375,-39.0625,109.86328125
-38.0859375,-112.79296875,-46.875,-35.64453125
-198.2421875,-241.2109375,-55.6640625,-318.359375
-110.3515625,8.30078125,-44.43359375,-150.87890625
51.26953125,106.4453125,-35.15625,99.12109375
50.78125,13.18359375,-31.73828125,99.609375
-16.11328125,-112.79296875,-28.80859375,-3.41796875
-177.734375,-241.2109375,-53.7109375,-302.734375
-136.71875,-34.66796875,-60.546875,-201.66015625
39.0625,97.65625,-45.41015625,91.796875
42.96875,16.11328125,-42.96875,102.05078125
-15.13671875,-112.79296875,-41.9921875,23.4375
-169.43359375,-243.65234375,-55.17578125,-271.97265625
-150.87890625,-44.43359375,-55.6640625,-235.3515625
45.41015625,110.3515625,-29.78515625,90.33203125
67.3828125,35.15625,-30.76171875,113.76953125
6.34765625,-50.29296875,-38.57421875,43.9453125
-138.18359375,-221.19140625,-47.36328125,-231.93359375
-153.3203125,-101.5625,-51.7578125,-271.97265625
33.69140625,97.16796875,-37.109375,60.546875
77.1484375,40.52734375,-29.78515625,115.72265625
32.71484375,-43.9453125,-28.80859375,71.2890625
-118.1640625,-222.65625,-38.0859375,-174.31640625
-183.10546875,-134.765625,-51.7578125,-282.71484375
-0.48828125,97.16796875,-40.0390625,41.50390625
60.546875,63.96484375,-25.390625,126.953125
21.484375,-9.27734375,-33.69140625,86.42578125
-119.140625,-180.6640625,-52.734375,-147.4609375
-207.03125,-133.30078125,-61.03515625,-310.546875
-22.4609375,94.7265625,-46.38671875,13.18359375
65.4296875,64.94140625,-37.59765625,133.7890625
29.78515625,-2.44140625,-40.52734375,91.30859375
-99.12109375,-180.17578125,-45.41015625,-108.3984375
-212.890625,-194.3359375,-60.546875,-328.61328125
-55.17578125,57.6171875,-54.19921875,-47.36328125
63.4765625,70.3125,-38.57421875,116.2109375
44.921875,10.25390625,-35.64453125,94.23828125
-71.2890625,-141.6015625,-45.41015625,-69.3359375
-204.58984375,-208.49609375,-63.4765625,-337.40234375
-77.1484375,51.7578125,-52.734375,-95.21484375
53.22265625,98.14453125,-38.57421875,123.046875
38.57421875,15.625,-42.96875,102.5390625
-62.98828125,-140.13671875,-53.7109375,-52.24609375
-210.44921875,-232.91015625,-68.359375,-328.61328125
-107.91015625,23.92578125,-53.7109375,-126.46484375
44.921875,91.796875,-40.0390625,117.1875
36.1328125,17.578125,-46.38671875,103.515625
-51.26953125,-116.2109375,-53.22265625,-10.7421875
-204.58984375,-248.53515625,-63.96484375,-300.29296875
-131.34765625,-12.20703125,-54.6875,-166.9921875
31.25,110.3515625,-41.015625,94.7265625
37.59765625,40.0390625,-41.015625,81.54296875
-23.92578125,-75.1953125,-45.41015625,-4.8828125
-169.43359375,-246.09375,-68.359375,-269.53125
-131.8359375,-50.78125,-67.87109375,-190.91796875
26.85546875,94.7265625,-43.45703125,95.21484375
34.66796875,13.18359375,-34.1796875,92.28515625
-30.2734375,-83.0078125,-35.15625,-0.48828125
-181.640625,-248.046875,-52.734375,-276.85546875
-170.41015625,-104.98046875,-54.6875,-253.41796875
16.11328125,87.890625,-35.15625,77.1484375
33.203125,33.203125,-30.2734375,105.46875
-11.71875,-66.89453125,-27.83203125,66.40625
-145.01953125,-211.9140625,-44.921875,-182.6171875
-179.19921875,-112.79296875,-59.5703125,-260.25390625
6.8359375,63.4765625,-43.9453125,58.10546875
61.03515625,31.73828125,-39.55078125,119.62890625
26.3671875,-31.25,-43.45703125,80.078125
-119.62890625,-206.0546875,-47.36328125,-156.25
-195.3125,-150.390625,-55.6640625,-303.7109375
