TP9,AF7,AF8,TP10
-54.6875,-48.33984375,-52.24609375,-55.6640625
-62.98828125,-76.66015625,-57.6171875,-62.5
-53.22265625,-86.9140625,-48.33984375,-53.22265625
-45.8984375,-37.59765625,-40.0390625,-40.0390625
-41.015625,1.953125,-41.50390625,-36.1328125
-41.50390625,-3.41796875,-43.9453125,-43.45703125
-42.48046875,-83.49609375,-46.38671875,-49.31640625
-44.43359375,-93.26171875,-49.31640625,-50.78125
-53.7109375,-43.9453125,-54.19921875,-52.734375
-49.31640625,-26.3671875,-54.19921875,-52.24609375
-47.36328125,-34.1796875,-54.6875,-56.640625
-50.78125,-77.63671875,-54.6875,-61.5234375
-60.546875,-88.37890625,-52.734375,-54.6875
-61.5234375,-39.0625,-48.828125,-44.921875
-46.875,-10.7421875,-45.41015625,-41.9921875
-40.0390625,-27.83203125,-46.875,-43.9453125
-40.52734375,-51.7578125,-41.50390625,-45.8984375
-52.24609375,-59.08203125,-42.96875,-44.43359375
-60.05859375,-65.91796875,-48.33984375,-37.109375
-53.22265625,-55.17578125,-44.921875,-34.1796875
-49.31640625,-33.203125,-45.8984375,-40.0390625
-47.36328125,-57.6171875,-44.43359375,-44.43359375
-51.26953125,-79.1015625,-41.50390625,-52.24609375
-55.17578125,-65.4296875,-46.875,-57.12890625
-54.6875,-44.921875,-45.41015625,-52.734375
-47.8515625,-35.64453125,-40.0390625,-56.640625
-39.0625,-63.4765625,-45.8984375,-62.01171875
-43.45703125,-84.47265625,-55.17578125,-61.03515625
-47.8515625,-84.47265625,-51.26953125,-53.7109375
-41.015625,12.6953125,-47.8515625,-42.96875
-34.66796875,-2.9296875,-55.6640625,-46.38671875
-43.45703125,-104.00390625,-57.6171875,-53.7109375
-51.26953125,-101.5625,-55.6640625,-54.19921875
-51.26953125,-66.40625,-56.640625,-54.6875
-51.26953125,-10.25390625,-54.19921875,-49.8046875
-41.9921875,-13.671875,-50.29296875,-44.921875
-33.203125,-77.1484375,-49.31640625,-47.36328125
-34.1796875,-91.30859375,-48.828125,-54.19921875
-43.9453125,-45.8984375,-55.17578125,-55.17578125
-47.8515625,-33.203125,-56.15234375,-49.31640625
-49.8046875,-41.9921875,-48.828125,-44.921875
-44.921875,-2.9296875,-47.8515625,-40.52734375
-48.33984375,-82.51953125,-56.15234375,-43.9453125
-62.98828125,-130.37109375,-57.12890625,-47.36328125
-58.10546875,-23.4375,-48.33984375,-41.9921875
-53.22265625,-9.765625,-52.734375,-46.38671875
-65.4296875,-44.921875,-58.59375,-58.59375
-65.4296875,-73.2421875,-60.05859375,-65.91796875
-59.5703125,-90.33203125,-62.01171875,-67.3828125
-59.5703125,-54.19921875,-58.10546875,-60.546875
-56.15234375,-0.48828125,-49.31640625,-50.29296875
-53.7109375,-42.48046875,-45.8984375,-45.8984375
-54.19921875,-92.7734375,-48.828125,-48.828125
-56.15234375,-41.50390625,-52.734375,-54.19921875
-56.15234375,-36.62109375,-52.734375,-48.828125
-55.17578125,-68.84765625,-52.734375,-48.828125
-56.640625,-54.6875,-52.24609375,-53.22265625
-49.31640625,-67.3828125,-50.29296875,-51.7578125
-52.24609375,-104.00390625,-49.31640625,-55.17578125
-60.546875,-67.3828125,-53.22265625,-52.734375
-50.78125,-7.8125,-52.734375,-47.36328125
-41.9921875,-34.66796875,-47.8515625,-48.828125
-45.8984375,-77.63671875,-50.29296875,-51.7578125
-47.8515625,-71.2890625,-50.29296875,-47.36328125
-50.78125,-30.2734375,-47.36328125,-45.41015625
-49.8046875,33.203125,-47.8515625,-40.52734375
-43.9453125,-39.55078125,-45.41015625,-37.59765625
-46.875,-106.4453125,-43.45703125,-44.921875
-55.17578125,-58.10546875,-52.734375,-49.31640625
-61.03515625,-74.70703125,-62.01171875,-50.78125
-60.05859375,-34.66796875,-58.10546875,-50.29296875
-55.17578125,-14.6484375,-57.12890625,-51.26953125
-53.22265625,-71.2890625,-58.59375,-60.546875
-53.7109375,-89.35546875,-53.7109375,-61.5234375
-56.640625,-69.82421875,-48.33984375,-49.31640625
-60.05859375,-31.73828125,-56.640625,-47.36328125
-47.36328125,3.41796875,-59.08203125,-41.9921875
-46.875,-9.27734375,-50.29296875,-42.48046875
-67.3828125,-118.65234375,-46.875,-60.546875
-72.75390625,-123.046875,-47.8515625,-59.08203125
-67.3828125,-33.69140625,-49.8046875,-48.33984375
-53.22265625,-5.37109375,-45.41015625,-46.875
-57.12890625,-48.33984375,-45.41015625,-55.17578125
-64.94140625,-72.265625,-49.31640625,-57.12890625
-60.05859375,-78.61328125,-47.36328125,-45.8984375
-56.15234375,-44.921875,-43.9453125,-36.1328125
-42.96875,11.71875,-36.1328125,-30.76171875
-37.59765625,-36.62109375,-37.109375,-37.109375
-45.8984375,-79.1015625,-45.8984375,-49.31640625
-55.6640625,-33.69140625,-48.828125,-53.7109375
-63.96484375,-25.87890625,-49.8046875,-55.6640625
-60.546875,-41.9921875,-49.8046875,-54.19921875
-61.03515625,-49.8046875,-46.38671875,-55.17578125
-61.03515625,-63.4765625,-44.921875,-58.59375
-60.546875,-69.82421875,-46.38671875,-52.734375
-61.5234375,-27.83203125,-40.0390625,-48.828125
-51.26953125,-10.25390625,-35.15625,-44.921875
-45.41015625,-40.0390625,-35.64453125,-42.96875
-49.31640625,-67.3828125,-41.015625,-49.8046875
-61.5234375,-106.4453125,-48.828125,-58.10546875
-56.640625,-44.43359375,-50.78125,-55.6640625
-41.9921875,30.2734375,-45.8984375,-43.9453125
-46.38671875,-25.87890625,-40.0390625,-37.59765625
-48.33984375,-83.49609375,-41.9921875,-38.0859375
-47.8515625,-99.609375,-48.33984375,-41.50390625
-57.12890625,-53.22265625,-47.36328125,-44.921875
-53.22265625,-9.765625,-42.48046875,-46.38671875
-40.52734375,-40.0390625,-41.015625,-45.8984375
-45.8984375,-61.5234375,-42.96875,-54.19921875
-50.78125,-64.453125,-43.9453125,-54.19921875
-52.734375,-59.08203125,-45.8984375,-49.8046875
-58.59375,-25.390625,-48.828125,-52.24609375
-52.734375,-3.41796875,-42.96875,-48.33984375
-48.33984375,-9.765625,-40.52734375,-46.875
-49.8046875,-70.80078125,-40.52734375,-47.8515625
-53.22265625,-120.60546875,-41.9921875,-40.0390625
-54.6875,-37.59765625,-43.9453125,-33.69140625
-50.29296875,-8.30078125,-40.0390625,-41.015625
-62.5,-55.6640625,-37.109375,-47.8515625
-64.453125,-76.66015625,-39.55078125,-52.24609375
-61.5234375,-69.3359375,-43.9453125,-49.31640625
-75.68359375,-36.62109375,-47.36328125,-47.8515625
-66.40625,-10.25390625,-46.38671875,-50.29296875
-57.12890625,-33.69140625,-49.31640625,-57.12890625
-60.546875,-65.4296875,-56.640625,-66.89453125
-64.453125,-25.390625,-59.08203125,-67.3828125
-69.3359375,-53.7109375,-58.10546875,-59.5703125
-55.6640625,-26.85546875,-53.7109375,-51.7578125
-46.875,-19.53125,-50.29296875,-51.26953125
-42.48046875,-117.67578125,-46.38671875,-52.734375
-44.43359375,-93.26171875,-48.33984375,-52.734375
-53.7109375,-41.9921875,-52.24609375,-51.26953125
-49.8046875,-10.25390625,-48.828125,-49.8046875
-47.36328125,-45.8984375,-48.33984375,-56.15234375
-50.29296875,-78.61328125,-48.33984375,-56.15234375
-56.15234375,-84.47265625,-43.9453125,-50.78125
-62.5,-29.78515625,-45.8984375,-53.22265625
-54.19921875,18.06640625,-49.31640625,-52.734375
-46.875,-52.734375,-49.31640625,-50.78125
-46.875,-96.6796875,-56.15234375,-61.03515625
-36.62109375,-67.87109375,-56.15234375,-53.7109375
-41.9921875,-50.29296875,-48.33984375,-39.0625
-47.8515625,5.859375,-41.9921875,-41.50390625
-41.015625,-9.27734375,-43.9453125,-48.33984375
-43.45703125,-95.21484375,-48.33984375,-51.26953125
-56.15234375,-84.9609375,-48.33984375,-45.8984375
-56.15234375,-47.8515625,-49.8046875,-46.38671875
-54.6875,-21.97265625,-50.29296875,-48.828125
-58.10546875,-15.625,-48.828125,-54.6875
-56.640625,-10.25390625,-52.24609375,-57.6171875
-62.5,-100.09765625,-56.15234375,-57.6171875
-70.80078125,-119.140625,-54.6875,-58.59375
-73.2421875,-34.1796875,-52.734375,-58.10546875
-62.98828125,-45.8984375,-55.6640625,-57.12890625
-54.6875,-69.3359375,-55.6640625,-58.10546875
-58.59375,-61.5234375,-55.17578125,-55.6640625
-59.08203125,-61.03515625,-53.7109375,-50.78125
-58.59375,-9.765625,-52.734375,-49.31640625
-53.22265625,13.18359375,-47.36328125,-45.8984375
-53.22265625,-83.0078125,-46.38671875,-52.734375
-56.640625,-83.0078125,-54.19921875,-59.5703125
-56.640625,-21.97265625,-53.22265625,-55.6640625
-62.98828125,-39.0625,-52.24609375,-58.59375
-51.26953125,-39.55078125,-52.734375,-61.5234375
-39.0625,-39.0625,-47.36328125,-61.03515625
-40.52734375,-58.59375,-43.9453125,-61.03515625
-46.38671875,-73.73046875,-43.9453125,-54.19921875
-49.31640625,-13.671875,-43.9453125,-48.33984375
-40.52734375,23.92578125,-43.45703125,-45.8984375
-43.45703125,-49.8046875,-50.29296875,-53.7109375
-53.7109375,-76.66015625,-59.08203125,-66.40625
-56.15234375,-74.70703125,-53.7109375,-57.12890625
-55.17578125,-12.6953125,-47.8515625,-43.45703125
-49.31640625,47.8515625,-50.78125,-49.31640625
-45.41015625,-43.45703125,-46.875,-54.19921875
-44.921875,-134.765625,-46.38671875,-47.8515625
-46.875,-95.21484375,-48.33984375,-44.43359375
-53.22265625,-33.203125,-53.22265625,-46.38671875
-46.875,-22.4609375,-52.24609375,-45.8984375
-35.15625,-38.0859375,-43.9453125,-43.9453125
-38.0859375,-68.359375,-44.43359375,-45.8984375
-48.33984375,-76.171875,-47.8515625,-49.8046875
-52.734375,-54.19921875,-51.7578125,-46.875
-47.36328125,-4.8828125,-45.8984375,-38.0859375
-44.43359375,-7.32421875,-40.52734375,-38.57421875
-45.8984375,-38.0859375,-47.36328125,-41.015625
-56.15234375,-107.91015625,-49.31640625,-41.015625
-63.96484375,-89.35546875,-48.828125,-43.45703125
-61.03515625,-6.34765625,-48.33984375,-42.48046875
-57.6171875,-66.40625,-50.29296875,-46.38671875
-54.6875,-78.61328125,-50.78125,-51.7578125
-61.5234375,-65.4296875,-47.8515625,-52.24609375
-57.6171875,-67.3828125,-49.31640625,-43.45703125
-55.6640625,-18.06640625,-51.26953125,-38.0859375
-55.17578125,-11.23046875,-48.33984375,-39.55078125
-54.19921875,-79.1015625,-51.7578125,-50.29296875
-55.6640625,-97.16796875,-53.7109375,-52.734375
-48.828125,-37.59765625,-44.921875,-40.0390625
-42.48046875,-20.01953125,-40.0390625,-38.0859375
-38.57421875,-41.015625,-36.1328125,-37.109375
-43.45703125,-68.359375,-44.43359375,-46.38671875
-45.8984375,-87.40234375,-49.8046875,-52.24609375
-46.38671875,-63.96484375,-43.45703125,-45.41015625
-47.8515625,8.7890625,-44.921875,-42.48046875
-44.921875,-37.109375,-45.8984375,-43.45703125
-49.8046875,-80.078125,-43.45703125,-45.8984375
-50.78125,-60.546875,-45.8984375,-46.875
-42.48046875,-66.89453125,-42.96875,-45.8984375
-43.45703125,12.20703125,-41.50390625,-38.57421875
-39.0625,44.43359375,-45.41015625,-34.1796875
-35.64453125,-53.7109375,-43.45703125,-38.0859375
-50.29296875,-112.79296875,-47.8515625,-43.45703125
-65.4296875,-91.30859375,-52.734375,-45.41015625
-57.6171875,-22.4609375,-47.36328125,-39.0625
-39.0625,4.39453125,-37.59765625,-31.25
-44.921875,-23.92578125,-35.64453125,-39.55078125
-43.9453125,-86.9140625,-39.55078125,-39.0625
-25.87890625,-77.1484375,-44.43359375,-14.16015625
-57.6171875,-25.390625,-47.8515625,-41.015625
-82.51953125,-35.15625,-50.78125,-77.63671875
-69.82421875,-24.4140625,-53.7109375,-71.2890625
-69.3359375,-27.34375,-55.17578125,-78.61328125
-78.61328125,-76.171875,-56.15234375,-87.40234375
-91.30859375,-52.24609375,-59.5703125,-95.21484375
-92.7734375,17.578125,-62.01171875,-100.5859375
-89.84375,-17.08984375,-62.01171875,-100.5859375
-89.84375,-50.29296875,-62.01171875,-105.95703125
-100.09765625,-43.9453125,-60.05859375,-118.65234375
-101.5625,-8.7890625,-62.01171875,-117.67578125
-92.7734375,16.11328125,-61.03515625,-104.98046875
-91.796875,-13.18359375,-57.12890625,-103.515625
-85.9375,-35.64453125,-56.640625,-101.5625
-83.984375,-55.6640625,-57.6171875,-91.796875
-81.54296875,-12.20703125,-55.6640625,-82.03125
-76.171875,14.6484375,-59.5703125,-79.1015625
-72.75390625,-52.734375,-61.5234375,-80.56640625
-62.5,-79.1015625,-60.05859375,-73.73046875
-59.08203125,-71.2890625,-61.5234375,-72.265625
-54.19921875,-35.15625,-56.15234375,-59.5703125
-49.8046875,-3.41796875,-50.78125,-49.8046875
-46.875,-13.18359375,-55.17578125,-57.12890625
-36.62109375,-38.57421875,-57.12890625,-57.6171875
-37.109375,-62.01171875,-53.22265625,-59.08203125
-49.31640625,-77.63671875,-54.19921875,-59.08203125
-55.17578125,-16.6015625,-51.7578125,-56.640625
-44.43359375,57.12890625,-50.29296875,-53.7109375
-42.96875,-52.734375,-55.17578125,-56.640625
-57.6171875,-130.859375,-55.17578125,-60.546875
-61.5234375,-57.12890625,-50.78125,-52.734375
-55.17578125,-53.22265625,-45.8984375,-45.41015625
-45.41015625,-23.92578125,-46.38671875,-44.43359375
-45.41015625,-21.97265625,-52.734375,-50.29296875
-48.828125,-71.2890625,-54.6875,-52.734375
-51.7578125,-53.7109375,-50.29296875,-48.33984375
-53.7109375,-1.953125,-52.734375,-52.734375
-48.828125,-16.6015625,-58.10546875,-53.7109375
-52.734375,-48.33984375,-55.17578125,-49.8046875
-56.15234375,-35.15625,-52.734375,-50.78125
-58.59375,-67.87109375,-54.19921875,-47.8515625
-60.05859375,-77.63671875,-55.6640625,-44.43359375
-48.828125,-30.2734375,-58.59375,-47.8515625
-40.0390625,-39.55078125,-54.6875,-52.734375
-42.48046875,-61.03515625,-59.5703125,-57.6171875
-52.734375,-69.3359375,-64.94140625,-58.10546875
-63.96484375,-56.15234375,-58.59375,-58.59375
-66.89453125,-7.32421875,-54.19921875,-56.640625
-60.05859375,-26.85546875,-53.7109375,-58.10546875
-51.7578125,-88.8671875,-52.734375,-62.5
-56.15234375,-72.75390625,-54.19921875,-62.98828125
-55.6640625,-13.671875,-54.19921875,-56.640625
-52.24609375,-26.85546875,-54.19921875,-54.6875
-49.8046875,-53.22265625,-51.7578125,-55.6640625
-46.38671875,-59.5703125,-50.29296875,-54.6875
-53.7109375,-88.37890625,-50.78125,-53.22265625
-55.6640625,-73.73046875,-49.31640625,-49.8046875
-50.29296875,-14.6484375,-50.29296875,-48.828125
-43.9453125,-31.73828125,-56.15234375,-49.31640625
-39.55078125,-81.0546875,-56.640625,-52.24609375
-39.0625,-83.49609375,-52.734375,-48.828125
-44.43359375,-95.21484375,-54.19921875,-46.38671875
-46.875,-13.671875,-49.31640625,-46.38671875
-35.15625,13.671875,-43.9453125,-42.96875
-34.66796875,-105.46875,-47.36328125,-49.8046875
-48.33984375,-110.83984375,-55.17578125,-53.7109375
-54.19921875,-68.359375,-53.22265625,-42.96875
-57.12890625,-23.4375,-51.26953125,-43.9453125
-55.6640625,-17.08984375,-55.17578125,-51.7578125
-49.8046875,-62.5,-55.17578125,-53.7109375
-49.31640625,-77.1484375,-54.6875,-54.6875
-47.36328125,-58.10546875,-55.6640625,-49.31640625
-42.96875,-12.20703125,-56.15234375,-47.36328125
-31.73828125,-0.9765625,-51.26953125,-45.41015625
-25.87890625,-36.1328125,-49.31640625,-43.9453125
-31.73828125,-20.01953125,-55.6640625,-47.36328125
-46.38671875,-44.921875,-55.17578125,-41.9921875
-50.78125,-81.0546875,-54.6875,-37.59765625
-37.109375,-53.7109375,-57.12890625,-38.57421875
-30.2734375,-26.85546875,-53.22265625,-36.62109375
-31.73828125,-56.15234375,-55.6640625,-38.57421875
-36.62109375,-89.84375,-58.59375,-35.64453125
-39.55078125,-22.94921875,-54.19921875,-28.3203125
-22.94921875,17.08984375,-49.8046875,-19.53125
-17.578125,-24.4140625,-48.828125,-20.5078125
-29.78515625,-85.9375,-49.31640625,-29.78515625
-46.38671875,-76.171875,-53.22265625,-29.296875
-55.6640625,-9.27734375,-52.734375,-27.83203125
-54.19921875,-37.59765625,-47.36328125,-34.66796875
-55.6640625,-62.01171875,-45.8984375,-41.015625
-56.640625,-63.4765625,-47.8515625,-44.921875
-64.94140625,-87.890625,-45.8984375,-48.828125
-66.89453125,-46.875,-42.96875,-47.36328125
-48.828125,-11.71875,-42.96875,-46.875
-39.55078125,-10.7421875,-45.8984375,-49.8046875
-45.8984375,-64.94140625,-48.828125,-58.59375
-54.6875,-107.421875,-55.6640625,-62.5
-58.10546875,-66.89453125,-59.08203125,-61.5234375
-59.08203125,-10.25390625,-55.17578125,-60.05859375
-46.38671875,0.48828125,-54.19921875,-53.7109375
-42.96875,-73.73046875,-52.24609375,-60.546875
-58.10546875,-105.46875,-46.38671875,-55.6640625
-57.6171875,-55.6640625,-40.0390625,-44.43359375
-52.24609375,-21.484375,-39.55078125,-45.41015625
-41.9921875,-12.6953125,-39.55078125,-45.8984375
-35.64453125,-23.4375,-36.62109375,-48.828125
-49.8046875,-86.9140625,-40.0390625,-51.26953125
-51.7578125,-88.37890625,-41.015625,-49.8046875
-46.875,-18.06640625,-39.0625,-45.41015625
-42.48046875,-6.34765625,-37.59765625,-42.48046875
-37.59765625,-53.7109375,-38.57421875,-50.78125
-44.921875,-38.57421875,-41.9921875,-59.08203125
-51.7578125,-62.5,-42.96875,-59.08203125
-51.7578125,-54.6875,-41.50390625,-55.6640625
-44.921875,-14.6484375,-39.0625,-55.17578125
-43.45703125,-62.01171875,-36.1328125,-61.03515625
-45.8984375,-94.23828125,-34.66796875,-63.4765625
-46.875,-58.10546875,-34.1796875,-64.453125
-46.38671875,-30.76171875,-34.1796875,-62.01171875
-43.9453125,-6.8359375,-41.015625,-59.08203125
-35.64453125,-8.7890625,-40.52734375,-59.08203125
-38.0859375,-102.5390625,-38.57421875,-60.05859375
-49.8046875,-83.0078125,-41.50390625,-53.22265625
-43.9453125,32.71484375,-37.59765625,-41.9921875
-41.50390625,-19.53125,-40.0390625,-44.43359375
-40.52734375,-65.4296875,-41.50390625,-49.31640625
-48.33984375,-63.4765625,-41.50390625,-48.828125
-62.5,-98.6328125,-46.875,-50.29296875
-56.640625,-48.828125,-46.38671875,-45.8984375
-47.36328125,0.48828125,-42.96875,-41.50390625
-42.96875,-18.06640625,-44.43359375,-44.921875
-41.015625,-46.38671875,-48.33984375,-47.8515625
-47.36328125,-76.171875,-46.875,-49.31640625
-56.640625,-72.265625,-48.828125,-48.33984375
-53.22265625,-4.8828125,-48.828125,-49.31640625
-50.78125,23.92578125,-42.48046875,-54.19921875
-57.12890625,-50.78125,-44.921875,-60.05859375
-62.5,-118.65234375,-47.36328125,-65.4296875
-60.546875,-62.5,-45.8984375,-64.94140625
-62.5,-24.4140625,-44.921875,-69.3359375
-64.453125,-33.69140625,-40.52734375,-73.2421875
-70.80078125,-48.828125,-41.50390625,-83.984375
-96.6796875,-74.70703125,-45.8984375,-94.7265625
-107.421875,-45.41015625,-43.45703125,-93.26171875
-108.3984375,-2.44140625,-40.52734375,-93.75
-112.3046875,-15.625,-41.9921875,-101.5625
-117.67578125,-19.53125,-41.9921875,-115.234375
-132.8125,-5.859375,-43.45703125,-127.44140625
-146.484375,-39.0625,-45.41015625,-130.37109375
-151.3671875,-19.04296875,-43.9453125,-130.859375
-144.53125,11.23046875,-42.96875,-144.04296875
-148.4375,-50.78125,-48.33984375,-165.52734375
-163.57421875,-54.19921875,-51.7578125,-182.12890625
-166.50390625,-22.94921875,-46.875,-177.24609375
-171.38671875,32.71484375,-42.48046875,-169.43359375
-170.41015625,35.15625,-38.0859375,-173.828125
-163.57421875,-26.85546875,-39.0625,-172.8515625
-160.15625,-44.921875,-39.55078125,-166.015625
-165.0390625,-17.08984375,-33.69140625,-159.66796875
-164.55078125,48.828125,-29.78515625,-154.296875
-159.1796875,6.8359375,-29.78515625,-153.80859375
-155.2734375,-66.89453125,-23.92578125,-151.85546875
-147.4609375,-65.91796875,-19.53125,-148.92578125
-152.34375,-61.5234375,-20.99609375,-143.5546875
-162.59765625,-16.6015625,-18.06640625,-141.6015625
-158.203125,15.13671875,-20.5078125,-144.53125
-151.85546875,-55.6640625,-25.87890625,-144.53125
-144.53125,-75.68359375,-30.76171875,-144.04296875
-135.25390625,-30.76171875,-34.1796875,-139.16015625
-133.30078125,-22.4609375,-34.66796875,-129.39453125
-118.1640625,21.484375,-34.1796875,-122.0703125
-111.328125,48.33984375,-33.203125,-118.65234375
-126.953125,-69.3359375,-33.203125,-126.46484375
-129.8828125,-101.5625,-26.3671875,-120.60546875
-128.90625,-25.87890625,-19.53125,-104.00390625
-118.1640625,17.08984375,-17.578125,-101.5625
-104.98046875,-4.8828125,-19.04296875,-107.91015625
-97.65625,-52.734375,-20.5078125,-108.3984375
-105.46875,-85.9375,-20.99609375,-104.4921875
-104.98046875,-43.45703125,-21.484375,-92.7734375
-86.42578125,25.87890625,-23.92578125,-83.49609375
-91.30859375,-39.0625,-29.78515625,-100.5859375
-100.5859375,-82.03125,-33.203125,-109.375
-104.98046875,-45.41015625,-34.66796875,-101.5625
-109.375,-65.4296875,-35.64453125,-95.703125
-105.46875,-61.03515625,-33.203125,-88.8671875
-88.37890625,-20.01953125,-35.64453125,-79.58984375
-84.47265625,-61.5234375,-40.0390625,-88.8671875
-88.37890625,-90.33203125,-39.55078125,-102.05078125
-82.51953125,-56.640625,-42.48046875,-101.07421875
-71.77734375,-9.27734375,-49.8046875,-94.23828125
-59.5703125,-0.9765625,-50.78125,-85.9375
-56.15234375,-50.29296875,-47.36328125,-84.47265625
-67.3828125,-73.73046875,-45.41015625,-88.37890625
-74.70703125,-57.12890625,-42.96875,-79.58984375
-70.80078125,30.76171875,-38.0859375,-68.359375
-67.3828125,15.13671875,-38.57421875,-73.2421875
-70.3125,-110.3515625,-45.41015625,-81.0546875
-72.75390625,-106.4453125,-45.41015625,-81.0546875
-75.1953125,-49.31640625,-43.45703125,-77.1484375
-73.2421875,-30.76171875,-46.875,-71.77734375
-64.94140625,2.44140625,-45.41015625,-66.89453125
-68.84765625,-26.3671875,-35.64453125,-67.87109375
-78.61328125,-108.88671875,-35.64453125,-69.3359375
-79.58984375,-83.49609375,-32.71484375,-62.01171875
-69.3359375,-18.5546875,-36.1328125,-53.7109375
-57.6171875,-5.859375,-44.43359375,-55.17578125
-55.17578125,7.8125,-40.52734375,-58.59375
-55.17578125,-62.01171875,-41.015625,-63.96484375
-58.10546875,-102.05078125,-47.36328125,-69.3359375
-66.89453125,-10.7421875,-45.41015625,-72.265625
-50.78125,-14.16015625,-41.015625,-70.3125
-41.015625,-52.24609375,-47.36328125,-71.77734375
-48.828125,-67.3828125,-48.828125,-76.66015625
-51.7578125,-61.5234375,-40.52734375,-69.82421875
-64.453125,-29.296875,-45.41015625,-66.40625
-74.70703125,-6.34765625,-48.828125,-66.40625
-71.77734375,-24.90234375,-41.015625,-69.3359375
-68.359375,-70.3125,-36.1328125,-68.359375
-73.2421875,-48.33984375,-34.66796875,-62.98828125
-73.73046875,-44.43359375,-34.66796875,-56.15234375
-79.1015625,-58.10546875,-35.64453125,-53.22265625
-83.0078125,-49.8046875,-31.73828125,-56.15234375
-75.1953125,-87.890625,-32.71484375,-57.6171875
-72.265625,-71.77734375,-42.96875,-57.12890625
-69.3359375,-31.73828125,-43.9453125,-54.19921875
-65.4296875,-28.3203125,-40.52734375,-59.5703125
-61.03515625,-40.0390625,-43.45703125,-71.77734375
-53.7109375,-52.734375,-48.33984375,-71.2890625
-61.03515625,-80.56640625,-49.31640625,-68.359375
-73.73046875,-58.59375,-48.33984375,-68.359375
-75.1953125,35.64453125,-43.45703125,-70.3125
-69.3359375,-20.99609375,-40.52734375,-64.94140625
-62.01171875,-73.73046875,-43.9453125,-65.91796875
-63.4765625,-89.84375,-41.015625,-69.3359375
-64.453125,-71.2890625,-40.52734375,-62.01171875
-59.08203125,-5.37109375,-39.55078125,-55.6640625
-55.6640625,-26.85546875,-39.0625,-53.7109375
-60.05859375,-77.63671875,-42.96875,-50.29296875
-55.17578125,-107.421875,-33.69140625,-41.9921875
-60.05859375,-76.66015625,-25.87890625,-42.96875
-64.453125,-48.33984375,-41.015625,-44.43359375
-52.24609375,-22.94921875,-50.78125,-46.875
-54.6875,-6.34765625,-47.36328125,-56.15234375
-62.01171875,-106.93359375,-48.828125,-62.01171875
-67.3828125,-120.1171875,-53.7109375,-64.453125
-61.03515625,-37.109375,-42.48046875,-53.7109375
-60.05859375,-19.04296875,-33.203125,-54.19921875
-55.6640625,-50.78125,-40.0390625,-53.7109375
-43.9453125,-82.51953125,-38.0859375,-42.96875
-64.453125,-79.58984375,-34.66796875,-54.19921875
-72.265625,-44.43359375,-34.1796875,-48.33984375
-58.10546875,-5.859375,-35.15625,-37.109375
-54.6875,-51.7578125,-34.66796875,-45.8984375
-55.17578125,-78.125,-39.0625,-46.875
-62.98828125,-51.7578125,-39.55078125,-47.8515625
-74.21875,-66.40625,-33.203125,-54.19921875
-63.96484375,-56.15234375,-38.57421875,-48.33984375
-59.5703125,-74.21875,-41.015625,-56.15234375
-65.4296875,-95.703125,-37.109375,-64.94140625
-67.3828125,-91.796875,-37.59765625,-55.17578125
-76.66015625,-60.546875,-37.109375,-56.15234375
-77.63671875,-4.39453125,-37.109375,-58.59375
-68.359375,-41.50390625,-34.66796875,-55.17578125
-62.01171875,-83.49609375,-33.203125,-50.78125
-65.91796875,-97.16796875,-34.66796875,-47.36328125
-64.453125,-84.47265625,-36.1328125,-42.96875
-49.8046875,-9.27734375,-30.2734375,-41.50390625
-45.8984375,-72.265625,-33.203125,-46.38671875
-38.57421875,-106.4453125,-38.0859375,-43.45703125
-43.9453125,-88.8671875,-39.55078125,-42.96875
-49.31640625,-103.02734375,-41.015625,-38.0859375
-40.52734375,-56.640625,-34.1796875,-29.296875
-45.8984375,-52.734375,-33.203125,-32.2265625
-45.8984375,-89.35546875,-28.80859375,-33.69140625
-48.33984375,-113.76953125,-24.90234375,-32.71484375
-46.38671875,-115.234375,-26.85546875,-20.99609375
-42.48046875,-61.03515625,-32.2265625,-8.7890625
-34.1796875,-38.0859375,-36.62109375,-10.25390625
-11.23046875,-59.5703125,-27.34375,0.0
1.46484375,-131.34765625,-21.484375,15.13671875
-9.27734375,-139.16015625,-25.87890625,20.5078125
-5.859375,-64.94140625,-37.59765625,29.296875
23.92578125,-42.96875,-34.66796875,42.96875
30.76171875,-83.49609375,-31.73828125,42.48046875
35.15625,-122.55859375,-43.45703125,48.828125
44.43359375,-163.57421875,-45.41015625,60.546875
55.6640625,-99.609375,-36.1328125,69.3359375
74.21875,-55.17578125,-41.015625,85.44921875
78.125,-109.86328125,-55.6640625,96.19140625
85.9375,-132.32421875,-55.17578125,106.4453125
86.42578125,-87.890625,-40.0390625,114.2578125
83.984375,-90.8203125,-34.1796875,123.046875
98.6328125,-130.859375,-34.66796875,135.7421875
97.65625,-117.67578125,-37.109375,130.859375
96.19140625,-114.2578125,-39.55078125,124.51171875
87.890625,-122.55859375,-45.8984375,125.9765625
73.73046875,-107.91015625,-49.31640625,127.9296875
79.1015625,-84.9609375,-41.015625,126.953125
84.47265625,-86.42578125,-40.0390625,112.3046875
77.63671875,-117.1875,-47.36328125,97.65625
62.5,-149.4140625,-55.17578125,92.7734375
51.26953125,-71.2890625,-60.05859375,88.37890625
55.17578125,-12.20703125,-60.05859375,84.9609375
53.22265625,-98.14453125,-54.6875,74.21875
47.36328125,-145.5078125,-59.08203125,58.10546875
42.96875,-128.41796875,-67.3828125,52.734375
34.66796875,-75.68359375,-64.94140625,40.52734375
31.25,-38.0859375,-60.546875,32.71484375
41.50390625,-46.875,-61.5234375,35.64453125
48.828125,-58.59375,-61.03515625,30.2734375
38.57421875,-98.14453125,-64.94140625,25.390625
31.25,-89.84375,-60.546875,31.25
23.4375,-35.15625,-50.29296875,30.76171875
27.83203125,-27.83203125,-55.17578125,27.83203125
31.73828125,-34.1796875,-57.12890625,26.3671875
15.625,-94.7265625,-66.89453125,20.99609375
0.9765625,-123.046875,-72.75390625,20.99609375
4.8828125,-30.76171875,-62.98828125,24.90234375
18.06640625,-34.1796875,-62.01171875,22.94921875
16.6015625,-75.1953125,-64.453125,14.6484375
9.27734375,-75.68359375,-62.5,9.765625
6.8359375,-55.6640625,-67.87109375,12.6953125
0.0,-38.0859375,-70.80078125,9.27734375
-3.41796875,-22.4609375,-62.5,-0.48828125
-4.8828125,-41.015625,-60.05859375,-8.30078125
-13.18359375,-88.8671875,-59.5703125,-12.6953125
-18.5546875,-44.921875,-61.03515625,-15.13671875
-23.4375,-51.7578125,-65.91796875,-15.13671875
-19.53125,-46.875,-62.01171875,-13.671875
-6.34765625,-20.5078125,-57.12890625,-8.30078125
-15.625,-100.5859375,-61.5234375,-10.25390625
-32.71484375,-76.171875,-64.453125,-16.11328125
-29.296875,-25.87890625,-55.17578125,-13.18359375
-20.01953125,-27.34375,-48.33984375,-13.18359375
-14.6484375,-44.43359375,-49.8046875,-16.6015625
-16.11328125,-71.77734375,-52.734375,-21.484375
-22.94921875,-97.65625,-53.22265625,-22.4609375
-25.390625,-16.6015625,-52.734375,-18.5546875
-20.5078125,45.41015625,-56.15234375,-19.53125
-23.92578125,-45.8984375,-56.640625,-23.4375
-25.87890625,-107.421875,-53.7109375,-24.90234375
-30.76171875,-97.16796875,-49.8046875,-31.25
-40.0390625,-42.96875,-46.875,-33.203125
-38.0859375,0.48828125,-49.8046875,-39.55078125
-33.69140625,-5.859375,-55.6640625,-43.9453125
-39.55078125,-78.61328125,-55.17578125,-43.45703125
-50.29296875,-105.46875,-53.7109375,-53.22265625
-47.8515625,-47.8515625,-51.7578125,-51.26953125
-43.45703125,-13.18359375,-52.734375,-51.26953125
-37.109375,-13.18359375,-54.6875,-53.22265625
-26.3671875,-17.08984375,-47.8515625,-46.875
-42.96875,-104.00390625,-49.8046875,-50.29296875
-58.10546875,-92.7734375,-58.59375,-49.31640625
-44.921875,-20.01953125,-51.26953125,-31.25
-23.4375,-19.53125,-43.9453125,-25.390625
-11.23046875,-52.24609375,-46.38671875,-23.92578125
-29.296875,-87.40234375,-51.7578125,-26.85546875
-37.109375,-69.3359375,-48.828125,-30.76171875
-26.3671875,4.39453125,-42.96875,-27.34375
-22.4609375,22.4609375,-48.828125,-33.69140625
-39.0625,-80.078125,-50.78125,-46.875
-54.19921875,-110.83984375,-43.9453125,-51.7578125
-46.875,-25.390625,-40.52734375,-44.43359375
-43.45703125,-24.4140625,-41.50390625,-42.96875
-32.2265625,-40.52734375,-38.57421875,-40.0390625
-33.69140625,-61.03515625,-35.64453125,-44.43359375
-43.45703125,-104.4921875,-38.57421875,-52.734375
-43.45703125,-58.59375,-45.8984375,-48.33984375
-39.0625,-14.16015625,-47.8515625,-39.0625
-31.25,-9.765625,-45.41015625,-38.57421875
-32.71484375,-35.15625,-46.38671875,-43.9453125
-29.78515625,-75.1953125,-45.8984375,-38.0859375
-30.76171875,-76.171875,-50.78125,-29.78515625
-41.50390625,-17.08984375,-55.17578125,-33.69140625
-36.62109375,27.34375,-48.33984375,-35.15625
-34.1796875,-13.18359375,-43.45703125,-41.015625
-38.0859375,-111.81640625,-47.8515625,-53.22265625
-39.55078125,-99.609375,-51.7578125,-52.734375
-45.8984375,-17.08984375,-48.33984375,-51.26953125
-42.96875,4.8828125,-45.41015625,-49.31640625
-28.80859375,-29.296875,-42.48046875,-48.33984375
-23.92578125,-73.73046875,-48.828125,-55.6640625
-33.203125,-84.9609375,-56.15234375,-55.6640625
-45.8984375,-49.8046875,-52.24609375,-50.78125
-46.875,-6.8359375,-46.38671875,-48.33984375
-44.43359375,-12.6953125,-44.43359375,-50.78125
-40.52734375,-17.578125,-44.43359375,-48.828125
-46.875,-107.421875,-45.8984375,-40.52734375
-55.17578125,-75.68359375,-51.26953125,-46.38671875
-44.921875,17.08984375,-52.24609375,-53.22265625
-30.76171875,-18.06640625,-49.31640625,-56.640625
-36.62109375,-74.70703125,-47.36328125,-55.17578125
-50.29296875,-109.375,-44.921875,-49.8046875
-46.875,-52.734375,-45.41015625,-46.38671875
-40.0390625,2.44140625,-46.38671875,-41.9921875
-35.15625,3.90625,-41.50390625,-38.57421875
-31.25,-57.12890625,-34.66796875,-42.48046875
-35.15625,-81.0546875,-35.64453125,-45.41015625
-41.015625,-9.765625,-39.0625,-38.57421875
-46.875,-21.97265625,-41.9921875,-41.9921875
-45.41015625,-50.29296875,-45.41015625,-49.8046875
-39.0625,-45.41015625,-40.52734375,-52.24609375
-44.43359375,-78.125,-40.52734375,-52.734375
-46.38671875,-60.546875,-43.9453125,-44.43359375
-37.109375,4.39453125,-41.50390625,-33.203125
-26.3671875,-17.08984375,-41.9921875,-34.66796875
-33.69140625,-56.640625,-42.96875,-55.6640625
-49.8046875,-76.66015625,-48.33984375,-72.75390625
-59.5703125,-76.171875,-50.29296875,-63.96484375
-58.10546875,2.9296875,-47.8515625,-58.10546875
-49.31640625,47.36328125,-46.38671875,-54.6875
-57.12890625,-59.5703125,-50.29296875,-56.15234375
-63.4765625,-109.86328125,-48.33984375,-58.10546875
-62.01171875,-67.3828125,-41.50390625,-50.78125
-62.5,-50.29296875,-43.45703125,-53.7109375
-46.38671875,-23.4375,-42.96875,-53.7109375
-38.57421875,-6.34765625,-44.921875,-51.26953125
-44.921875,-59.08203125,-47.8515625,-53.22265625
-53.7109375,-72.265625,-48.828125,-50.78125
-58.59375,3.41796875,-49.8046875,-50.29296875
-45.8984375,-25.390625,-45.8984375,-53.7109375
-38.0859375,-35.64453125,-43.9453125,-54.6875
-47.8515625,-41.9921875,-48.33984375,-53.22265625
-64.94140625,-110.83984375,-60.546875,-60.546875
-67.87109375,-65.91796875,-64.94140625,-65.4296875
-53.7109375,15.625,-46.38671875,-56.15234375
-48.828125,-0.48828125,-37.109375,-54.19921875
-51.26953125,-48.828125,-46.38671875,-55.6640625
-56.640625,-88.8671875,-52.734375,-53.22265625
-62.98828125,-46.875,-55.6640625,-49.8046875
-57.12890625,-9.27734375,-58.59375,-47.36328125
-42.48046875,-11.23046875,-53.7109375,-48.828125
-35.64453125,-66.89453125,-48.33984375,-48.33984375
-45.41015625,-86.9140625,-46.38671875,-44.43359375
-52.734375,-3.41796875,-49.31640625,-39.0625
-50.78125,-12.6953125,-56.640625,-44.921875
-54.19921875,-58.10546875,-52.24609375,-50.78125
-55.17578125,-84.9609375,-48.33984375,-47.36328125
-61.5234375,-99.609375,-53.7109375,-45.41015625
-67.3828125,-48.33984375,-54.6875,-46.875
-64.453125,4.39453125,-51.7578125,-49.8046875
-61.03515625,-2.9296875,-49.31640625,-54.6875
-55.17578125,-48.33984375,-47.8515625,-57.6171875
-60.546875,-93.75,-50.78125,-59.5703125
-69.82421875,-88.8671875,-52.24609375,-58.59375
-67.3828125,-9.765625,-53.22265625,-56.15234375
-50.29296875,51.7578125,-50.78125,-54.19921875
-45.8984375,-76.66015625,-51.7578125,-54.6875
-49.8046875,-116.2109375,-52.734375,-50.78125
-51.26953125,-43.9453125,-52.24609375,-41.015625
-47.8515625,-36.62109375,-50.78125,-36.62109375
-40.0390625,-26.3671875,-51.26953125,-41.50390625
-35.64453125,-62.01171875,-51.7578125,-43.9453125
-39.55078125,-87.40234375,-48.828125,-41.9921875
-52.734375,-71.2890625,-48.33984375,-45.41015625
-55.6640625,-24.90234375,-39.55078125,-41.50390625
-40.52734375,-21.97265625,-37.109375,-34.66796875
-38.57421875,-27.83203125,-40.52734375,-36.1328125
-52.734375,-47.36328125,-41.50390625,-40.0390625
-57.12890625,-109.86328125,-42.96875,-40.0390625
-58.10546875,-51.26953125,-42.96875,-36.1328125
-54.6875,1.953125,-41.50390625,-38.0859375
-49.8046875,-55.6640625,-40.52734375,-43.9453125
-53.22265625,-69.3359375,-45.41015625,-48.828125
-71.2890625,-65.91796875,-50.78125,-58.10546875
-64.453125,-60.05859375,-47.8515625,-43.45703125
-33.69140625,-19.04296875,-46.38671875,-25.87890625
-56.15234375,-30.76171875,-43.9453125,-63.96484375
-91.30859375,-68.359375,-42.96875,-102.05078125
-109.86328125,-61.5234375,-47.8515625,-111.81640625
-121.58203125,5.37109375,-53.7109375,-124.51171875
-120.60546875,15.625,-47.8515625,-132.32421875
-135.7421875,-49.31640625,-43.45703125,-158.69140625
-164.55078125,-59.08203125,-50.29296875,-194.82421875
-190.91796875,-52.24609375,-47.8515625,-212.40234375
-200.1953125,-27.83203125,-40.52734375,-208.0078125
-205.56640625,32.71484375,-40.52734375,-216.796875
-218.75,37.109375,-39.55078125,-243.1640625
-229.00390625,-23.4375,-32.2265625,-245.1171875
-238.76953125,-42.96875,-32.71484375,-241.69921875
-229.00390625,-32.71484375,-40.0390625,-237.79296875
-215.8203125,51.7578125,-41.9921875,-234.86328125
-206.0546875,76.171875,-42.48046875,-239.2578125
-186.5234375,-36.62109375,-46.38671875,-232.421875
-178.7109375,-50.78125,-44.921875,-215.33203125
-203.125,-3.90625,-45.8984375,-214.84375
-197.265625,47.36328125,-51.26953125,-208.984375
-171.38671875,39.0625,-50.29296875,-206.54296875
-157.2265625,-33.203125,-49.8046875,-196.2890625
-154.296875,-53.22265625,-55.6640625,-179.6875
-163.0859375,-26.85546875,-60.05859375,-175.78125
-172.8515625,30.76171875,-58.59375,-166.9921875
-150.87890625,27.34375,-55.17578125,-152.83203125
-130.859375,-48.33984375,-52.734375,-144.53125
-127.44140625,-47.8515625,-53.22265625,-133.30078125
-122.0703125,-47.36328125,-53.22265625,-120.60546875
-118.1640625,-44.921875,-56.640625,-112.3046875
-91.30859375,-20.5078125,-69.3359375,-93.75
-74.21875,-36.1328125,-62.98828125,-83.984375
-83.984375,-94.7265625,-55.6640625,-89.84375
-89.84375,-91.30859375,-63.96484375,-83.984375
-74.21875,-2.44140625,-63.4765625,-67.3828125
-52.734375,-4.8828125,-61.03515625,-54.6875
-37.59765625,-42.48046875,-60.05859375,-47.8515625
-32.71484375,-103.515625,-63.96484375,-50.78125
-34.66796875,-95.21484375,-62.98828125,-39.0625
-30.2734375,9.27734375,-62.98828125,-31.73828125
-20.01953125,-33.203125,-69.82421875,-38.0859375
-11.23046875,-78.125,-65.91796875,-30.76171875
-5.859375,-76.66015625,-66.40625,-26.85546875
-9.27734375,-111.328125,-70.3125,-23.4375
-11.23046875,-38.0859375,-61.03515625,-14.6484375
-6.34765625,-12.20703125,-56.15234375,-6.34765625
-3.41796875,-42.48046875,-56.640625,-1.46484375
-1.953125,-62.5,-56.15234375,0.0
-2.44140625,-86.42578125,-60.05859375,5.37109375
0.9765625,-61.03515625,-63.96484375,8.30078125
4.8828125,1.46484375,-60.546875,10.7421875
6.34765625,31.73828125,-51.26953125,10.25390625
1.46484375,-64.453125,-49.31640625,7.32421875
-10.25390625,-117.67578125,-51.26953125,8.7890625
-16.11328125,-54.6875,-52.734375,8.7890625
-11.71875,-19.53125,-56.15234375,5.37109375
0.0,-36.1328125,-50.29296875,0.9765625
5.859375,-41.50390625,-46.875,-6.34765625
-5.859375,-95.21484375,-52.24609375,-13.18359375
-8.7890625,-89.35546875,-51.7578125,-2.9296875
-3.90625,-8.30078125,-46.38671875,6.34765625
0.9765625,-20.99609375,-42.96875,2.9296875
7.8125,-55.6640625,-39.55078125,1.953125
3.41796875,-34.1796875,-41.50390625,1.953125
-0.48828125,-52.734375,-45.41015625,2.44140625
1.46484375,-25.390625,-49.31640625,1.46484375
11.23046875,4.39453125,-48.828125,0.48828125
7.8125,-44.921875,-45.41015625,-5.37109375
6.8359375,-94.7265625,-43.9453125,-11.71875
-0.9765625,-76.171875,-46.875,-13.671875
-16.6015625,-26.85546875,-54.19921875,-10.25390625
-5.37109375,-8.30078125,-54.6875,-13.671875
0.0,-23.92578125,-39.0625,-18.5546875
-4.8828125,-105.95703125,-36.62109375,-18.5546875
-25.87890625,-85.44921875,-54.6875,-20.5078125
-41.9921875,-6.34765625,-47.8515625,-22.4609375
-27.34375,-28.3203125,-42.48046875,-18.06640625
-20.5078125,-60.05859375,-59.5703125,-18.06640625
-33.69140625,-81.54296875,-54.19921875,-20.99609375
-43.45703125,-83.984375,-55.17578125,-20.5078125
-42.48046875,-43.45703125,-43.45703125,-19.53125
-19.04296875,-4.8828125,-28.80859375,-12.20703125
-3.90625,-41.9921875,-62.98828125,-8.30078125
-15.625,-104.98046875,-62.01171875,-15.13671875
-26.85546875,-88.8671875,-43.9453125,-12.6953125
-27.83203125,-35.64453125,-31.25,-9.27734375
-18.5546875,-11.71875,-29.296875,-15.625
-33.69140625,-1.953125,-50.29296875,-35.64453125
-60.05859375,-68.359375,-42.48046875,-56.640625
-72.75390625,-155.2734375,-45.8984375,-58.59375
-59.08203125,-83.0078125,-66.40625,-32.2265625
-37.109375,5.859375,-54.19921875,-23.4375
-48.828125,-39.0625,-45.8984375,-49.31640625
-56.640625,-83.984375,-47.36328125,-51.26953125
-50.29296875,-79.1015625,-52.734375,-39.55078125
-49.8046875,-43.45703125,-51.7578125,-34.1796875
-63.96484375,-21.97265625,-44.43359375,-48.828125
-52.734375,-49.8046875,-53.7109375,-49.8046875
-13.671875,-53.22265625,-56.640625,-29.78515625
-11.23046875,-81.54296875,-80.078125,-21.97265625
-6.8359375,-98.14453125,-48.828125,-2.44140625
5.37109375,-5.859375,-10.25390625,11.23046875
-12.20703125,-18.5546875,-76.171875,-8.7890625
-1.46484375,-100.5859375,-28.3203125,-6.34765625
3.41796875,-68.359375,6.34765625,7.32421875
-40.0390625,-63.4765625,-93.75,-15.625
-98.6328125,-65.4296875,-67.87109375,-68.84765625
-146.484375,-43.45703125,-17.08984375,-126.953125
-97.16796875,-85.44921875,-119.62890625,-87.890625
32.2265625,-55.6640625,-59.08203125,27.34375
-63.96484375,-81.54296875,25.87890625,-69.82421875
-104.98046875,-17.08984375,-41.9921875,-106.93359375
-46.875,25.87890625,-41.015625,-60.546875
-113.76953125,-93.26171875,-33.203125,-127.9296875
-112.3046875,-114.74609375,-39.0625,-125.48828125
-103.02734375,-108.88671875,-63.4765625,-122.55859375
-88.8671875,-11.71875,-70.3125,-107.421875
-58.59375,18.5546875,-65.4296875,-86.9140625
-53.7109375,-56.15234375,-60.546875,-93.26171875
-62.5,-67.87109375,-66.40625,-105.46875
-61.5234375,-68.359375,-68.359375,-101.07421875
-54.6875,-31.73828125,-83.49609375,-84.47265625
-31.73828125,2.44140625,-89.84375,-77.63671875
-9.27734375,13.18359375,-49.31640625,-76.171875
5.859375,-77.1484375,-88.8671875,-69.82421875
31.73828125,-117.67578125,-137.6953125,-30.76171875
57.6171875,-8.30078125,-18.06640625,15.625
89.84375,105.95703125,-89.84375,47.8515625
6.8359375,-20.01953125,-142.08984375,-39.0625
-174.31640625,-220.703125,15.625,-212.40234375
-210.9375,-121.09375,-4.39453125,-233.3984375
-164.0625,-18.5546875,-88.37890625,-183.59375
-156.25,25.87890625,-105.95703125,-175.29296875
-151.85546875,-40.52734375,-25.390625,-171.875
-124.51171875,-87.890625,-39.55078125,-159.1796875
-101.5625,-43.9453125,-65.91796875,-140.625
-88.8671875,-63.4765625,-53.22265625,-116.69921875
-68.359375,-37.109375,-71.77734375,-98.14453125
-63.96484375,-23.4375,-85.9375,-110.3515625
-92.28515625,-59.5703125,-86.9140625,-150.390625
-124.51171875,-72.265625,-89.35546875,-180.6640625
-120.1171875,-62.5,-63.96484375,-165.0390625
-97.16796875,-4.8828125,-101.5625,-133.30078125
-64.453125,-7.32421875,-108.3984375,-103.02734375
-62.01171875,-29.78515625,-54.19921875,-112.79296875
-72.265625,-66.40625,-51.7578125,-122.0703125
-41.50390625,-74.21875,-98.6328125,-88.8671875
37.109375,54.6875,-116.2109375,-11.71875
-10.7421875,44.43359375,7.32421875,-72.75390625
-166.50390625,-90.33203125,-19.04296875,-231.93359375
-132.32421875,-118.65234375,-167.96875,-196.77734375
-61.5234375,-49.31640625,-108.3984375,-125.0
-142.578125,-23.4375,-45.8984375,-202.1484375
-173.33984375,-40.52734375,-82.03125,-235.83984375
-51.7578125,-50.29296875,-137.6953125,-119.140625
31.25,-10.7421875,-72.75390625,-27.34375
-109.375,-64.94140625,2.9296875,-137.20703125
-190.4296875,-98.6328125,-98.6328125,-215.8203125
-59.5703125,59.08203125,-167.96875,-103.515625
-28.80859375,24.4140625,-13.671875,-81.0546875
-122.0703125,-116.69921875,11.71875,-171.38671875
-169.43359375,-97.16796875,-89.35546875,-200.1953125
-174.8046875,-12.20703125,-52.734375,-197.265625
-155.2734375,1.953125,-60.05859375,-190.4296875
-141.6015625,-36.1328125,-92.7734375,-188.4765625
-115.234375,-52.24609375,-80.078125,-165.0390625
-111.81640625,-47.36328125,-73.73046875,-149.90234375
-122.55859375,-35.64453125,-79.1015625,-151.85546875
-81.54296875,-24.90234375,-135.7421875,-125.0
-6.34765625,-1.953125,-153.80859375,-66.89453125
-29.78515625,-25.390625,-62.01171875,-92.28515625
-4.8828125,3.90625,9.27734375,-59.5703125
-36.1328125,6.8359375,-36.62109375,-80.56640625
-197.75390625,-102.5390625,-76.66015625,-229.98046875
-203.125,-83.0078125,-27.83203125,-223.14453125
-164.55078125,-43.9453125,-58.59375,-185.546875
-137.20703125,7.32421875,-83.0078125,-147.4609375
-129.39453125,6.8359375,-13.671875,-121.09375
-136.71875,-23.4375,-20.5078125,-127.9296875
-115.72265625,-33.69140625,-110.3515625,-122.55859375
-67.3828125,-15.13671875,-119.62890625,-90.8203125
-93.26171875,-22.4609375,-25.87890625,-107.91015625
-135.7421875,-29.296875,-0.48828125,-134.27734375
-116.2109375,23.92578125,-57.12890625,-115.234375
-119.62890625,-26.3671875,-69.3359375,-130.37109375
-148.4375,-100.09765625,-63.4765625,-158.203125
-137.6953125,-62.5,-89.84375,-137.6953125
-91.796875,-21.97265625,-151.85546875,-83.984375
-73.2421875,-27.34375,-111.328125,-64.94140625
-36.1328125,18.06640625,-45.41015625,-49.8046875
29.296875,76.66015625,-52.734375,0.48828125
-70.3125,-26.85546875,29.78515625,-91.30859375
-197.265625,-96.19140625,-23.92578125,-193.359375
-194.82421875,-61.03515625,-123.046875,-190.91796875
-145.5078125,-28.3203125,-120.60546875,-145.01953125
-129.39453125,-17.08984375,-104.98046875,-126.46484375
-116.2109375,-62.5,-97.16796875,-106.4453125
-77.1484375,-61.5234375,21.484375,-57.12890625
-87.40234375,23.4375,6.34765625,-56.15234375
-159.66796875,-1.953125,-95.21484375,-128.41796875
-176.26953125,-24.90234375,-119.140625,-162.109375
-158.203125,-57.12890625,-78.61328125,-149.4140625
-134.765625,-70.3125,-60.05859375,-121.58203125
-126.953125,-21.484375,-67.3828125,-115.234375
-151.3671875,-28.3203125,-93.75,-140.13671875
-123.046875,-41.9921875,-101.07421875,-111.328125
-113.28125,-75.1953125,-86.9140625,-113.28125
-123.53515625,-50.78125,-69.82421875,-119.62890625
-177.24609375,-8.7890625,-124.51171875,-164.0625
-197.265625,-65.91796875,-147.4609375,-188.4765625
-154.296875,-108.3984375,-83.0078125,-151.85546875
-155.76171875,-103.515625,-96.6796875,-149.90234375
-135.25390625,-52.734375,-121.58203125,-124.0234375
-130.37109375,-28.80859375,-121.09375,-114.2578125
-172.36328125,-56.15234375,-94.23828125,-163.0859375
-185.05859375,-79.58984375,-103.02734375,-175.29296875
-151.85546875,-82.51953125,-105.95703125,-144.04296875
-136.23046875,-72.75390625,-111.81640625,-138.18359375
-114.74609375,-29.78515625,-99.609375,-119.62890625
-122.0703125,-25.87890625,-111.328125,-114.2578125
-79.1015625,-73.73046875,-184.5703125,-61.5234375
-41.015625,-50.78125,-106.4453125,-23.4375
-121.58203125,-55.6640625,-24.90234375,-99.609375
-208.984375,-121.58203125,-99.12109375,-166.9921875
-221.6796875,-91.30859375,-107.91015625,-183.59375
-180.6640625,-44.43359375,-66.40625,-163.0859375
-153.80859375,-47.36328125,-64.94140625,-146.97265625
-124.0234375,-70.80078125,-81.54296875,-121.09375
-106.93359375,-62.98828125,-110.3515625,-102.05078125
-101.5625,-26.85546875,-80.078125,-91.796875
-103.02734375,-1.953125,-62.98828125,-104.98046875
-103.515625,-5.37109375,-67.87109375,-116.69921875
-91.30859375,-90.8203125,-50.78125,-85.9375
-80.56640625,-103.02734375,-80.56640625,-60.05859375
-108.88671875,-26.3671875,-103.515625,-92.28515625
-152.34375,-34.1796875,-90.8203125,-143.06640625
-150.87890625,-29.78515625,-64.94140625,-145.01953125
-125.0,-58.59375,-84.9609375,-121.09375
-104.98046875,-103.02734375,-93.75,-91.796875
-89.35546875,-26.85546875,-102.5390625,-57.6171875
-77.1484375,-1.46484375,-110.3515625,-55.17578125
-88.37890625,-44.43359375,-34.66796875,-85.44921875
-104.98046875,-52.24609375,-34.66796875,-101.07421875
-124.51171875,-65.91796875,-72.265625,-112.79296875
-111.81640625,-62.98828125,-106.4453125,-98.14453125
-76.171875,-23.4375,-83.984375,-70.3125
-79.1015625,-24.90234375,-110.3515625,-79.1015625
-41.015625,-38.0859375,-97.65625,-46.38671875
-10.7421875,-33.69140625,-42.48046875,-8.30078125
-76.171875,-21.484375,-71.77734375,-56.640625
-138.18359375,-50.78125,-24.4140625,-122.55859375
-156.25,-58.59375,-47.8515625,-151.3671875
-127.9296875,-71.77734375,-116.2109375,-131.8359375
-59.08203125,-73.73046875,-104.98046875,-53.7109375
-37.59765625,-27.83203125,-39.0625,-20.5078125
-42.48046875,39.55078125,-125.48828125,-25.87890625
0.48828125,24.90234375,-139.6484375,15.625
-7.8125,-51.7578125,6.34765625,-5.37109375
-124.51171875,-77.1484375,-9.27734375,-98.6328125
-105.46875,4.39453125,-64.94140625,-60.05859375
-97.16796875,-0.9765625,-65.4296875,-53.22265625
-180.6640625,-83.984375,-75.1953125,-142.08984375
-143.06640625,-60.05859375,-111.328125,-121.58203125
-89.84375,-54.19921875,-80.078125,-67.87109375
-83.984375,-36.1328125,-31.73828125,-58.10546875
-87.40234375,-14.6484375,-43.45703125,-65.4296875
-73.73046875,-6.34765625,-56.640625,-59.5703125
-62.5,-9.27734375,-60.05859375,-59.5703125
-62.01171875,-24.4140625,-55.17578125,-59.08203125
-55.17578125,-42.96875,-82.03125,-41.9921875
-34.66796875,-8.30078125,-123.046875,-20.01953125
-33.203125,-10.25390625,-103.02734375,-25.87890625
-53.7109375,-43.9453125,-24.4140625,-51.7578125
-56.15234375,-50.78125,-13.671875,-48.33984375
-51.26953125,-35.64453125,-65.91796875,-33.203125
-75.1953125,5.37109375,-47.8515625,-53.22265625
-86.42578125,-9.765625,-28.3203125,-66.89453125
-93.75,-43.45703125,-77.63671875,-80.078125
-92.28515625,-35.64453125,-92.28515625,-79.1015625
-78.125,-7.8125,-50.29296875,-59.5703125
-77.1484375,-25.87890625,-51.7578125,-55.6640625
-71.77734375,-20.5078125,-68.84765625,-58.10546875
-55.6640625,-17.08984375,-65.91796875,-47.36328125
-51.7578125,-59.08203125,-61.03515625,-42.96875
-55.6640625,-34.66796875,-121.58203125,-40.0390625
-44.921875,0.0,-96.6796875,-29.296875
-54.19921875,-30.76171875,-27.34375,-45.41015625
-57.6171875,-38.57421875,-52.734375,-54.6875
-52.734375,-18.5546875,-57.6171875,-53.22265625
-78.61328125,-73.2421875,-86.42578125,-68.84765625
-85.44921875,-20.01953125,-70.80078125,-61.5234375
-78.125,37.59765625,-45.41015625,-64.94140625
-74.70703125,-35.64453125,-61.03515625,-69.82421875
-78.125,-75.68359375,-83.984375,-64.453125
-80.078125,-45.41015625,-78.125,-62.5
-80.078125,-23.4375,-60.05859375,-61.03515625
-73.2421875,0.48828125,-83.984375,-54.19921875
-56.15234375,6.8359375,-87.890625,-40.52734375
-47.36328125,-59.08203125,-67.87109375,-32.71484375
-57.6171875,-87.890625,-63.96484375,-42.48046875
-71.77734375,-33.203125,-50.29296875,-52.24609375
-67.3828125,-2.44140625,-34.1796875,-45.8984375
-72.75390625,-22.4609375,-38.57421875,-56.640625
-76.66015625,-11.71875,-55.17578125,-70.80078125
-72.265625,-39.55078125,-57.6171875,-62.01171875
-78.125,-73.2421875,-62.98828125,-51.7578125
-71.2890625,-15.625,-63.4765625,-49.31640625
-57.6171875,-9.27734375,-66.89453125,-48.33984375
-51.26953125,-38.57421875,-63.4765625,-46.38671875
-59.5703125,-66.40625,-57.6171875,-50.78125
-62.98828125,-47.8515625,-65.91796875,-47.36328125
-55.6640625,6.34765625,-61.03515625,-38.0859375
-55.17578125,-5.859375,-57.6171875,-43.9453125
-54.6875,-60.546875,-51.7578125,-52.734375
-57.12890625,-55.6640625,-45.41015625,-56.15234375
-67.3828125,-38.0859375,-55.6640625,-52.734375
-78.125,-63.4765625,-62.5,-53.22265625
-74.70703125,-60.546875,-54.19921875,-56.640625
-65.91796875,-57.6171875,-47.36328125,-56.15234375
-68.359375,-96.6796875,-47.8515625,-55.17578125
-69.3359375,-80.56640625,-45.8984375,-53.7109375
-64.453125,-33.69140625,-41.50390625,-54.19921875
-62.98828125,-28.80859375,-44.921875,-52.734375
-61.5234375,-42.48046875,-44.921875,-52.24609375
-62.01171875,-52.24609375,-40.52734375,-54.19921875
-61.03515625,-37.109375,-38.0859375,-57.12890625
-63.4765625,-19.04296875,-32.2265625,-59.08203125
-59.5703125,43.9453125,-34.66796875,-65.91796875
-51.7578125,20.99609375,-32.2265625,-61.03515625
-53.7109375,-90.33203125,-20.99609375,-57.12890625
-56.640625,-73.73046875,-13.18359375,-60.05859375
-59.5703125,4.39453125,-19.53125,-62.98828125
-51.26953125,36.1328125,-16.6015625,-65.4296875
-42.96875,-7.32421875,-9.27734375,-66.89453125
-43.9453125,-41.9921875,-14.16015625,-71.77734375
-43.9453125,-45.41015625,-11.71875,-71.2890625
-44.921875,0.0,-12.20703125,-66.40625
-41.50390625,56.15234375,-21.97265625,-64.453125
-40.0390625,23.92578125,-14.6484375,-68.359375
-36.1328125,16.11328125,-7.8125,-69.3359375
-35.64453125,-9.27734375,-14.6484375,-62.5
-38.57421875,-31.25,-14.6484375,-49.8046875
-26.85546875,29.78515625,-11.23046875,-43.45703125
-20.5078125,4.39453125,-10.25390625,-46.38671875
-23.4375,-20.01953125,-15.625,-48.828125
-29.78515625,-22.94921875,-25.87890625,-55.6640625
-29.78515625,-7.8125,-34.66796875,-55.6640625
-17.578125,28.3203125,-38.57421875,-41.9921875
-14.6484375,28.3203125,-31.73828125,-38.0859375
-14.16015625,-25.390625,-27.34375,-48.33984375
-12.20703125,-33.69140625,-24.90234375,-47.8515625
-11.23046875,-0.9765625,-21.484375,-33.203125
-13.671875,8.30078125,-23.4375,-27.34375
-9.27734375,-6.8359375,-22.94921875,-29.78515625
-2.44140625,-46.38671875,-20.01953125,-33.69140625
-2.9296875,-54.6875,-19.04296875,-30.2734375
-17.578125,-30.2734375,-35.64453125,-28.80859375
-28.3203125,22.94921875,-34.1796875,-22.94921875
-27.83203125,7.8125,-19.04296875,-24.4140625
-23.4375,-17.08984375,-22.4609375,-31.73828125
-22.94921875,-35.64453125,-29.78515625,-26.85546875
-26.3671875,-49.8046875,-32.2265625,-19.53125
-27.34375,25.390625,-16.11328125,-22.94921875
-15.625,56.15234375,-2.9296875,-22.94921875
-3.41796875,-34.66796875,-12.6953125,-22.94921875
-9.765625,-85.9375,-17.578125,-25.87890625
-21.484375,-59.5703125,-20.5078125,-17.08984375
-17.08984375,-19.53125,-23.92578125,-8.7890625
-2.9296875,14.16015625,-22.4609375,-11.71875
-2.44140625,-9.765625,-22.4609375,-15.625
-1.953125,-67.3828125,-24.90234375,-14.6484375
-5.859375,-37.109375,-29.78515625,-15.13671875
-17.08984375,31.25,-33.203125,-10.7421875
-11.23046875,9.765625,-26.3671875,-9.27734375
-9.27734375,-35.64453125,-20.99609375,-22.94921875
-8.7890625,-11.23046875,-29.78515625,-30.2734375
-17.578125,-53.22265625,-29.296875,-24.4140625
-25.87890625,-71.77734375,-30.2734375,-19.04296875
-11.23046875,0.9765625,-20.01953125,-14.6484375
-8.30078125,-5.859375,-19.04296875,-20.5078125
-6.34765625,-52.734375,-28.80859375,-29.296875
-4.8828125,-38.57421875,-28.3203125,-28.80859375
-9.27734375,12.20703125,-25.87890625,-23.92578125
-3.90625,8.7890625,-29.296875,-16.11328125
-3.41796875,-24.90234375,-31.73828125,-19.04296875
-8.7890625,-79.1015625,-34.1796875,-32.2265625
-12.6953125,-62.5,-28.80859375,-33.203125
-17.08984375,6.34765625,-20.01953125,-31.25
-16.11328125,10.7421875,-19.04296875,-32.2265625
-15.13671875,-66.40625,-21.484375,-33.69140625
-10.7421875,-77.63671875,-26.85546875,-29.296875
-8.7890625,-61.5234375,-35.15625,-20.99609375
-17.08984375,-41.015625,-40.0390625,-19.04296875
-13.18359375,-17.08984375,-32.71484375,-19.53125
-9.765625,-14.16015625,-44.43359375,-24.4140625
-12.6953125,-38.57421875,-41.50390625,-29.78515625
-18.5546875,-60.05859375,-20.99609375,-29.296875
-29.296875,-61.5234375,-22.94921875,-23.4375
-24.4140625,5.859375,-23.4375,-14.16015625
-5.37109375,55.6640625,-28.80859375,-15.13671875
-1.46484375,-65.4296875,-39.55078125,-23.92578125
-1.953125,-84.47265625,-43.45703125,-22.94921875
-7.32421875,-39.55078125,-45.8984375,-20.99609375
-15.625,-29.78515625,-53.7109375,-20.5078125
-14.16015625,-1.46484375,-58.10546875,-20.01953125
-12.20703125,-57.6171875,-40.52734375,-21.484375
-16.11328125,-69.82421875,-24.90234375,-23.4375
-21.484375,-64.94140625,-25.87890625,-19.04296875
-26.85546875,-16.6015625,-28.80859375,-13.671875
-22.94921875,2.9296875,-34.1796875,-19.53125
-19.53125,-27.34375,-40.52734375,-31.25
-18.5546875,-34.1796875,-38.57421875,-30.2734375
-17.578125,-97.65625,-47.36328125,-20.01953125
-21.484375,-73.73046875,-57.6171875,-19.04296875
-17.578125,-6.8359375,-51.26953125,-24.90234375
-11.23046875,-27.83203125,-36.1328125,-20.99609375
-15.13671875,-69.3359375,-35.64453125,-23.92578125
-24.4140625,-55.6640625,-34.1796875,-24.90234375
-36.62109375,-43.9453125,-32.2265625,-20.5078125
-31.25,-37.59765625,-32.2265625,-18.06640625
-15.625,-53.7109375,-34.1796875,-13.18359375
-5.859375,-80.56640625,-48.33984375,-15.13671875
-13.18359375,-45.8984375,-50.29296875,-17.578125
-20.01953125,22.4609375,-40.52734375,-15.625
-10.7421875,-0.9765625,-37.59765625,-13.18359375
-4.39453125,-45.41015625,-32.71484375,-14.16015625
-3.90625,-73.2421875,-26.85546875,-20.99609375
-17.578125,-91.30859375,-36.62109375,-21.97265625
-27.34375,-42.48046875,-41.9921875,-16.11328125
-24.90234375,-3.41796875,-33.203125,-14.16015625
-15.13671875,-15.625,-42.96875,-17.08984375
-10.25390625,-35.64453125,-49.31640625,-26.3671875
-19.04296875,-71.77734375,-34.66796875,-29.296875
-23.92578125,-94.7265625,-32.71484375,-22.4609375
-26.3671875,-16.11328125,-33.203125,-24.4140625
-29.296875,26.3671875,-32.2265625,-28.3203125
-30.2734375,-89.35546875,-29.78515625,-33.203125
-41.50390625,-142.578125,-32.71484375,-46.38671875
-45.8984375,-56.15234375,-45.8984375,-38.57421875
-39.0625,-6.34765625,-50.29296875,-22.94921875
-26.3671875,-10.7421875,-46.38671875,-25.87890625
-11.23046875,-37.59765625,-40.52734375,-25.390625
-23.4375,-95.703125,-41.50390625,-33.203125
-29.296875,-94.23828125,-46.875,-37.109375
-24.4140625,-27.34375,-43.45703125,-26.3671875
-16.6015625,-24.90234375,-41.9921875,-20.5078125
-10.25390625,-31.25,-40.0390625,-25.390625
-12.20703125,-42.48046875,-35.64453125,-30.76171875
-15.13671875,-66.40625,-45.8984375,-24.90234375
-16.11328125,-54.19921875,-49.8046875,-16.6015625
-16.6015625,-35.64453125,-35.15625,-23.4375
-17.08984375,-64.453125,-34.66796875,-29.296875
-21.484375,-78.61328125,-41.9921875,-30.76171875
-35.64453125,-64.453125,-36.1328125,-31.25
-38.0859375,-43.45703125,-40.52734375,-29.296875
-29.296875,-19.53125,-47.36328125,-29.78515625
-27.34375,-25.87890625,-41.9921875,-32.71484375
-26.85546875,-79.1015625,-47.36328125,-33.203125
-29.78515625,-74.21875,-52.734375,-29.296875
-37.109375,13.18359375,-47.36328125,-22.94921875
-30.76171875,-19.53125,-47.8515625,-19.04296875
-22.94921875,-66.40625,-45.8984375,-24.4140625
-18.06640625,-77.1484375,-45.8984375,-21.97265625
-26.85546875,-108.3984375,-52.734375,-12.20703125
-39.0625,-47.8515625,-53.7109375,-13.671875
-32.2265625,11.23046875,-41.015625,-15.13671875
-33.203125,-56.640625,-30.2734375,-15.625
-37.109375,-89.35546875,-36.1328125,-23.4375
-38.57421875,-57.6171875,-41.50390625,-24.4140625
-42.48046875,-30.2734375,-40.0390625,-18.5546875
-29.78515625,14.6484375,-41.015625,-18.06640625
-17.578125,-8.30078125,-46.875,-18.5546875
-24.4140625,-94.7265625,-52.24609375,-30.2734375
-36.62109375,-117.67578125,-52.734375,-37.59765625
-39.0625,-75.1953125,-50.78125,-32.2265625
-22.4609375,-22.94921875,-54.19921875,-17.578125
-5.37109375,-10.7421875,-49.8046875,-4.8828125
-2.44140625,-49.8046875,-37.109375,-3.90625
-3.90625,-99.609375,-35.15625,-2.44140625
-4.8828125,-78.125,-36.62109375,11.23046875
2.9296875,-20.01953125,-33.203125,23.4375
23.4375,-44.921875,-34.1796875,26.3671875
35.64453125,-51.7578125,-35.15625,30.76171875
24.90234375,-34.66796875,-33.69140625,31.25
22.94921875,-98.14453125,-28.80859375,47.8515625
25.87890625,-81.0546875,-26.85546875,51.26953125
29.78515625,-36.1328125,-34.1796875,42.96875
44.921875,-67.87109375,-29.296875,45.41015625
45.8984375,-102.05078125,-20.99609375,45.8984375
39.55078125,-69.82421875,-21.97265625,45.41015625
30.2734375,-15.625,-26.85546875,38.57421875
31.73828125,-32.2265625,-26.3671875,36.1328125
29.78515625,-56.640625,-24.4140625,26.3671875
19.53125,-121.58203125,-23.4375,20.01953125
13.18359375,-71.2890625,-18.5546875,26.3671875
9.765625,25.87890625,-20.5078125,22.94921875
14.16015625,-25.87890625,-19.53125,14.16015625
9.27734375,-106.4453125,-21.97265625,7.32421875
0.48828125,-107.421875,-29.78515625,1.953125
-11.23046875,-76.171875,-20.99609375,0.0
-19.04296875,-57.12890625,-19.53125,-2.9296875
-13.18359375,-24.4140625,-24.4140625,-4.39453125
-12.20703125,-29.296875,-37.59765625,-4.39453125
-9.27734375,-80.078125,-48.828125,-5.859375
-9.765625,-88.8671875,-27.34375,-7.32421875
-11.71875,-31.73828125,-15.625,-2.9296875
-8.7890625,-15.13671875,-31.25,-0.48828125
-8.7890625,3.90625,-36.62109375,-4.8828125
-6.34765625,-60.05859375,-27.34375,-9.765625
-14.6484375,-144.53125,-23.92578125,-15.13671875
-19.04296875,-57.12890625,-28.80859375,-14.16015625
-13.18359375,-1.953125,-36.1328125,-13.671875
-11.71875,-46.875,-39.55078125,-19.53125
-12.20703125,-77.1484375,-44.921875,-20.99609375
-16.11328125,-86.9140625,-40.52734375,-18.06640625
-30.2734375,-58.10546875,-31.25,-20.5078125
-39.55078125,-8.30078125,-34.66796875,-22.94921875
-33.69140625,-16.6015625,-35.64453125,-22.4609375
-22.4609375,-53.22265625,-25.390625,-26.3671875
-27.34375,-39.0625,-24.90234375,-29.78515625
-40.0390625,-65.4296875,-32.2265625,-20.01953125
-41.50390625,-72.75390625,-40.52734375,-18.5546875
-37.59765625,5.37109375,-39.55078125,-24.90234375
-24.4140625,-47.8515625,-33.203125,-26.3671875
-26.85546875,-129.8828125,-34.66796875,-28.3203125
-43.45703125,-72.75390625,-37.59765625,-26.85546875
-46.38671875,-0.9765625,-44.43359375,-24.4140625
-41.9921875,-23.4375,-45.41015625,-24.90234375
-43.9453125,-73.2421875,-50.78125,-33.203125
-50.29296875,-90.8203125,-52.734375,-36.62109375
-51.7578125,-76.66015625,-49.8046875,-31.25
-49.8046875,-6.8359375,-44.43359375,-29.78515625
-40.0390625,-36.1328125,-43.45703125,-30.2734375
-26.3671875,-87.40234375,-46.875,-30.76171875
-29.78515625,-86.42578125,-46.875,-41.50390625
-40.52734375,-80.56640625,-58.59375,-41.015625
-40.52734375,-13.671875,-64.94140625,-38.0859375
-34.1796875,0.0,-55.6640625,-43.9453125
-27.83203125,-65.4296875,-46.875,-44.43359375
-31.25,-78.61328125,-45.8984375,-44.43359375
-32.2265625,-79.1015625,-51.26953125,-39.0625
-30.76171875,-36.62109375,-49.8046875,-28.80859375
-29.296875,-6.8359375,-42.96875,-19.53125
-31.73828125,-8.30078125,-41.50390625,-20.01953125
-34.1796875,-81.54296875,-47.36328125,-26.3671875
-43.45703125,-136.71875,-53.7109375,-33.203125
-49.8046875,-36.62109375,-43.45703125,-23.92578125
-40.52734375,-2.44140625,-36.62109375,-19.53125
-35.15625,-15.625,-38.0859375,-28.80859375
-31.73828125,-65.91796875,-41.015625,-33.69140625
-44.921875,-116.69921875,-43.9453125,-37.59765625
-51.7578125,-17.08984375,-41.9921875,-31.73828125
-37.109375,30.76171875,-39.55078125,-26.3671875
-32.2265625,-68.359375,-40.0390625,-30.2734375
-37.109375,-71.2890625,-47.8515625,-33.203125
-40.52734375,-42.96875,-53.22265625,-31.25
-44.921875,-88.37890625,-48.828125,-33.69140625
-35.64453125,-26.85546875,-46.38671875,-28.3203125
-27.34375,-25.390625,-48.33984375,-28.80859375
-25.87890625,-83.0078125,-44.43359375,-36.62109375
-34.66796875,-90.8203125,-41.015625,-30.2734375
-42.96875,-58.10546875,-43.9453125,-23.4375
-38.0859375,-1.46484375,-48.828125,-23.4375
-31.73828125,-19.04296875,-46.875,-31.25
-26.3671875,-76.171875,-39.0625,-39.0625
-33.203125,-92.28515625,-41.9921875,-43.45703125
-36.1328125,-43.9453125,-46.875,-40.52734375
-29.78515625,42.96875,-42.48046875,-32.71484375
-32.71484375,-11.71875,-46.38671875,-35.64453125
-37.59765625,-101.07421875,-49.31640625,-41.015625
-50.78125,-100.5859375,-51.7578125,-43.45703125
-53.22265625,-78.61328125,-55.6640625,-41.9921875
-47.8515625,-18.06640625,-51.7578125,-39.0625
-43.45703125,-17.578125,-47.36328125,-37.109375
-27.83203125,-46.875,-46.875,-33.203125
-17.578125,-59.08203125,-48.33984375,-33.69140625
-22.4609375,-62.98828125,-51.26953125,-27.83203125
-29.296875,-27.83203125,-48.828125,-20.5078125
-35.15625,4.39453125,-45.41015625,-29.78515625
-31.25,6.8359375,-49.31640625,-31.25
-36.62109375,-101.07421875,-53.22265625,-33.203125
-44.43359375,-104.4921875,-44.921875,-33.203125
-42.96875,-20.5078125,-40.0390625,-24.90234375
-37.59765625,-29.78515625,-43.45703125,-26.3671875
-35.64453125,-50.78125,-43.45703125,-33.69140625
-40.52734375,-88.37890625,-47.8515625,-40.52734375
-43.45703125,-94.23828125,-57.6171875,-38.0859375
-43.9453125,-11.71875,-55.6640625,-33.69140625
-37.59765625,8.30078125,-43.45703125,-38.57421875
-34.1796875,-54.19921875,-40.52734375,-47.36328125
-35.64453125,-58.59375,-39.0625,-51.26953125
-42.96875,-35.64453125,-34.66796875,-43.45703125
-45.8984375,-73.73046875,-35.64453125,-34.1796875
-41.015625,-55.6640625,-42.48046875,-38.0859375
-36.62109375,-19.04296875,-38.57421875,-47.36328125
-34.1796875,-85.44921875,-36.1328125,-49.8046875
-37.109375,-80.56640625,-38.0859375,-44.43359375
-42.48046875,-13.18359375,-41.015625,-42.48046875
-47.8515625,-25.390625,-46.875,-37.109375
-47.8515625,-64.94140625,-43.45703125,-36.62109375
-45.8984375,-65.4296875,-36.62109375,-45.8984375
-56.15234375,-76.171875,-35.64453125,-49.31640625
-62.5,-70.80078125,-41.015625,-43.9453125
-46.875,5.37109375,-40.52734375,-40.52734375
-30.76171875,-35.64453125,-49.8046875,-44.921875
-30.2734375,-102.5390625,-55.6640625,-45.8984375
-42.48046875,-82.51953125,-52.734375,-48.828125
-53.22265625,-68.359375,-52.734375,-50.29296875
-50.78125,-23.4375,-48.33984375,-41.9921875
-45.41015625,-7.32421875,-50.78125,-39.55078125
-42.96875,-47.8515625,-48.33984375,-40.52734375
-44.43359375,-76.66015625,-40.0390625,-41.9921875
-46.38671875,-57.6171875,-45.41015625,-36.62109375
-52.24609375,-42.48046875,-47.8515625,-34.66796875
-51.7578125,-22.4609375,-46.38671875,-45.8984375
-34.1796875,10.7421875,-48.33984375,-43.9453125
-33.203125,-81.54296875,-49.8046875,-40.0390625
-48.33984375,-123.53515625,-50.78125,-42.48046875
-49.8046875,-20.99609375,-49.31640625,-37.109375
-32.71484375,-6.8359375,-54.19921875,-38.0859375
-26.85546875,-39.55078125,-57.12890625,-46.875
-34.1796875,-78.125,-56.15234375,-54.6875
-37.109375,-66.40625,-50.29296875,-55.6640625
-35.64453125,-10.7421875,-56.640625,-52.734375
-29.296875,-4.8828125,-59.5703125,-50.78125
-35.64453125,-47.8515625,-46.875,-53.7109375
-48.828125,-81.0546875,-44.921875,-55.6640625
-58.10546875,-54.19921875,-48.33984375,-48.33984375
-63.96484375,-52.734375,-48.33984375,-41.015625
-56.640625,-81.54296875,-47.36328125,-43.9453125
-49.8046875,-59.5703125,-42.96875,-52.24609375
-46.38671875,-88.37890625,-39.55078125,-47.36328125
-54.19921875,-89.35546875,-41.015625,-43.9453125
-60.05859375,-19.04296875,-40.52734375,-46.38671875
-47.36328125,-4.8828125,-39.55078125,-45.41015625
-40.0390625,-59.5703125,-42.48046875,-45.8984375
-34.1796875,-81.54296875,-36.62109375,-41.9921875
-43.45703125,-92.28515625,-37.59765625,-44.921875
-60.546875,-31.25,-45.8984375,-50.29296875
-45.8984375,40.0390625,-45.41015625,-46.875
-40.0390625,-68.84765625,-53.22265625,-48.828125
-49.31640625,-121.58203125,-57.12890625,-57.12890625
-52.734375,-82.03125,-41.015625,-57.6171875
-62.98828125,-77.1484375,-30.76171875,-60.546875
-41.50390625,-25.390625,-35.64453125,-40.0390625
-7.32421875,-13.671875,-39.55078125,-16.6015625
-36.1328125,-50.78125,-42.48046875,-54.19921875
-69.3359375,-67.3828125,-43.45703125,-83.984375
-83.49609375,-34.66796875,-45.8984375,-89.35546875
-109.375,-5.859375,-43.9453125,-113.76953125
-124.0234375,9.27734375,-47.36328125,-137.20703125
-131.34765625,21.484375,-51.7578125,-149.4140625
-148.92578125,-31.73828125,-55.17578125,-170.8984375
-181.640625,-77.63671875,-64.453125,-198.2421875
-201.171875,-0.48828125,-68.359375,-208.49609375
-193.84765625,29.78515625,-60.05859375,-208.984375
-196.77734375,-7.8125,-60.546875,-221.6796875
-203.61328125,-25.390625,-64.94140625,-229.00390625
-214.35546875,-59.08203125,-62.01171875,-232.421875
-227.5390625,32.2265625,-61.03515625,-240.72265625
-211.42578125,78.61328125,-59.08203125,-234.375
-200.1953125,-0.9765625,-52.734375,-234.86328125
-210.44921875,-33.69140625,-45.41015625,-242.67578125
-217.28515625,20.01953125,-42.48046875,-234.86328125
-214.84375,15.13671875,-43.9453125,-228.02734375
-203.125,-7.32421875,-39.0625,-222.16796875
-196.2890625,-23.92578125,-37.109375,-217.7734375
-203.125,-44.43359375,-43.9453125,-226.07421875
-203.125,-36.62109375,-47.8515625,-219.7265625
-201.66015625,-2.44140625,-43.9453125,-210.9375
-201.171875,16.6015625,-43.45703125,-208.984375
-178.22265625,1.953125,-49.31640625,-198.73046875
-167.48046875,-20.01953125,-52.24609375,-207.03125
-172.36328125,-63.4765625,-54.19921875,-206.0546875
-171.875,0.9765625,-55.6640625,-190.91796875
-159.66796875,78.125,-51.26953125,-179.6875
-141.11328125,0.0,-41.9921875,-172.8515625
-150.390625,-82.51953125,-40.52734375,-177.734375
-155.76171875,-50.29296875,-49.8046875,-169.921875
-145.01953125,17.578125,-49.8046875,-161.62109375
-135.25390625,17.08984375,-43.45703125,-154.296875
-125.48828125,0.48828125,-47.8515625,-143.5546875
-121.09375,-1.46484375,-45.41015625,-147.4609375
-121.09375,-31.25,-35.15625,-138.18359375
-109.86328125,-6.34765625,-34.66796875,-113.28125
-100.09765625,42.48046875,-35.64453125,-113.28125
-96.6796875,18.06640625,-40.0390625,-115.72265625
-103.515625,13.671875,-37.109375,-127.9296875
-104.00390625,-7.32421875,-39.55078125,-122.55859375
-95.703125,-68.359375,-46.875,-95.703125
-100.09765625,-20.01953125,-45.8984375,-101.07421875
-88.37890625,24.90234375,-52.734375,-104.00390625
-67.3828125,-31.73828125,-54.6875,-92.7734375
-72.265625,-56.15234375,-42.96875,-95.703125
-78.125,-15.625,-33.69140625,-93.26171875
-79.58984375,10.25390625,-34.66796875,-87.40234375
-79.1015625,0.9765625,-34.1796875,-88.8671875
-65.4296875,-47.8515625,-33.69140625,-83.984375
-60.546875,-68.359375,-40.52734375,-77.1484375
-62.98828125,1.953125,-47.8515625,-67.87109375
-65.4296875,-18.06640625,-45.8984375,-62.01171875
-62.98828125,-53.7109375,-40.52734375,-62.5
-44.921875,-37.59765625,-39.0625,-58.59375
-34.1796875,-99.609375,-41.9921875,-52.24609375
-35.15625,-106.93359375,-38.57421875,-35.64453125
-40.0390625,-46.875,-28.80859375,-32.2265625
-26.3671875,-19.53125,-33.69140625,-29.296875
-15.625,-75.68359375,-43.45703125,-21.97265625
-27.34375,-94.7265625,-44.921875,-25.87890625
-23.92578125,-113.76953125,-45.8984375,-18.06640625
-25.390625,-53.22265625,-54.19921875,-16.11328125
-28.3203125,3.90625,-52.734375,-20.99609375
-19.53125,-94.23828125,-45.41015625,-15.13671875
-15.13671875,-136.71875,-45.41015625,-9.27734375
-16.11328125,-123.046875,-43.45703125,-0.48828125
-17.08984375,-87.40234375,-39.55078125,5.859375
-2.9296875,-29.296875,-42.96875,7.8125
15.13671875,-40.52734375,-49.8046875,14.6484375
23.92578125,-131.8359375,-50.29296875,19.53125
10.25390625,-154.296875,-48.828125,19.04296875
-5.37109375,-63.96484375,-55.17578125,21.97265625
4.8828125,-39.0625,-60.05859375,23.92578125
18.5546875,-76.171875,-54.6875,23.4375
25.390625,-61.03515625,-55.6640625,24.4140625
11.71875,-128.41796875,-62.01171875,24.4140625
2.9296875,-119.62890625,-62.98828125,26.85546875
22.94921875,-32.71484375,-52.734375,29.296875
29.296875,-57.12890625,-47.8515625,27.83203125
30.76171875,-94.23828125,-51.26953125,29.78515625
23.92578125,-104.98046875,-52.24609375,29.78515625
16.11328125,-92.28515625,-51.26953125,29.296875
24.90234375,-21.484375,-48.828125,33.69140625
31.25,-26.3671875,-47.8515625,29.78515625
29.78515625,-102.5390625,-49.31640625,22.4609375
32.71484375,-75.68359375,-52.24609375,26.3671875
33.69140625,-31.73828125,-57.6171875,31.25
34.1796875,-61.5234375,-47.36328125,35.15625
39.55078125,-87.890625,-36.62109375,39.0625
35.15625,-77.63671875,-42.96875,27.83203125
26.3671875,-112.79296875,-43.9453125,18.5546875
16.6015625,-100.09765625,-44.921875,29.78515625
14.6484375,-20.99609375,-50.29296875,33.203125
16.11328125,-25.390625,-55.17578125,29.78515625
14.6484375,-65.4296875,-50.78125,29.296875
16.6015625,-91.796875,-52.24609375,31.25
8.7890625,-82.51953125,-54.6875,30.76171875
5.859375,-19.53125,-52.734375,24.90234375
8.7890625,4.8828125,-59.5703125,17.08984375
11.71875,-63.96484375,-58.10546875,6.8359375
13.671875,-121.58203125,-64.94140625,4.8828125
9.765625,-95.703125,-62.5,16.11328125
3.90625,-40.52734375,-42.48046875,23.4375
1.953125,-8.30078125,-32.71484375,16.6015625
8.30078125,-22.4609375,-28.80859375,13.671875
5.859375,-73.73046875,-36.62109375,13.671875
-5.37109375,-100.5859375,-44.921875,9.765625
-14.16015625,-33.69140625,-46.38671875,6.8359375
-8.30078125,-5.859375,-46.38671875,5.859375
-6.8359375,-33.203125,-53.7109375,-2.44140625
-15.625,-35.64453125,-55.6640625,-8.30078125
-23.92578125,-107.421875,-38.0859375,-5.37109375
-23.92578125,-91.796875,-39.0625,-5.37109375
-18.06640625,-4.39453125,-51.26953125,-6.8359375
2.44140625,-45.41015625,-50.78125,9.765625
8.7890625,-88.37890625,-47.36328125,13.671875
-31.73828125,-91.30859375,-46.38671875,-20.5078125
-50.29296875,-58.10546875,-49.8046875,-38.57421875
-39.0625,-23.92578125,-55.6640625,-36.1328125
-28.3203125,-20.5078125,-49.8046875,-36.1328125
-35.15625,-61.5234375,-43.45703125,-45.41015625
-49.8046875,-74.70703125,-45.8984375,-47.36328125
-56.640625,-24.4140625,-53.22265625,-41.015625
-44.43359375,-33.69140625,-53.22265625,-37.109375
-29.78515625,-62.5,-47.8515625,-37.59765625
-27.83203125,-72.75390625,-49.8046875,-36.62109375
-33.203125,-95.21484375,-48.828125,-37.59765625
-36.1328125,-41.9921875,-44.921875,-36.1328125
-30.2734375,7.32421875,-34.66796875,-31.73828125
-25.87890625,-38.57421875,-35.64453125,-33.203125
-23.4375,-71.77734375,-41.9921875,-31.73828125
-26.85546875,-83.49609375,-46.875,-30.2734375
-37.59765625,-65.91796875,-55.17578125,-36.62109375
-37.59765625,0.48828125,-48.33984375,-33.69140625
-30.76171875,8.7890625,-41.9921875,-35.15625
-25.87890625,-79.1015625,-41.9921875,-39.0625
-27.83203125,-115.72265625,-45.41015625,-31.25
-34.66796875,-64.453125,-43.45703125,-29.78515625
-36.62109375,-0.48828125,-48.33984375,-32.71484375
-35.15625,-11.71875,-52.734375,-32.71484375
-29.296875,-56.15234375,-48.33984375,-32.71484375
-36.62109375,-89.84375,-51.7578125,-36.62109375
-43.9453125,-64.453125,-53.22265625,-34.1796875
-30.76171875,-12.6953125,-56.640625,-25.87890625
-21.484375,-27.34375,-59.5703125,-23.92578125
-14.6484375,-46.38671875,-51.7578125,-25.87890625
-5.859375,-49.31640625,-52.734375,-26.3671875
-17.578125,-103.515625,-61.5234375,-28.3203125
-31.25,-74.21875,-63.4765625,-26.3671875
-21.484375,-2.44140625,-55.6640625,-21.97265625
-23.4375,-46.38671875,-45.41015625,-30.2734375
-30.2734375,-98.14453125,-42.96875,-39.0625
-37.109375,-95.703125,-45.8984375,-37.109375
-49.8046875,-36.62109375,-52.24609375,-36.1328125
-45.8984375,3.90625,-52.24609375,-34.66796875
-39.55078125,-38.0859375,-48.33984375,-37.59765625
-38.57421875,-98.14453125,-45.8984375,-41.50390625
-38.0859375,-105.46875,-49.8046875,-38.0859375
-45.41015625,-11.23046875,-59.5703125,-37.59765625
-35.15625,9.27734375,-51.26953125,-33.203125
-32.71484375,-84.47265625,-35.64453125,-32.2265625
-44.43359375,-113.76953125,-40.52734375,-42.96875
-49.31640625,-94.7265625,-45.41015625,-42.96875
-54.6875,-50.78125,-45.8984375,-38.0859375
-48.33984375,13.671875,-45.41015625,-35.15625
-40.52734375,-3.41796875,-44.43359375,-29.78515625
-32.71484375,-83.984375,-46.38671875,-34.1796875
-36.62109375,-105.95703125,-53.22265625,-34.66796875
-43.9453125,-61.5234375,-47.8515625,-35.15625
-41.9921875,1.953125,-44.921875,-39.0625
-41.9921875,23.92578125,-50.78125,-38.57421875
-42.96875,-83.49609375,-45.41015625,-45.41015625
-48.33984375,-108.3984375,-39.55078125,-48.33984375
-60.546875,-46.875,-42.48046875,-46.875
-64.94140625,-31.73828125,-48.33984375,-48.33984375
-49.31640625,-15.13671875,-47.36328125,-47.8515625
-38.0859375,-62.5,-47.8515625,-45.8984375
-38.0859375,-96.6796875,-54.6875,-41.015625
-37.59765625,-68.359375,-51.26953125,-32.2265625
-44.921875,-17.08984375,-47.8515625,-32.2265625
-44.43359375,-24.90234375,-47.36328125,-37.109375
-38.57421875,-48.828125,-36.62109375,-41.50390625
-43.9453125,-47.36328125,-32.71484375,-47.8515625
-52.24609375,-85.9375,-37.109375,-45.8984375
-55.6640625,-58.59375,-41.50390625,-41.9921875
-45.8984375,-11.71875,-44.921875,-42.96875
-40.52734375,-48.33984375,-43.9453125,-42.96875
-46.875,-83.49609375,-51.26953125,-47.8515625
-46.38671875,-59.5703125,-56.15234375,-51.7578125
-42.96875,-58.59375,-57.6171875,-46.38671875
-42.48046875,-54.19921875,-56.15234375,-45.41015625
-37.59765625,-53.7109375,-46.38671875,-44.43359375
-30.76171875,-79.1015625,-44.921875,-48.828125
-41.015625,-61.03515625,-49.31640625,-50.78125
-47.36328125,-12.20703125,-64.453125,-50.29296875
-38.57421875,-37.59765625,-73.2421875,-50.29296875
-42.48046875,-57.6171875,-65.4296875,-52.734375
-51.26953125,-98.14453125,-55.6640625,-55.17578125
-59.5703125,-89.35546875,-39.55078125,-54.19921875
-60.546875,-25.390625,-43.9453125,-55.6640625
-52.24609375,-21.484375,-53.7109375,-52.734375
-50.78125,-37.109375,-45.8984375,-46.38671875
-44.921875,-71.2890625,-44.921875,-51.7578125
-43.45703125,-73.73046875,-42.96875,-55.17578125
-57.6171875,-69.82421875,-41.015625,-48.33984375
-52.734375,-23.92578125,-42.96875,-48.33984375
-41.9921875,7.8125,-45.8984375,-48.828125
-42.96875,-69.3359375,-50.78125,-46.38671875
-41.015625,-124.0234375,-56.640625,-40.0390625
-38.0859375,-80.56640625,-56.15234375,-33.69140625
-36.62109375,-37.109375,-56.15234375,-35.64453125
-36.62109375,-18.5546875,-58.59375,-41.015625
-35.15625,-44.921875,-54.6875,-45.41015625
-44.43359375,-100.09765625,-52.734375,-46.38671875
-55.17578125,-76.171875,-57.12890625,-42.48046875
-50.29296875,-11.23046875,-60.05859375,-41.015625
-36.1328125,-26.85546875,-51.7578125,-42.48046875
-25.87890625,-67.87109375,-41.015625,-43.9453125
-37.59765625,-53.22265625,-36.62109375,-40.52734375
-48.828125,-50.78125,-41.015625,-41.015625
-43.9453125,-52.734375,-56.15234375,-45.41015625
-31.73828125,-61.5234375,-51.26953125,-43.45703125
-32.2265625,-68.84765625,-42.96875,-48.828125
-44.921875,-87.40234375,-55.6640625,-56.15234375
-50.78125,-76.66015625,-50.78125,-50.29296875
-44.43359375,-22.4609375,-41.9921875,-40.0390625
-29.78515625,-6.8359375,-42.96875,-39.55078125
-27.83203125,-39.0625,-43.9453125,-46.38671875
-31.73828125,-81.54296875,-57.6171875,-46.38671875
-36.1328125,-73.73046875,-59.5703125,-43.9453125
-43.9453125,-4.39453125,-50.78125,-44.43359375
-27.83203125,-27.34375,-46.875,-38.57421875
-17.08984375,-51.7578125,-46.875,-35.15625
-23.4375,-50.29296875,-51.7578125,-41.015625
-29.296875,-98.14453125,-54.19921875,-43.45703125
-39.55078125,-57.12890625,-53.22265625,-41.50390625
-38.0859375,-5.37109375,-52.734375,-40.0390625
-30.2734375,-20.01953125,-51.26953125,-46.38671875
-24.90234375,-79.1015625,-49.31640625,-48.33984375
-34.1796875,-89.35546875,-45.8984375,-46.875
-45.8984375,-51.7578125,-44.43359375,-46.38671875
-41.015625,0.48828125,-48.33984375,-50.29296875
-43.9453125,11.23046875,-50.29296875,-54.19921875
-43.45703125,-85.44921875,-53.22265625,-50.78125
-51.26953125,-123.046875,-52.734375,-45.8984375
-54.19921875,-51.7578125,-59.5703125,-42.96875
-38.57421875,-20.01953125,-58.59375,-41.015625
-36.1328125,-56.15234375,-52.24609375,-43.9453125
-35.15625,-55.17578125,-48.828125,-46.875
-32.71484375,-71.77734375,-53.22265625,-41.015625
-37.59765625,-59.08203125,-56.640625,-34.1796875
-40.52734375,-26.3671875,-45.41015625,-28.80859375
-30.2734375,-26.3671875,-40.0390625,-24.90234375
-19.04296875,-57.6171875,-43.45703125,-30.2734375
-31.25,-52.734375,-47.36328125,-41.015625
-46.38671875,-70.3125,-49.31640625,-45.8984375
-51.7578125,-68.359375,-49.8046875,-43.45703125
-35.64453125,-22.4609375,-52.24609375,-41.50390625
-27.34375,-38.57421875,-56.15234375,-48.828125
-38.0859375,-64.94140625,-43.45703125,-49.8046875
-41.50390625,-72.75390625,-34.66796875,-44.43359375
-43.45703125,-27.83203125,-42.48046875,-42.48046875
-31.73828125,24.4140625,-42.96875,-45.41015625
-26.3671875,7.32421875,-40.0390625,-52.24609375
-25.87890625,-85.44921875,-45.41015625,-48.33984375
-26.3671875,-91.796875,-49.31640625,-40.0390625
-33.203125,7.32421875,-42.48046875,-37.109375
-46.875,-25.87890625,-44.921875,-42.48046875
-42.48046875,-87.40234375,-43.9453125,-46.875
-29.296875,-79.58984375,-36.1328125,-42.96875
-35.15625,-73.73046875,-39.0625,-37.59765625
-38.57421875,-28.80859375,-46.875,-34.1796875
-33.69140625,-10.7421875,-47.36328125,-32.2265625
-31.73828125,-23.4375,-40.52734375,-40.52734375
-38.0859375,-95.21484375,-39.55078125,-47.36328125
-51.26953125,-95.703125,-40.52734375,-50.29296875
-53.22265625,-21.97265625,-41.015625,-51.7578125
-37.109375,-0.9765625,-56.15234375,-44.921875
-25.87890625,-11.71875,-54.6875,-40.0390625
-36.62109375,-65.4296875,-43.45703125,-48.33984375
-55.17578125,-123.53515625,-45.8984375,-56.640625
-59.08203125,-47.36328125,-52.734375,-51.7578125
-49.31640625,1.46484375,-56.640625,-55.6640625
-44.921875,-39.0625,-52.24609375,-62.5
-45.41015625,-67.3828125,-52.24609375,-60.05859375
-54.6875,-90.33203125,-51.7578125,-55.17578125
-59.08203125,-45.41015625,-47.8515625,-50.78125
-43.9453125,-2.44140625,-44.921875,-45.41015625
-41.50390625,-57.6171875,-47.36328125,-43.9453125
-40.52734375,-49.8046875,-54.6875,-39.0625
-43.9453125,-43.45703125,-49.8046875,-34.1796875
-56.15234375,-100.5859375,-50.29296875,-36.62109375
-47.8515625,-32.2265625,-54.19921875,-31.25
-42.96875,-21.484375,-52.734375,-32.71484375
-44.921875,-89.84375,-50.29296875,-40.0390625
-40.0390625,-89.35546875,-38.0859375,-39.55078125
-54.6875,-55.17578125,-41.50390625,-36.1328125
-57.12890625,-29.296875,-51.26953125,-34.66796875
-36.1328125,-18.5546875,-51.7578125,-43.45703125
-35.64453125,-48.33984375,-46.38671875,-53.7109375
-38.0859375,-92.28515625,-45.41015625,-51.26953125
-39.55078125,-30.2734375,-47.36328125,-43.45703125
-42.48046875,43.9453125,-45.8984375,-42.96875
-37.59765625,-35.15625,-53.22265625,-52.24609375
-32.2265625,-90.33203125,-53.22265625,-56.640625
-39.55078125,-84.9609375,-44.921875,-46.875
-41.9921875,-83.984375,-45.41015625,-40.0390625
-31.25,-0.9765625,-48.33984375,-43.9453125
-20.99609375,5.37109375,-41.9921875,-41.9921875
-29.296875,-83.984375,-40.52734375,-40.0390625
-31.25,-104.4921875,-50.29296875,-49.8046875
-36.62109375,-69.82421875,-55.17578125,-52.734375
-43.45703125,-5.37109375,-51.7578125,-45.8984375
-20.99609375,21.97265625,-50.29296875,-46.875
-19.04296875,19.53125,-47.36328125,-49.8046875
-20.5078125,-70.3125,-47.36328125,-49.31640625
-33.69140625,-122.0703125,-46.875,-41.9921875
-47.36328125,-44.43359375,-42.96875,-39.55078125
-36.62109375,-19.53125,-48.828125,-43.9453125
-38.57421875,-46.875,-49.31640625,-49.8046875
-45.41015625,-70.3125,-47.36328125,-58.59375
-51.7578125,-78.125,-52.734375,-58.59375
-54.6875,-20.99609375,-50.29296875,-50.78125
-52.24609375,4.8828125,-44.921875,-57.12890625
-58.10546875,-48.828125,-43.9453125,-61.5234375
-57.6171875,-64.453125,-42.96875,-62.98828125
-49.31640625,-43.9453125,-55.6640625,-64.453125
-53.7109375,-50.29296875,-62.5,-55.6640625
-46.38671875,-59.08203125,-44.43359375,-48.828125
-26.3671875,-24.90234375,-37.59765625,-44.921875
-13.671875,-51.7578125,-45.8984375,-49.8046875
-38.0859375,-87.40234375,-55.6640625,-60.546875
-40.52734375,-42.96875,-60.05859375,-55.6640625
-24.4140625,0.9765625,-55.6640625,-52.734375
-25.87890625,-15.13671875,-55.6640625,-57.6171875
-17.08984375,-46.38671875,-49.31640625,-62.98828125
-22.4609375,-81.0546875,-42.96875,-63.4765625
-28.80859375,-78.125,-50.78125,-63.96484375
-13.18359375,22.94921875,-42.48046875,-61.03515625
-15.13671875,-6.8359375,-31.25,-47.8515625
-28.80859375,-126.953125,-35.64453125,-57.12890625
-27.34375,-97.65625,-50.78125,-76.66015625
-37.59765625,-62.5,-62.01171875,-91.30859375
-39.55078125,-11.71875,-46.38671875,-100.09765625
-27.83203125,-22.4609375,-37.59765625,-91.30859375
-13.671875,-63.96484375,-44.921875,-89.35546875
-16.6015625,-84.47265625,-43.9453125,-90.8203125
-25.87890625,-76.66015625,-44.921875,-84.47265625
-26.3671875,-12.20703125,-42.96875,-70.80078125
-14.16015625,-4.39453125,-38.57421875,-71.2890625
-5.37109375,-5.859375,-46.38671875,-77.63671875
-7.8125,-91.796875,-53.22265625,-87.40234375
-22.4609375,-103.515625,-48.33984375,-83.984375
-21.484375,-9.765625,-48.33984375,-65.4296875
-11.23046875,-37.59765625,-57.6171875,-81.0546875
-30.76171875,-78.125,-44.43359375,-91.30859375
-34.66796875,-70.80078125,-35.15625,-92.28515625
-25.87890625,-64.453125,-43.9453125,-83.49609375
-42.96875,-38.57421875,-51.7578125,-78.61328125
-44.43359375,4.8828125,-51.26953125,-98.14453125
-36.1328125,-40.52734375,-45.41015625,-98.6328125
-36.62109375,-95.703125,-51.7578125,-89.35546875
-34.66796875,-43.45703125,-67.3828125,-84.9609375
-36.62109375,-10.7421875,-66.89453125,-74.70703125
-41.015625,-18.06640625,-49.31640625,-74.21875
-35.64453125,-55.6640625,-39.0625,-94.23828125
-32.71484375,-104.4921875,-41.50390625,-114.2578125
-49.31640625,-62.5,-44.921875,-110.3515625
-48.828125,-30.2734375,-42.96875,-101.5625
-31.25,-50.78125,-42.96875,-95.703125
-32.2265625,-55.6640625,-46.38671875,-85.9375
-23.4375,-63.4765625,-45.41015625,-83.49609375
-27.83203125,-74.70703125,-46.38671875,-77.1484375
-38.57421875,-45.41015625,-50.78125,-64.453125
-26.3671875,26.85546875,-42.48046875,-66.89453125
-11.23046875,-27.34375,-43.9453125,-72.265625
-11.23046875,-89.84375,-49.31640625,-81.0546875
-34.66796875,-94.23828125,-44.43359375,-83.49609375
-38.0859375,-52.24609375,-39.55078125,-70.80078125
-34.66796875,12.6953125,-35.64453125,-76.66015625
-31.25,-24.4140625,-35.64453125,-74.70703125
-24.4140625,-70.3125,-37.59765625,-67.87109375
-41.015625,-74.70703125,-39.0625,-70.80078125
-49.8046875,-46.875,-39.0625,-70.3125
-46.38671875,-53.22265625,-42.96875,-76.171875
-47.36328125,-18.5546875,-51.26953125,-71.77734375
-34.66796875,-5.859375,-48.33984375,-65.4296875
-29.78515625,-113.76953125,-43.9453125,-76.171875
-35.15625,-101.5625,-43.9453125,-79.1015625
-39.0625,-12.6953125,-41.015625,-71.2890625
-45.41015625,-20.5078125,-38.57421875,-69.3359375
-33.69140625,-74.70703125,-45.41015625,-69.3359375
-36.1328125,-85.44921875,-50.29296875,-81.0546875
-45.41015625,-86.42578125,-46.38671875,-86.9140625
-57.12890625,-47.36328125,-53.22265625,-75.68359375
-41.015625,-3.90625,-53.7109375,-65.4296875
-33.203125,-43.9453125,-47.8515625,-68.84765625
-42.48046875,-72.75390625,-51.26953125,-67.87109375
-35.64453125,-19.53125,-47.36328125,-54.19921875
-30.2734375,-10.25390625,-46.875,-51.7578125
-30.2734375,-64.94140625,-54.19921875,-53.7109375
-21.484375,-74.70703125,-46.38671875,-41.50390625
-16.11328125,-83.49609375,-40.0390625,-35.64453125
-23.4375,-87.40234375,-43.45703125,-40.52734375
-28.80859375,-38.0859375,-46.875,-33.203125
-23.4375,-11.71875,-52.24609375,-25.87890625
-23.92578125,-37.109375,-53.22265625,-39.0625
-15.625,-60.546875,-47.8515625,-55.6640625
-27.34375,-60.05859375,-45.8984375,-46.875
-43.45703125,-17.578125,-48.828125,-48.33984375
-23.4375,34.1796875,-51.7578125,-59.5703125
-20.01953125,-51.7578125,-57.6171875,-72.265625
-24.90234375,-91.796875,-50.78125,-76.171875
-31.25,-64.453125,-39.55078125,-66.40625
-36.62109375,-72.75390625,-40.52734375,-61.03515625
-38.57421875,-25.390625,-47.8515625,-57.6171875
-46.38671875,-22.4609375,-42.96875,-65.91796875
-32.71484375,-79.58984375,-37.109375,-62.5
-19.53125,-77.1484375,-45.8984375,-57.12890625
-28.80859375,-16.11328125,-45.41015625,-52.24609375
-50.29296875,-20.01953125,-37.59765625,-34.1796875
-45.8984375,-42.48046875,-41.015625,-41.50390625
-23.92578125,-30.76171875,-38.57421875,-60.05859375
-31.73828125,-92.7734375,-36.62109375,-64.94140625
-44.43359375,-88.8671875,-42.96875,-57.12890625
-43.9453125,-1.953125,-43.9453125,-54.6875
-35.64453125,-41.015625,-41.015625,-57.6171875
-32.2265625,-48.33984375,-46.875,-58.10546875
-46.38671875,-56.640625,-56.15234375,-60.546875
-53.7109375,-71.2890625,-56.640625,-69.82421875
-40.52734375,0.48828125,-48.828125,-60.05859375
-13.18359375,-1.46484375,-48.828125,-49.31640625
-15.13671875,-56.640625,-53.7109375,-55.17578125
-38.0859375,-85.9375,-53.22265625,-43.9453125
-40.52734375,-27.34375,-49.31640625,-40.52734375
-30.76171875,-17.08984375,-46.875,-41.50390625
-26.85546875,-64.94140625,-48.33984375,-46.875
-24.90234375,-58.10546875,-51.26953125,-56.15234375
-33.203125,-75.1953125,-49.8046875,-57.12890625
-47.8515625,-80.078125,-51.26953125,-51.26953125
-38.0859375,-36.1328125,-57.6171875,-39.0625
-29.78515625,-18.06640625,-60.05859375,-49.8046875
-36.62109375,-49.31640625,-55.6640625,-71.77734375
-44.921875,-67.87109375,-48.33984375,-60.05859375
-41.50390625,-82.03125,-47.8515625,-51.26953125
-47.8515625,-4.8828125,-53.22265625,-44.43359375
-44.43359375,39.0625,-44.921875,-43.45703125
-35.15625,-73.2421875,-36.62109375,-53.22265625
-27.83203125,-113.28125,-42.48046875,-42.96875
-43.9453125,-78.61328125,-44.43359375,-41.50390625
-55.6640625,-28.3203125,-40.52734375,-38.0859375
-25.87890625,-5.37109375,-40.0390625,-31.73828125
-27.83203125,-37.59765625,-36.62109375,-44.921875
-44.43359375,-69.82421875,-35.64453125,-54.6875
-44.43359375,-65.4296875,-40.52734375,-53.22265625
-55.6640625,-33.69140625,-45.41015625,-41.015625
-53.22265625,-28.3203125,-44.921875,-42.96875
-37.59765625,-28.80859375,-44.43359375,-52.734375
-50.78125,0.9765625,-45.8984375,-48.33984375
-51.7578125,-84.47265625,-41.015625,-41.015625
-40.0390625,-106.4453125,-41.50390625,-37.59765625
-48.33984375,-35.15625,-52.24609375,-41.015625
-51.7578125,-54.6875,-55.17578125,-40.52734375
-48.828125,-77.63671875,-46.38671875,-37.59765625
-47.36328125,-77.63671875,-37.59765625,-32.71484375
-45.8984375,-67.87109375,-37.109375,-26.85546875
-32.71484375,-23.4375,-35.15625,-22.4609375
-30.76171875,-17.578125,-39.55078125,-30.2734375
-20.99609375,-57.12890625,-48.33984375,-43.45703125
-33.69140625,-56.640625,-44.921875,-39.55078125
-52.24609375,-21.484375,-43.9453125,-37.109375
-39.0625,-42.48046875,-47.8515625,-41.015625
-37.109375,-70.80078125,-47.8515625,-47.36328125
-40.52734375,-72.75390625,-44.921875,-36.62109375
-45.41015625,-107.421875,-41.50390625,-22.94921875
-41.9921875,-80.56640625,-44.43359375,-24.90234375
-45.41015625,-12.6953125,-52.24609375,-41.015625
-51.7578125,-12.20703125,-48.33984375,-45.41015625
-30.76171875,-67.87109375,-44.921875,-48.33984375
-27.34375,-92.28515625,-51.26953125,-39.55078125
-51.26953125,-82.51953125,-49.8046875,-29.78515625
-51.7578125,-0.9765625,-44.43359375,-41.50390625
-34.1796875,36.62109375,-39.55078125,-32.2265625
-44.43359375,-70.80078125,-41.015625,-36.62109375
-39.55078125,-101.07421875,-48.33984375,-38.0859375
-52.734375,-75.68359375,-51.26953125,-35.64453125
-60.05859375,-23.4375,-50.78125,-40.52734375
-22.4609375,4.39453125,-47.36328125,-26.3671875
-24.4140625,-10.25390625,-45.41015625,-28.80859375
-52.734375,-80.078125,-48.828125,-34.66796875
-32.2265625,-106.4453125,-46.38671875,-33.203125
-29.296875,-21.484375,-43.9453125,-27.34375
-39.0625,-0.48828125,-44.43359375,-18.06640625
-7.32421875,-24.90234375,-44.43359375,-20.01953125
16.11328125,-16.6015625,-54.19921875,-11.23046875
-12.6953125,-102.05078125,-52.734375,-6.34765625
-29.78515625,-73.2421875,-45.41015625,-18.5546875
-25.390625,0.0,-39.0625,-29.296875
-31.73828125,-44.921875,-42.48046875,-28.3203125
-21.97265625,-66.89453125,-47.36328125,-29.78515625
-32.2265625,-95.21484375,-44.43359375,-35.64453125
-37.109375,-67.87109375,-41.015625,-27.34375
-20.01953125,0.0,-40.0390625,-23.92578125
-25.390625,-29.296875,-39.0625,-24.90234375
-37.109375,-130.37109375,-37.59765625,-13.671875
-33.69140625,-103.515625,-34.66796875,-6.34765625
-31.25,-8.7890625,-37.109375,-8.30078125
-41.9921875,-31.25,-39.55078125,-3.41796875
-23.92578125,-70.80078125,-40.0390625,-13.18359375
-11.71875,-73.73046875,-40.52734375,-27.83203125
-28.80859375,-106.4453125,-46.38671875,-33.203125
-52.734375,-86.9140625,-45.41015625,-33.203125
-38.0859375,-12.6953125,-38.0859375,-30.76171875
-20.99609375,-13.671875,-44.921875,-40.52734375
-19.04296875,-86.9140625,-47.36328125,-32.71484375
-25.87890625,-114.74609375,-42.96875,-27.83203125
-34.1796875,-83.984375,-41.015625,-32.71484375
-28.80859375,-12.6953125,-41.015625,-28.3203125
-32.71484375,31.73828125,-40.0390625,-33.69140625
-23.92578125,-56.15234375,-45.41015625,-40.52734375
-20.99609375,-165.0390625,-49.31640625,-56.640625
-47.8515625,-118.1640625,-47.8515625,-47.36328125
-46.38671875,-2.44140625,-52.734375,-25.390625
-35.64453125,-12.20703125,-48.33984375,-36.1328125
-31.73828125,-81.54296875,-47.8515625,-50.29296875
-36.1328125,-84.9609375,-50.29296875,-43.45703125
-44.43359375,-79.1015625,-46.38671875,-41.015625
-26.3671875,-38.57421875,-50.29296875,-36.1328125
-13.671875,-20.99609375,-47.8515625,-10.25390625
0.0,-28.80859375,-45.41015625,-19.04296875
16.11328125,-26.85546875,-51.26953125,-32.71484375
-5.37109375,-104.4921875,-49.8046875,-12.20703125
-19.04296875,-70.3125,-46.38671875,-3.90625
-2.44140625,5.37109375,-44.921875,-16.11328125
5.37109375,-72.75390625,-43.45703125,-24.90234375
-4.8828125,-110.3515625,-41.9921875,-25.87890625
2.44140625,-70.80078125,-42.48046875,-22.94921875
-6.8359375,-25.87890625,-41.9921875,-20.99609375
-13.671875,-15.625,-39.0625,-24.90234375
-10.25390625,-31.73828125,-35.15625,-28.3203125
-5.37109375,-83.0078125,-37.59765625,-30.2734375
-30.76171875,-77.63671875,-38.57421875,-18.06640625
-38.0859375,3.41796875,-42.96875,-19.53125
5.859375,-27.83203125,-49.8046875,-28.3203125
-3.41796875,-83.49609375,-43.45703125,-29.296875
-13.18359375,-75.1953125,-36.1328125,-38.57421875
-5.859375,-99.609375,-38.0859375,-38.57421875
-32.71484375,-59.08203125,-41.9921875,-28.80859375
-17.08984375,31.25,-41.015625,-30.76171875
8.30078125,-38.57421875,-43.45703125,-33.203125
9.765625,-94.23828125,-43.45703125,-19.53125
0.0,-74.70703125,-45.41015625,-27.83203125
-4.39453125,-81.54296875,-45.41015625,-37.109375
-4.8828125,-0.48828125,-43.45703125,-33.69140625
9.765625,32.2265625,-42.48046875,-24.4140625
23.92578125,-83.49609375,-45.41015625,-23.4375
19.53125,-115.72265625,-45.41015625,-26.3671875
15.13671875,-62.5,-44.921875,-27.34375
8.30078125,-30.2734375,-47.8515625,-33.69140625
1.953125,1.46484375,-45.41015625,-38.57421875
16.6015625,-52.24609375,-43.9453125,-53.22265625
34.1796875,-106.93359375,-48.33984375,-60.546875
31.25,-52.24609375,-41.9921875,-45.41015625
35.15625,5.37109375,-42.48046875,-34.1796875
41.015625,-42.48046875,-43.45703125,-23.4375
50.78125,-67.3828125,-44.43359375,-39.0625
51.26953125,-46.38671875,-46.38671875,-33.203125
34.66796875,-92.28515625,-44.43359375,-21.484375
40.52734375,-70.3125,-43.9453125,-31.25
61.5234375,-18.06640625,-42.48046875,-33.69140625
52.24609375,-51.7578125,-46.875,-50.29296875
35.64453125,-98.14453125,-49.8046875,-49.31640625
19.53125,-74.70703125,-43.9453125,-44.43359375
21.97265625,-28.3203125,-42.48046875,-45.41015625
33.69140625,6.8359375,-37.109375,-33.69140625
22.4609375,-5.859375,-34.1796875,-32.2265625
34.66796875,-92.7734375,-33.203125,-32.71484375
35.15625,-70.3125,-37.109375,-38.0859375
10.25390625,19.53125,-52.24609375,-47.8515625
7.8125,-17.08984375,-55.17578125,-40.0390625
9.27734375,-102.05078125,-48.33984375,-40.0390625
2.9296875,-116.2109375,-47.36328125,-42.48046875
9.765625,-85.44921875,-45.8984375,-37.109375
20.99609375,-35.15625,-44.43359375,-26.85546875
8.7890625,-14.16015625,-43.45703125,-23.4375
6.34765625,-28.3203125,-35.64453125,-28.80859375
15.625,-56.640625,-33.69140625,-13.671875
8.7890625,-64.453125,-37.59765625,-7.8125
-5.37109375,-61.5234375,-41.015625,-15.625
-14.6484375,-31.73828125,-44.43359375,-20.01953125
14.16015625,9.27734375,-41.015625,-34.1796875
2.9296875,-87.890625,-36.62109375,-35.64453125
-24.90234375,-101.07421875,-38.57421875,-28.3203125
-6.8359375,-41.50390625,-45.8984375,-26.85546875
-17.578125,-57.12890625,-50.29296875,-30.76171875
-9.27734375,-30.76171875,-48.33984375,-30.76171875
6.34765625,-31.25,-46.875,-35.64453125
-14.6484375,-83.0078125,-48.828125,-28.3203125
-18.06640625,-89.35546875,-49.31640625,-23.4375
-15.13671875,-17.08984375,-52.24609375,-39.0625
-4.8828125,19.53125,-50.78125,-33.69140625
-0.48828125,-39.0625,-51.7578125,-27.83203125
-11.71875,-80.56640625,-57.12890625,-36.1328125
-9.765625,-58.59375,-57.6171875,-25.390625
-13.18359375,-43.9453125,-53.7109375,-15.13671875
2.44140625,-23.4375,-48.828125,-19.53125
18.06640625,-74.21875,-48.33984375,-22.94921875
-7.8125,-69.82421875,-51.26953125,-13.671875
-12.20703125,-47.8515625,-46.875,3.41796875
15.13671875,-43.9453125,-45.41015625,0.9765625
24.4140625,-4.39453125,-45.41015625,-11.71875
2.9296875,-34.66796875,-45.8984375,-16.11328125
-3.41796875,-54.6875,-45.41015625,-19.53125
12.20703125,-60.546875,-43.45703125,-14.6484375
18.5546875,-8.7890625,-42.96875,-18.5546875
11.23046875,-6.34765625,-41.50390625,-19.04296875
-14.16015625,-69.3359375,-42.96875,-20.5078125
13.671875,-71.77734375,-39.55078125,-24.4140625
23.4375,-62.01171875,-36.62109375,-25.390625
6.34765625,-27.34375,-43.45703125,-26.85546875
3.41796875,4.8828125,-41.50390625,-20.99609375
-2.44140625,-40.0390625,-38.0859375,-20.99609375
-4.39453125,-72.75390625,-40.0390625,-9.765625
-2.44140625,-58.59375,-41.50390625,-10.7421875
12.20703125,-54.6875,-42.48046875,-19.04296875
-6.34765625,-18.06640625,-39.0625,-8.30078125
-6.8359375,6.34765625,-38.57421875,-9.765625
7.32421875,-76.66015625,-42.96875,-23.92578125
-15.13671875,-125.9765625,-43.9453125,-14.6484375
-0.9765625,-57.12890625,-48.33984375,-18.5546875
4.8828125,-6.8359375,-51.26953125,-17.578125
3.41796875,-11.23046875,-50.78125,-12.20703125
17.578125,-57.6171875,-50.78125,-23.4375
-12.20703125,-84.9609375,-52.734375,-29.78515625
-26.85546875,-57.6171875,-51.26953125,-33.203125
-27.83203125,-26.85546875,-46.38671875,-23.4375
-27.83203125,-25.87890625,-43.45703125,-35.15625
-6.8359375,-37.59765625,-41.9921875,-42.96875
-13.18359375,-28.80859375,-43.45703125,-17.08984375
-43.9453125,-51.7578125,-41.015625,-13.671875
-40.52734375,-73.73046875,-42.48046875,-23.4375
-20.01953125,-45.8984375,-46.875,-20.99609375
-42.48046875,-62.01171875,-45.8984375,-33.69140625
-56.15234375,-84.47265625,-46.38671875,-43.45703125
-42.96875,-79.58984375,-43.45703125,-21.97265625
-56.640625,-24.4140625,-47.8515625,-21.484375
-51.7578125,-12.6953125,-55.17578125,-23.92578125
-50.78125,-53.22265625,-54.6875,-22.4609375
-65.91796875,-82.51953125,-50.78125,-32.2265625
-40.0390625,-70.3125,-50.29296875,-30.2734375
-46.875,8.7890625,-46.38671875,-26.85546875
-57.6171875,-23.4375,-40.0390625,-24.90234375
-47.36328125,-74.70703125,-41.015625,-33.203125
-53.22265625,-35.64453125,-42.48046875,-38.57421875
-50.78125,-85.9375,-47.36328125,-32.71484375
-46.875,-47.8515625,-51.26953125,-23.4375
-36.1328125,9.27734375,-46.38671875,-13.671875
-36.1328125,-50.78125,-45.8984375,-30.76171875
-47.8515625,-96.6796875,-52.734375,-43.9453125
-41.50390625,-77.1484375,-53.22265625,-35.64453125
-54.19921875,-34.66796875,-51.7578125,-26.85546875
-48.828125,-8.7890625,-49.31640625,-40.0390625
-25.87890625,-13.671875,-46.875,-43.9453125
-38.0859375,-87.890625,-43.45703125,-41.50390625
-49.8046875,-106.93359375,-47.8515625,-45.41015625
-71.2890625,-18.06640625,-50.29296875,-47.8515625
-62.98828125,-12.6953125,-48.33984375,-39.0625
-32.71484375,-30.2734375,-44.43359375,-33.69140625
-29.296875,-26.3671875,-39.0625,-43.45703125
-39.0625,-90.8203125,-41.015625,-31.73828125
-56.15234375,-62.5,-46.38671875,-30.2734375
-49.31640625,0.9765625,-41.50390625,-33.203125
-52.24609375,-46.38671875,-37.59765625,-25.390625
-59.08203125,-72.265625,-44.43359375,-37.109375
-41.9921875,-42.48046875,-46.875,-34.1796875
-54.6875,-76.171875,-44.43359375,-22.94921875
-48.33984375,-51.26953125,-45.8984375,-33.69140625
-43.45703125,-28.3203125,-47.8515625,-42.48046875
-66.40625,-54.19921875,-48.828125,-39.0625
-36.62109375,-68.359375,-45.41015625,-41.015625
-34.1796875,-71.2890625,-48.828125,-48.33984375
-44.43359375,-8.30078125,-46.875,-38.0859375
-28.80859375,26.85546875,-41.50390625,-25.87890625
-26.3671875,-27.34375,-46.38671875,-35.64453125
-35.64453125,-120.1171875,-49.31640625,-35.15625
-31.73828125,-55.6640625,-47.36328125,-30.2734375
-38.57421875,50.29296875,-48.33984375,-42.96875
-37.109375,-25.390625,-48.33984375,-44.43359375
-19.53125,-92.7734375,-46.875,-46.38671875
-27.83203125,-85.44921875,-49.8046875,-43.45703125
-37.59765625,-69.82421875,-51.7578125,-30.2734375
-39.55078125,-23.92578125,-47.8515625,-26.85546875
-28.3203125,-11.23046875,-47.8515625,-25.390625
-20.99609375,-32.71484375,-51.26953125,-33.203125
-28.80859375,-77.1484375,-49.31640625,-41.50390625
-26.3671875,-83.984375,-46.38671875,-35.64453125
-26.3671875,-32.71484375,-48.828125,-40.0390625
-24.90234375,18.5546875,-46.38671875,-51.7578125
-33.203125,-8.30078125,-43.45703125,-42.96875
-32.2265625,-72.265625,-43.9453125,-42.96875
-29.296875,-101.07421875,-41.50390625,-49.8046875
-30.76171875,-63.96484375,-43.45703125,-33.203125
-21.484375,-17.578125,-48.33984375,-32.71484375
-20.5078125,-35.15625,-49.8046875,-45.41015625
-21.484375,-50.29296875,-45.41015625,-52.24609375
-21.97265625,-66.40625,-43.45703125,-46.38671875
-36.62109375,-61.03515625,-45.41015625,-33.69140625
-21.97265625,-17.08984375,-47.36328125,-30.76171875
-10.7421875,-51.26953125,-43.9453125,-34.1796875
-30.2734375,-66.40625,-38.57421875,-32.71484375
-39.0625,-34.1796875,-39.0625,-22.94921875
-31.73828125,-75.68359375,-42.48046875,-14.6484375
-17.08984375,-36.62109375,-41.015625,-12.6953125
-33.203125,-8.30078125,-39.0625,-24.4140625
-26.3671875,-102.5390625,-42.96875,-42.48046875
-18.5546875,-89.84375,-45.8984375,-41.015625
-31.73828125,-68.359375,-46.875,-26.3671875
-21.97265625,-26.3671875,-48.33984375,-26.85546875
-14.6484375,-9.27734375,-47.36328125,-32.71484375
-10.25390625,-72.75390625,-48.828125,-33.203125
-21.484375,-97.16796875,-50.29296875,-32.71484375
-21.484375,-57.12890625,-50.78125,-42.48046875
-19.53125,28.3203125,-51.7578125,-40.52734375
-27.34375,-25.87890625,-51.7578125,-44.43359375
-20.5078125,-101.5625,-53.7109375,-55.17578125
-30.2734375,-81.0546875,-53.22265625,-48.33984375
-35.64453125,-73.73046875,-54.6875,-43.9453125
-49.31640625,-7.32421875,-56.640625,-47.36328125
-29.78515625,-1.46484375,-53.22265625,-54.19921875
-27.34375,-94.7265625,-49.31640625,-57.12890625
-49.8046875,-77.1484375,-50.78125,-39.55078125
-29.78515625,-77.63671875,-50.78125,-22.94921875
-35.64453125,-50.78125,-47.8515625,-34.1796875
-37.59765625,-7.8125,-47.8515625,-39.55078125
-27.34375,-2.9296875,-49.8046875,-35.15625
-39.0625,-95.703125,-49.8046875,-40.0390625
-37.59765625,-128.41796875,-48.33984375,-49.8046875
-37.59765625,-27.34375,-50.29296875,-43.9453125
-41.9921875,-3.41796875,-49.8046875,-49.8046875
-20.5078125,-38.57421875,-47.8515625,-45.8984375
-25.390625,-75.68359375,-47.36328125,-43.45703125
-37.109375,-107.421875,-46.875,-43.45703125
-26.85546875,-26.85546875,-54.6875,-38.57421875
-17.08984375,27.83203125,-50.78125,-41.9921875
-21.484375,-41.9921875,-45.8984375,-42.96875
-20.5078125,-60.546875,-47.8515625,-41.50390625
-22.94921875,-36.62109375,-47.36328125,-44.43359375
-41.9921875,-59.5703125,-48.828125,-48.33984375
-43.45703125,-59.08203125,-46.875,-38.57421875
-27.34375,-29.78515625,-44.43359375,-37.109375
-36.1328125,-75.68359375,-46.875,-46.875
-42.48046875,-104.4921875,-42.96875,-49.31640625
-42.48046875,-50.78125,-42.48046875,-47.8515625
-27.34375,2.44140625,-46.38671875,-30.76171875
-23.4375,-40.52734375,-49.31640625,-23.92578125
-44.921875,-77.1484375,-56.15234375,-46.38671875
-37.59765625,-53.22265625,-55.6640625,-42.96875
-41.9921875,-10.7421875,-52.24609375,-33.69140625
-37.59765625,11.71875,-48.33984375,-31.73828125
-34.66796875,-23.92578125,-43.9453125,-32.2265625
-37.59765625,-89.84375,-42.48046875,-42.96875
-30.2734375,-115.234375,-41.015625,-46.38671875
-38.0859375,-67.3828125,-42.96875,-44.921875
-38.0859375,-14.16015625,-41.015625,-38.0859375
-32.2265625,-29.296875,-39.55078125,-31.25
-28.80859375,-68.84765625,-41.9921875,-28.80859375
-32.71484375,-71.2890625,-37.59765625,-30.2734375
-38.57421875,-49.8046875,-41.50390625,-27.34375
-37.109375,0.9765625,-46.875,-28.80859375
-32.71484375,26.3671875,-47.36328125,-40.0390625
-34.1796875,-13.18359375,-43.9453125,-39.55078125
-29.78515625,-117.1875,-41.50390625,-36.62109375
-38.57421875,-93.26171875,-42.48046875,-45.8984375
-41.50390625,3.41796875,-41.9921875,-42.96875
-36.62109375,-32.2265625,-41.50390625,-28.80859375
-39.0625,-80.56640625,-41.9921875,-30.2734375
-34.66796875,-66.89453125,-45.41015625,-40.52734375
-35.15625,-51.7578125,-47.8515625,-39.55078125
-45.41015625,-16.11328125,-41.50390625,-34.66796875
-33.203125,4.8828125,-38.0859375,-44.43359375
-39.55078125,-56.640625,-45.41015625,-42.48046875
-37.109375,-59.5703125,-47.36328125,-34.66796875
-42.96875,-17.578125,-46.875,-39.0625
-62.5,-46.38671875,-47.36328125,-45.8984375
-44.43359375,-52.734375,-44.43359375,-47.36328125
-26.85546875,-56.640625,-45.41015625,-42.96875
-43.9453125,-102.05078125,-49.31640625,-43.45703125
-62.01171875,-78.125,-50.29296875,-39.0625
-54.6875,-17.08984375,-49.8046875,-40.0390625
-44.43359375,-23.92578125,-48.828125,-44.921875
-54.6875,-51.26953125,-50.78125,-48.33984375
-55.17578125,-65.91796875,-55.6640625,-56.15234375
-64.453125,-91.30859375,-53.7109375,-62.01171875
-74.21875,-21.484375,-47.36328125,-49.8046875
-52.24609375,41.015625,-48.828125,-43.9453125
-35.64453125,-67.3828125,-54.6875,-58.10546875
-45.41015625,-107.421875,-55.6640625,-53.7109375
-62.5,-75.68359375,-50.29296875,-50.78125
-66.89453125,-35.15625,-44.921875,-51.26953125
-55.17578125,11.23046875,-39.0625,-41.9921875
-28.3203125,-21.97265625,-38.0859375,-39.0625
-24.90234375,-76.171875,-42.48046875,-47.36328125
-34.66796875,-84.9609375,-41.50390625,-54.6875
-55.17578125,-35.64453125,-43.9453125,-43.45703125
-52.734375,-37.59765625,-43.9453125,-30.76171875
-51.26953125,-30.2734375,-43.45703125,-41.9921875
-61.5234375,-27.83203125,-41.015625,-49.31640625
-56.640625,-114.2578125,-38.0859375,-39.0625
-80.56640625,-101.5625,-43.9453125,-41.015625
-69.3359375,-8.30078125,-44.921875,-37.109375
-45.8984375,-15.625,-47.36328125,-34.66796875
-58.10546875,-68.84765625,-50.29296875,-47.36328125
-62.5,-72.75390625,-43.9453125,-47.36328125
-58.10546875,-41.9921875,-43.9453125,-45.8984375
-58.10546875,-18.06640625,-46.875,-41.50390625
-37.59765625,-12.20703125,-48.828125,-40.0390625
-52.734375,-69.3359375,-50.78125,-43.45703125
-63.96484375,-88.8671875,-50.29296875,-47.36328125
-41.9921875,-6.8359375,-46.38671875,-48.828125
-50.29296875,-16.6015625,-43.9453125,-33.203125
-53.22265625,-49.8046875,-47.36328125,-25.87890625
-63.96484375,-51.7578125,-44.921875,-24.4140625
-61.5234375,-80.56640625,-42.96875,-32.2265625
-47.8515625,-49.8046875,-42.96875,-39.55078125
-51.7578125,-19.04296875,-41.015625,-26.3671875
-47.36328125,-22.4609375,-40.0390625,-32.71484375
-39.0625,-34.66796875,-40.0390625,-46.875
-47.36328125,-67.87109375,-44.921875,-47.8515625
-61.03515625,-75.1953125,-47.36328125,-44.43359375
-72.265625,-29.296875,-44.921875,-31.73828125
-53.22265625,39.0625,-37.109375,-30.2734375
-50.29296875,-40.52734375,-45.8984375,-41.50390625
-77.63671875,-112.79296875,-56.15234375,-49.31640625
-60.546875,-73.2421875,-50.29296875,-45.8984375
-50.78125,-50.29296875,-51.7578125,-38.57421875
-63.4765625,-27.83203125,-52.734375,-39.55078125
-69.82421875,-40.0390625,-51.26953125,-51.7578125
-60.05859375,-58.10546875,-50.78125,-55.17578125
-56.640625,-74.21875,-51.26953125,-43.45703125
-69.3359375,-49.31640625,-47.8515625,-35.64453125
-50.78125,-8.7890625,-47.36328125,-32.71484375
-50.29296875,-12.6953125,-50.78125,-42.48046875
-54.19921875,-34.1796875,-48.828125,-51.26953125
-43.45703125,-87.890625,-48.33984375,-41.50390625
-65.4296875,-76.171875,-50.78125,-38.0859375
-52.24609375,-12.6953125,-56.15234375,-40.52734375
-40.52734375,-21.484375,-52.734375,-38.57421875
-44.921875,-61.03515625,-48.33984375,-44.921875
-67.87109375,-80.078125,-50.78125,-46.38671875
-64.94140625,-63.96484375,-52.734375,-40.0390625
-45.8984375,-23.4375,-53.7109375,-41.50390625
-45.41015625,-38.0859375,-54.19921875,-45.8984375
-39.55078125,-62.98828125,-51.7578125,-44.43359375
-44.921875,-55.17578125,-48.33984375,-45.41015625
-61.5234375,-26.3671875,-48.828125,-52.734375
-70.3125,-41.50390625,-46.38671875,-52.734375
-62.98828125,-41.015625,-50.29296875,-47.8515625
-62.98828125,-57.6171875,-50.29296875,-56.15234375
-63.4765625,-96.6796875,-46.875,-59.5703125
-65.91796875,-83.0078125,-42.96875,-49.8046875
-66.40625,-24.90234375,-43.9453125,-41.015625
-33.69140625,-19.04296875,-43.9453125,-36.62109375
-25.390625,-58.10546875,-38.57421875,-40.52734375
-40.52734375,-73.73046875,-43.45703125,-49.31640625
-57.12890625,-108.88671875,-48.33984375,-46.38671875
-38.0859375,-22.4609375,-46.875,-36.1328125
-21.484375,34.66796875,-49.31640625,-37.109375
-25.87890625,-74.70703125,-59.08203125,-56.640625
-28.3203125,-120.1171875,-60.546875,-53.22265625
-49.8046875,-86.9140625,-56.15234375,-43.45703125
-39.55078125,-32.71484375,-54.6875,-41.015625
-40.52734375,7.32421875,-57.12890625,-45.41015625
-52.24609375,-30.76171875,-57.12890625,-54.6875
-46.38671875,-89.35546875,-50.78125,-51.7578125
-43.9453125,-85.9375,-48.33984375,-44.921875
-45.8984375,-29.78515625,-52.24609375,-46.38671875
-50.29296875,-19.04296875,-47.8515625,-43.9453125
-41.9921875,-36.62109375,-43.9453125,-42.96875
-37.59765625,-26.85546875,-51.26953125,-51.7578125
-40.52734375,-48.33984375,-48.33984375,-49.31640625
-40.52734375,-71.2890625,-42.48046875,-41.50390625
-35.15625,-40.0390625,-43.9453125,-43.9453125
-35.15625,-42.96875,-42.96875,-51.7578125
-42.48046875,-55.6640625,-42.48046875,-48.33984375
-40.52734375,-55.6640625,-45.8984375,-49.8046875
-45.8984375,-46.38671875,-47.8515625,-48.33984375
-42.48046875,-24.4140625,-43.9453125,-43.45703125
-20.5078125,-24.4140625,-43.45703125,-41.9921875
-31.73828125,-75.1953125,-48.33984375,-45.8984375
-45.41015625,-84.9609375,-49.8046875,-51.7578125
-31.73828125,-21.484375,-43.45703125,-39.55078125
-30.76171875,-38.0859375,-46.38671875,-41.50390625
-32.71484375,-21.97265625,-49.31640625,-47.8515625
-36.62109375,-44.921875,-47.36328125,-44.43359375
-43.9453125,-109.375,-46.875,-44.43359375
-56.15234375,-59.5703125,-48.828125,-49.31640625
-57.6171875,1.46484375,-48.828125,-45.8984375
-48.828125,3.41796875,-46.38671875,-45.8984375
-43.9453125,-54.6875,-43.9453125,-44.921875
-40.52734375,-88.8671875,-47.36328125,-48.33984375
-52.734375,-64.453125,-50.78125,-46.38671875
-53.7109375,-10.7421875,-44.43359375,-38.0859375
-47.8515625,17.578125,-39.55078125,-46.875
-40.52734375,-63.4765625,-41.50390625,-49.31640625
-33.69140625,-122.0703125,-46.38671875,-40.0390625
-51.26953125,-78.61328125,-44.43359375,-43.45703125
-60.546875,-26.85546875,-39.55078125,-42.48046875
-53.22265625,24.90234375,-43.9453125,-41.9921875
-37.59765625,-20.99609375,-41.9921875,-37.109375
-37.109375,-128.41796875,-42.96875,-40.52734375
-53.7109375,-97.16796875,-48.33984375,-52.24609375
-66.89453125,-35.64453125,-52.24609375,-52.734375
-47.8515625,-8.30078125,-49.8046875,-49.31640625
-48.33984375,-35.15625,-41.015625,-51.7578125
-57.12890625,-59.08203125,-34.66796875,-52.734375
-59.5703125,-89.35546875,-38.57421875,-48.33984375
-53.7109375,-72.75390625,-43.45703125,-39.0625
-44.921875,-6.34765625,-41.50390625,-42.48046875
-43.9453125,-21.484375,-43.45703125,-52.24609375
-39.55078125,-57.6171875,-48.828125,-62.5
-49.31640625,-54.19921875,-48.828125,-55.6640625
-57.12890625,-16.11328125,-47.36328125,-49.31640625
-51.7578125,10.7421875,-42.48046875,-44.43359375
-44.43359375,-15.13671875,-40.0390625,-40.0390625
-35.64453125,-89.84375,-41.50390625,-44.921875
-40.0390625,-81.54296875,-45.41015625,-53.22265625
-47.8515625,10.7421875,-49.8046875,-55.6640625
-44.921875,-22.94921875,-51.26953125,-47.8515625
-47.8515625,-55.17578125,-51.7578125,-50.78125
-39.0625,-48.33984375,-48.828125,-51.26953125
-38.57421875,-86.9140625,-45.41015625,-43.45703125
-50.78125,-59.5703125,-47.8515625,-42.48046875
-39.55078125,-4.8828125,-48.828125,-36.62109375
-25.87890625,-7.8125,-41.9921875,-18.06640625
-17.08984375,-63.4765625,-36.1328125,-19.53125
-27.34375,-89.84375,-39.55078125,-41.50390625
-41.015625,-62.01171875,-48.33984375,-42.48046875
-55.6640625,-11.23046875,-51.7578125,-43.9453125
-44.43359375,24.4140625,-47.36328125,-47.8515625
-31.25,-42.96875,-51.26953125,-48.828125
-45.8984375,-123.046875,-55.6640625,-54.6875
-45.41015625,-77.63671875,-50.78125,-46.875
-50.78125,-25.87890625,-53.22265625,-41.015625
-41.9921875,-33.69140625,-49.31640625,-43.9453125
-39.55078125,-60.05859375,-44.921875,-52.734375
-59.08203125,-92.28515625,-50.78125,-76.171875
-59.08203125,-69.82421875,-48.828125,-62.5
-57.12890625,0.48828125,-39.55078125,-40.0390625
-42.96875,-10.25390625,-38.57421875,-54.6875
-35.64453125,-47.36328125,-40.52734375,-56.640625
-60.546875,-37.109375,-42.48046875,-52.24609375
-61.03515625,-91.30859375,-42.96875,-47.36328125
-49.8046875,-33.203125,-46.38671875,-42.96875
-46.875,26.85546875,-44.43359375,-39.0625
-40.52734375,-81.54296875,-40.52734375,-36.62109375
-42.96875,-109.375,-44.43359375,-40.52734375
-49.8046875,-73.2421875,-43.9453125,-34.1796875
-49.31640625,-10.7421875,-42.48046875,-31.73828125
-41.015625,6.8359375,-41.9921875,-22.94921875
-46.38671875,-36.62109375,-38.0859375,-28.3203125
-40.0390625,-86.42578125,-42.48046875,-39.0625
-43.9453125,-67.87109375,-50.78125,-36.62109375
-46.38671875,32.2265625,-46.38671875,-40.0390625
-32.2265625,4.39453125,-42.96875,-37.59765625
-27.83203125,-64.453125,-41.50390625,-38.57421875
-26.85546875,-65.4296875,-38.57421875,-39.0625
-39.0625,-61.5234375,-40.0390625,-46.875
-60.05859375,-47.8515625,-47.36328125,-42.96875
-54.19921875,-5.37109375,-45.8984375,-34.1796875
-44.43359375,-43.9453125,-36.1328125,-44.43359375
-38.57421875,-75.68359375,-38.0859375,-44.921875
-53.7109375,-80.078125,-47.36328125,-39.55078125
-65.4296875,-41.50390625,-50.78125,-41.015625
-58.10546875,6.34765625,-47.36328125,-47.36328125
-64.94140625,7.32421875,-41.015625,-48.828125
-52.24609375,-56.15234375,-44.43359375,-44.921875
-42.96875,-126.953125,-48.33984375,-45.41015625
-66.40625,-79.58984375,-44.43359375,-40.0390625
-62.98828125,-2.9296875,-42.96875,-40.0390625
-56.15234375,-27.34375,-48.33984375,-40.0390625
-62.5,-75.1953125,-50.78125,-41.50390625
-67.87109375,-99.609375,-50.78125,-47.36328125
-59.5703125,-54.6875,-48.33984375,-45.8984375
-60.05859375,9.765625,-50.29296875,-47.36328125
-63.96484375,-42.48046875,-53.22265625,-52.24609375
-47.36328125,-59.5703125,-45.41015625,-43.45703125
-43.9453125,-46.875,-44.43359375,-44.921875
-58.10546875,-94.23828125,-49.31640625,-51.26953125
-68.84765625,-57.12890625,-52.734375,-48.828125
-61.03515625,-9.765625,-46.38671875,-43.45703125
-78.125,-74.70703125,-44.43359375,-49.8046875
-81.54296875,-74.21875,-47.8515625,-62.98828125
-73.73046875,-61.5234375,-49.8046875,-48.33984375
-67.87109375,-46.38671875,-55.17578125,-35.64453125
-59.5703125,-21.97265625,-56.640625,-44.921875
-82.03125,-47.36328125,-60.05859375,-60.05859375
-72.75390625,-75.68359375,-59.08203125,-57.12890625
-69.3359375,-65.4296875,-58.10546875,-46.875
-68.84765625,-21.484375,-59.5703125,-46.875
-44.43359375,-26.85546875,-53.7109375,-41.9921875
-54.19921875,-75.68359375,-53.22265625,-47.8515625
-63.96484375,-91.796875,-57.12890625,-54.6875
-68.359375,-64.453125,-58.10546875,-49.31640625
-72.75390625,-37.59765625,-50.78125,-47.8515625
-55.6640625,-14.6484375,-47.36328125,-44.43359375
-62.01171875,-26.85546875,-45.8984375,-47.36328125
-69.3359375,-70.80078125,-44.43359375,-54.19921875
-66.40625,-81.0546875,-49.31640625,-44.921875
-61.03515625,-28.80859375,-46.38671875,-39.55078125
-60.546875,3.41796875,-43.45703125,-36.1328125
-50.29296875,8.7890625,-49.31640625,-38.0859375
-51.26953125,-86.42578125,-48.828125,-51.26953125
-64.94140625,-104.4921875,-46.875,-50.29296875
-66.40625,-31.25,-44.43359375,-57.12890625
-69.3359375,-47.8515625,-45.41015625,-60.546875
-69.3359375,-41.50390625,-47.8515625,-58.59375
-56.15234375,-49.8046875,-48.33984375,-56.640625
-56.15234375,-87.40234375,-44.921875,-48.33984375
-56.640625,-51.7578125,-42.96875,-43.9453125
-50.29296875,-16.6015625,-47.8515625,-43.45703125
-61.03515625,-37.59765625,-50.29296875,-34.66796875
-51.26953125,-43.45703125,-47.8515625,-37.109375
-41.50390625,-53.7109375,-44.43359375,-47.8515625
-45.41015625,-79.1015625,-45.41015625,-40.0390625
-64.94140625,-20.99609375,-45.41015625,-38.0859375
-61.03515625,-11.23046875,-48.828125,-41.9921875
-40.0390625,-61.5234375,-53.7109375,-40.0390625
-51.7578125,-52.734375,-45.8984375,-49.31640625
-78.61328125,-44.43359375,-48.33984375,-61.5234375
-74.21875,-56.15234375,-48.828125,-51.26953125
-56.15234375,-37.59765625,-42.48046875,-45.8984375
-48.33984375,-56.15234375,-45.41015625,-57.12890625
-54.6875,-99.12109375,-46.875,-61.03515625
-59.08203125,-48.828125,-47.8515625,-50.29296875
-58.10546875,23.92578125,-45.8984375,-43.45703125
-54.6875,-45.8984375,-48.828125,-57.6171875
-46.875,-91.30859375,-51.26953125,-65.4296875
-56.640625,-73.2421875,-53.22265625,-58.59375
-80.078125,-64.453125,-56.15234375,-56.15234375
-85.9375,-16.11328125,-52.734375,-55.17578125
-75.68359375,-12.20703125,-45.8984375,-55.6640625
-65.4296875,-61.5234375,-48.828125,-59.08203125
-51.7578125,-57.6171875,-43.45703125,-49.8046875
-57.6171875,-45.41015625,-38.57421875,-43.9453125
-58.59375,-46.38671875,-45.8984375,-44.43359375
-55.17578125,-25.390625,-43.45703125,-31.25
-53.7109375,0.48828125,-39.55078125,-33.69140625
-53.7109375,-82.03125,-44.921875,-44.43359375
-60.05859375,-124.0234375,-41.50390625,-35.15625
-50.29296875,-42.48046875,-41.9921875,-32.2265625
-41.015625,8.7890625,-44.43359375,-34.1796875
-42.48046875,-23.92578125,-39.0625,-40.0390625
-42.48046875,-74.70703125,-44.921875,-49.8046875
-49.31640625,-81.54296875,-55.17578125,-47.8515625
-70.3125,-42.96875,-53.7109375,-41.9921875
-60.05859375,-15.13671875,-48.33984375,-38.0859375
-52.734375,-39.0625,-44.921875,-40.52734375
-65.4296875,-71.77734375,-39.0625,-55.6640625
-74.21875,-62.98828125,-44.43359375,-56.15234375
-80.56640625,-14.6484375,-51.26953125,-46.875
-80.078125,-19.04296875,-47.36328125,-52.24609375
-80.078125,-59.08203125,-44.43359375,-65.91796875
-89.84375,-71.2890625,-46.38671875,-58.59375
-96.6796875,-71.77734375,-48.33984375,-47.36328125
-104.00390625,-52.734375,-51.26953125,-41.9921875
-108.88671875,-20.99609375,-48.828125,-39.0625
-99.609375,-12.6953125,-42.96875,-36.1328125
-84.47265625,-51.26953125,-41.50390625,-34.1796875
-87.890625,-88.37890625,-43.9453125,-41.50390625
-98.6328125,-42.96875,-52.24609375,-46.875
-84.9609375,27.83203125,-51.7578125,-47.8515625
-76.171875,-55.6640625,-45.41015625,-41.9921875
-78.61328125,-91.796875,-48.33984375,-54.19921875
-84.9609375,-81.54296875,-50.29296875,-59.5703125
-83.0078125,-101.07421875,-52.24609375,-42.48046875
-74.70703125,-26.3671875,-52.734375,-41.9921875
-70.80078125,-5.37109375,-48.33984375,-45.41015625
-59.08203125,-44.921875,-52.24609375,-50.29296875
-70.80078125,-94.23828125,-57.6171875,-61.5234375
-88.37890625,-77.1484375,-55.6640625,-62.5
-90.8203125,-19.53125,-54.6875,-62.5
-73.73046875,1.953125,-51.7578125,-68.359375
-66.89453125,-15.13671875,-48.828125,-63.4765625
-74.70703125,-100.5859375,-50.29296875,-61.5234375
-87.40234375,-129.8828125,-45.8984375,-59.5703125
-95.703125,-61.03515625,-46.38671875,-50.29296875
-74.70703125,-20.5078125,-49.8046875,-46.38671875
-64.453125,-41.015625,-47.36328125,-48.828125
-81.54296875,-59.5703125,-48.828125,-47.8515625
-94.23828125,-76.66015625,-51.26953125,-44.43359375
-88.8671875,-44.921875,-45.8984375,-46.38671875
-74.21875,-27.83203125,-40.52734375,-37.59765625
-83.984375,-42.48046875,-45.8984375,-48.33984375
-79.1015625,-55.17578125,-46.38671875,-55.6640625
-74.70703125,-48.828125,-45.41015625,-45.41015625
-82.51953125,-35.15625,-46.38671875,-47.8515625
-80.56640625,-43.45703125,-47.36328125,-48.33984375
-82.03125,-30.2734375,-45.41015625,-50.29296875
-80.078125,-62.5,-41.9921875,-60.546875
-78.61328125,-81.0546875,-46.875,-63.4765625
-86.42578125,-34.1796875,-49.8046875,-56.15234375
-75.1953125,-31.25,-47.36328125,-53.7109375
-67.87109375,-20.5078125,-46.38671875,-54.19921875
-66.40625,-32.71484375,-43.45703125,-49.31640625
-70.3125,-103.515625,-45.8984375,-48.828125
-80.56640625,-59.08203125,-51.26953125,-44.43359375
-76.171875,30.2734375,-50.78125,-41.015625
-69.82421875,-19.53125,-48.33984375,-48.828125
-53.22265625,-95.21484375,-45.8984375,-45.41015625
-68.84765625,-91.796875,-51.26953125,-35.15625
-87.40234375,-62.01171875,-50.78125,-41.015625
-80.56640625,-16.11328125,-45.41015625,-41.9921875
-82.03125,-21.484375,-47.8515625,-44.921875
-57.12890625,-66.40625,-49.31640625,-56.640625
-52.24609375,-100.5859375,-51.26953125,-61.03515625
-68.359375,-76.171875,-49.31640625,-51.7578125
-58.59375,-14.6484375,-46.38671875,-43.9453125
-68.359375,-14.16015625,-41.9921875,-49.8046875
-59.08203125,-19.04296875,-38.57421875,-52.24609375
-53.22265625,-71.77734375,-42.96875,-56.15234375
-72.265625,-128.90625,-48.828125,-49.8046875
-76.171875,-37.109375,-49.31640625,-51.26953125
-46.38671875,-3.41796875,-48.828125,-69.82421875
-46.875,-67.3828125,-45.41015625,-56.640625
-60.05859375,-92.7734375,-44.43359375,-45.41015625
-70.80078125,-58.59375,-54.6875,-43.45703125
-54.19921875,-29.296875,-58.59375,-41.9921875
-49.31640625,-40.52734375,-52.734375,-41.9921875
-61.03515625,-51.26953125,-48.828125,-37.109375
-50.78125,-75.1953125,-48.828125,-38.57421875
-60.05859375,-58.59375,-48.33984375,-27.83203125
-61.5234375,-47.36328125,-49.31640625,-24.90234375
-51.26953125,-40.52734375,-49.31640625,-29.78515625
-62.98828125,-25.87890625,-48.33984375,-38.57421875
-52.734375,-76.66015625,-50.78125,-44.921875
-46.38671875,-94.23828125,-50.29296875,-44.43359375
-64.94140625,-55.6640625,-44.43359375,-47.36328125
-62.98828125,-11.71875,-43.45703125,-44.921875
-48.33984375,-36.1328125,-47.8515625,-50.78125
-37.59765625,-82.51953125,-46.38671875,-50.78125
-28.80859375,-86.9140625,-47.36328125,-49.8046875
-8.30078125,-23.4375,-44.921875,-52.24609375
4.8828125,41.9921875,-38.0859375,-47.36328125
-8.7890625,-37.109375,-36.62109375,-49.31640625
0.48828125,-99.609375,-42.96875,-50.29296875
-5.859375,-73.73046875,-44.43359375,-45.41015625
-20.5078125,-60.546875,-40.0390625,-48.828125
-15.13671875,-2.9296875,-38.0859375,-43.45703125
-14.6484375,-5.37109375,-39.0625,-43.9453125
0.0,-87.40234375,-46.875,-41.50390625
-26.85546875,-95.21484375,-45.8984375,-48.33984375
-33.203125,-61.5234375,-43.9453125,-54.6875
-10.25390625,-7.32421875,-47.36328125,-46.38671875
-11.23046875,-0.9765625,-45.8984375,-49.31640625
-9.765625,-14.6484375,-41.50390625,-44.921875
-11.23046875,-93.26171875,-42.48046875,-43.9453125
-27.83203125,-110.3515625,-45.8984375,-49.31640625
-42.96875,-26.85546875,-42.96875,-39.55078125
-37.59765625,-9.27734375,-43.9453125,-44.921875
-17.578125,-48.828125,-49.8046875,-59.5703125
-30.2734375,-83.984375,-52.24609375,-56.640625
-45.41015625,-71.2890625,-52.734375,-44.43359375
-41.015625,-4.8828125,-49.31640625,-34.66796875
-24.4140625,18.5546875,-45.41015625,-35.15625
-28.3203125,-77.1484375,-44.43359375,-38.57421875
-26.85546875,-75.68359375,-40.52734375,-43.9453125
-29.296875,-26.3671875,-40.0390625,-41.9921875
-42.96875,-57.12890625,-40.52734375,-33.69140625
-36.62109375,-49.31640625,-39.0625,-32.71484375
-36.62109375,-50.29296875,-44.43359375,-38.0859375
-34.66796875,-74.70703125,-47.36328125,-45.8984375
-57.6171875,-77.1484375,-47.8515625,-54.6875
-65.4296875,-25.87890625,-52.734375,-53.7109375
