TP9,AF7,AF8,TP10
-47.8515625,-32.2265625,-48.828125,-37.59765625
-63.4765625,-95.703125,-55.17578125,-41.9921875
-64.453125,-68.84765625,-54.19921875,-38.0859375
-58.10546875,14.16015625,-45.8984375,-19.53125
-55.6640625,32.2265625,-41.9921875,-25.390625
-43.9453125,-7.8125,-37.59765625,-28.3203125
-50.78125,-90.33203125,-41.50390625,-28.80859375
-76.171875,-72.75390625,-45.8984375,-39.55078125
-66.40625,14.6484375,-43.45703125,-40.0390625
-50.78125,-10.25390625,-44.921875,-38.0859375
-60.546875,-42.48046875,-43.45703125,-43.9453125
-76.66015625,-61.5234375,-44.921875,-62.01171875
-94.7265625,-48.828125,-51.7578125,-73.73046875
-101.5625,2.44140625,-51.26953125,-76.66015625
-87.40234375,33.203125,-52.734375,-85.9375
-111.81640625,15.13671875,-57.12890625,-103.515625
-129.8828125,-20.01953125,-56.15234375,-123.046875
-134.27734375,-3.90625,-55.17578125,-131.8359375
-147.4609375,-3.41796875,-62.5,-126.46484375
-123.046875,12.6953125,-65.4296875,-114.2578125
-125.0,18.06640625,-56.640625,-129.39453125
-155.2734375,-25.390625,-49.31640625,-155.76171875
-155.2734375,-24.4140625,-45.41015625,-154.296875
-170.8984375,9.765625,-41.9921875,-148.4375
-167.96875,5.859375,-36.62109375,-155.2734375
-157.71484375,-12.20703125,-32.71484375,-155.76171875
-162.59765625,-52.734375,-30.76171875,-147.4609375
-168.45703125,-73.73046875,-28.3203125,-153.80859375
-179.19921875,-29.296875,-26.3671875,-144.53125
-163.57421875,27.34375,-19.53125,-140.13671875
-174.8046875,-14.16015625,-18.06640625,-149.90234375
-166.50390625,-91.30859375,-14.6484375,-137.20703125
-156.73828125,-95.703125,-11.23046875,-131.34765625
-172.8515625,-58.10546875,-9.27734375,-133.30078125
-152.83203125,-29.78515625,-11.71875,-129.8828125
-146.484375,-46.875,-16.11328125,-138.671875
-154.296875,-83.0078125,-18.06640625,-145.99609375
-127.9296875,-97.65625,-7.32421875,-125.9765625
-137.20703125,-69.3359375,1.46484375,-101.07421875
-160.15625,-58.10546875,-7.8125,-111.328125
-140.13671875,-59.08203125,-7.8125,-105.95703125
-124.51171875,-63.4765625,-6.34765625,-103.02734375
-130.37109375,-118.1640625,-7.8125,-91.30859375
-102.5390625,-151.85546875,0.0,-45.8984375
-73.2421875,-62.5,-5.859375,-48.828125
-82.03125,-28.3203125,-5.859375,-48.828125
-62.98828125,-103.515625,-6.8359375,-30.76171875
-88.8671875,-127.9296875,-0.9765625,-32.71484375
-85.9375,-114.74609375,-4.8828125,-37.59765625
-66.89453125,-58.10546875,-14.6484375,-39.55078125
-44.921875,-10.7421875,-14.6484375,-18.06640625
-25.390625,-64.453125,-7.8125,-19.53125
-50.78125,-109.86328125,-7.32421875,-38.0859375
-53.22265625,-61.5234375,-13.671875,-39.0625
-45.8984375,-41.9921875,-8.7890625,-33.203125
-38.57421875,-73.2421875,-7.8125,-29.78515625
-37.109375,-83.0078125,-13.671875,-26.85546875
-61.03515625,-122.0703125,-14.6484375,-30.76171875
-76.171875,-121.09375,-12.20703125,-40.0390625
-55.17578125,-42.48046875,-13.18359375,-14.6484375
-38.57421875,-22.94921875,-17.578125,3.41796875
-44.921875,-71.2890625,-15.625,-26.3671875
-45.41015625,-85.44921875,-15.625,-42.48046875
-49.8046875,-99.12109375,-17.08984375,-11.23046875
-51.26953125,-53.7109375,-17.578125,5.37109375
-41.015625,12.20703125,-25.390625,-7.8125
-7.8125,-66.89453125,-19.04296875,-4.39453125
-7.32421875,-109.86328125,-28.3203125,-4.8828125
-20.01953125,-104.98046875,-41.50390625,0.9765625
-4.8828125,-104.4921875,-40.0390625,20.5078125
13.18359375,-50.29296875,-39.0625,28.3203125
29.296875,-54.19921875,-40.0390625,20.5078125
33.203125,-82.51953125,-43.9453125,24.90234375
17.578125,-90.33203125,-48.33984375,27.83203125
27.34375,-63.4765625,-46.38671875,30.76171875
18.5546875,-35.15625,-47.8515625,38.0859375
23.92578125,-32.2265625,-54.19921875,39.55078125
50.29296875,-49.31640625,-55.17578125,47.8515625
38.57421875,-114.2578125,-54.19921875,52.24609375
35.15625,-86.9140625,-52.24609375,58.10546875
33.203125,-29.78515625,-55.6640625,60.05859375
26.85546875,-30.76171875,-58.10546875,56.640625
49.31640625,-54.6875,-53.7109375,66.40625
61.03515625,-73.2421875,-52.734375,61.03515625
53.7109375,-78.125,-59.08203125,52.734375
61.03515625,-18.06640625,-60.05859375,62.01171875
62.5,-15.13671875,-57.6171875,55.6640625
44.921875,-79.58984375,-59.08203125,42.48046875
37.59765625,-55.17578125,-62.01171875,40.0390625
39.55078125,-20.5078125,-59.08203125,36.62109375
38.57421875,-50.29296875,-62.5,36.62109375
55.6640625,-28.3203125,-64.94140625,36.1328125
60.05859375,-46.875,-60.05859375,44.921875
36.62109375,-87.40234375,-61.5234375,50.78125
30.76171875,-72.75390625,-62.5,53.22265625
25.390625,-2.44140625,-60.05859375,54.6875
27.34375,18.5546875,-63.96484375,50.29296875
45.41015625,-21.484375,-67.87109375,42.48046875
39.55078125,-54.19921875,-67.87109375,32.2265625
35.64453125,-81.54296875,-65.4296875,34.1796875
38.57421875,-25.390625,-62.5,45.41015625
26.3671875,36.62109375,-62.98828125,41.015625
29.296875,-23.92578125,-67.3828125,17.08984375
32.71484375,-80.56640625,-67.87109375,16.11328125
20.01953125,-64.453125,-63.4765625,26.3671875
12.6953125,-34.1796875,-62.5,20.01953125
10.25390625,-5.859375,-61.03515625,21.97265625
9.765625,-11.23046875,-57.6171875,28.3203125
4.8828125,-41.9921875,-54.6875,11.23046875
-0.48828125,-75.1953125,-56.640625,11.71875
5.859375,-41.015625,-56.640625,5.859375
11.23046875,2.9296875,-53.7109375,-14.16015625
8.7890625,-13.671875,-54.19921875,-14.16015625
1.953125,-34.66796875,-53.7109375,-3.41796875
-18.06640625,-70.3125,-51.26953125,0.0
-22.4609375,-86.9140625,-57.12890625,-11.71875
-21.97265625,-24.4140625,-59.5703125,-21.97265625
-19.04296875,-12.6953125,-53.22265625,-22.4609375
-18.5546875,-62.01171875,-52.734375,-8.7890625
-24.4140625,-82.03125,-57.12890625,-7.8125
-40.0390625,-64.94140625,-64.453125,-4.8828125
-43.45703125,-8.30078125,-65.91796875,-1.46484375
-33.203125,-8.30078125,-63.96484375,-10.7421875
-34.1796875,-78.125,-60.05859375,0.9765625
-45.41015625,-112.79296875,-55.17578125,3.90625
-33.69140625,-16.11328125,-56.15234375,-8.7890625
-34.1796875,0.9765625,-58.10546875,-18.06640625
-47.36328125,-31.73828125,-59.08203125,-24.4140625
-28.3203125,-57.12890625,-54.19921875,-19.53125
-19.53125,-109.375,-53.7109375,-11.71875
-31.25,-71.2890625,-53.22265625,-7.32421875
-44.921875,-13.18359375,-53.22265625,-28.80859375
-43.9453125,1.46484375,-50.29296875,-37.109375
-25.87890625,-62.01171875,-52.24609375,-13.671875
-33.203125,-79.1015625,-57.6171875,-15.625
-45.8984375,-65.91796875,-53.7109375,-32.2265625
-48.33984375,-13.671875,-48.33984375,-29.296875
-26.3671875,25.87890625,-45.41015625,-21.97265625
-31.73828125,-56.640625,-52.24609375,-32.2265625
-32.71484375,-119.140625,-46.38671875,-32.2265625
-36.62109375,-78.61328125,-43.9453125,-17.578125
-28.80859375,-24.90234375,-50.29296875,-24.4140625
-32.71484375,1.46484375,-52.24609375,-42.48046875
-25.87890625,-20.5078125,-53.22265625,-29.296875
-18.06640625,-100.5859375,-52.24609375,-9.765625
-57.6171875,-103.515625,-51.26953125,-16.6015625
-46.38671875,-21.97265625,-49.8046875,-29.78515625
-25.390625,6.34765625,-46.875,-26.3671875
-35.64453125,-36.62109375,-45.8984375,-24.4140625
-35.15625,-50.29296875,-44.921875,-24.4140625
-26.3671875,-92.7734375,-48.828125,-18.5546875
-31.73828125,-71.77734375,-51.26953125,-18.06640625
-30.76171875,1.953125,-52.734375,-28.80859375
-30.2734375,-27.83203125,-53.22265625,-33.69140625
-38.57421875,-71.2890625,-50.78125,-28.3203125
-47.36328125,-80.078125,-47.8515625,-21.484375
-49.31640625,-53.7109375,-50.29296875,-36.1328125
-41.50390625,11.23046875,-51.26953125,-43.45703125
-41.015625,1.953125,-48.828125,-48.828125
-46.38671875,-80.56640625,-49.8046875,-47.8515625
-53.7109375,-61.03515625,-53.22265625,-33.69140625
-58.59375,-27.34375,-57.6171875,-35.64453125
-47.36328125,-22.4609375,-60.05859375,-47.8515625
-36.1328125,-23.92578125,-57.12890625,-53.7109375
-41.9921875,-63.4765625,-53.7109375,-48.828125
-49.8046875,-80.56640625,-51.7578125,-38.0859375
-55.6640625,-61.03515625,-49.8046875,-25.87890625
-49.8046875,-11.23046875,-50.29296875,-30.2734375
-60.546875,0.9765625,-52.24609375,-43.45703125
-66.40625,-53.22265625,-54.19921875,-47.8515625
-41.015625,-77.1484375,-55.17578125,-47.36328125
-50.78125,-62.5,-54.19921875,-37.59765625
-64.94140625,-3.41796875,-49.8046875,-38.0859375
-42.96875,20.99609375,-46.38671875,-38.0859375
-27.83203125,-47.36328125,-48.828125,-36.1328125
-47.36328125,-106.4453125,-53.7109375,-44.921875
-50.78125,-82.51953125,-52.734375,-46.875
-42.96875,-23.92578125,-49.8046875,-49.31640625
-31.25,-7.8125,-49.31640625,-36.62109375
-36.1328125,-50.29296875,-50.78125,-37.59765625
-35.64453125,-83.49609375,-51.26953125,-49.8046875
-37.59765625,-66.89453125,-49.31640625,-38.57421875
-57.6171875,-16.11328125,-53.7109375,-45.41015625
-42.96875,-7.32421875,-54.19921875,-45.41015625
-39.55078125,-28.3203125,-48.33984375,-29.296875
-41.50390625,-58.10546875,-48.33984375,-40.0390625
-50.29296875,-87.40234375,-48.828125,-47.8515625
-46.875,-42.48046875,-43.45703125,-39.55078125
-37.109375,-2.44140625,-37.59765625,-30.2734375
-41.015625,-56.15234375,-39.55078125,-39.55078125
-41.9921875,-85.9375,-42.48046875,-39.55078125
-43.9453125,-85.9375,-46.38671875,-39.55078125
-59.08203125,-23.4375,-50.29296875,-46.875
-60.05859375,11.71875,-43.9453125,-36.62109375
-37.109375,-25.87890625,-41.015625,-38.57421875
-38.57421875,-72.75390625,-44.43359375,-47.8515625
-47.8515625,-71.77734375,-48.828125,-37.59765625
-45.41015625,4.39453125,-59.5703125,-41.9921875
-39.55078125,1.953125,-51.26953125,-40.52734375
-37.109375,-39.0625,-39.0625,-27.83203125
-30.76171875,-66.89453125,-38.0859375,-38.57421875
-45.8984375,-74.70703125,-41.015625,-39.0625
-67.87109375,-34.66796875,-46.38671875,-36.62109375
-51.7578125,26.85546875,-47.36328125,-41.9921875
-30.2734375,-23.4375,-46.38671875,-36.1328125
-37.59765625,-92.28515625,-51.26953125,-33.69140625
-46.38671875,-88.8671875,-54.19921875,-42.96875
-49.31640625,-62.98828125,-50.78125,-47.8515625
-52.734375,-9.27734375,-53.7109375,-46.875
-38.0859375,23.92578125,-53.7109375,-41.9921875
-26.85546875,-54.19921875,-51.7578125,-43.45703125
-42.48046875,-118.1640625,-54.19921875,-52.24609375
-60.546875,-56.640625,-55.17578125,-43.45703125
-51.26953125,-5.37109375,-55.17578125,-40.52734375
-31.25,-8.30078125,-53.7109375,-46.38671875
-32.71484375,-44.921875,-53.7109375,-46.875
-40.52734375,-83.49609375,-53.22265625,-47.36328125
-31.73828125,-56.640625,-55.6640625,-45.41015625
-30.76171875,15.13671875,-59.08203125,-45.8984375
-11.23046875,-8.30078125,-58.10546875,-37.59765625
-5.859375,-34.1796875,-58.10546875,-35.64453125
-29.296875,-46.38671875,-58.59375,-51.26953125
-46.875,-91.30859375,-57.6171875,-50.78125
-47.8515625,-24.90234375,-56.15234375,-34.66796875
-32.2265625,13.18359375,-56.640625,-38.0859375
-32.2265625,-47.36328125,-53.7109375,-60.05859375
-40.52734375,-82.51953125,-51.26953125,-53.7109375
-44.43359375,-66.40625,-54.19921875,-39.0625
-41.50390625,-15.13671875,-49.31640625,-42.48046875
-28.80859375,1.953125,-44.921875,-37.109375
-26.3671875,-29.78515625,-44.921875,-43.9453125
-52.734375,-91.30859375,-45.8984375,-48.33984375
-67.87109375,-95.703125,-52.24609375,-41.9921875
-59.08203125,8.7890625,-51.7578125,-41.50390625
-41.015625,25.87890625,-49.31640625,-28.80859375
-34.66796875,-52.734375,-43.9453125,-30.76171875
-40.52734375,-78.61328125,-46.875,-44.43359375
-44.921875,-85.44921875,-52.24609375,-35.15625
-42.48046875,-24.4140625,-51.7578125,-29.296875
-30.76171875,10.7421875,-49.31640625,-34.66796875
-25.87890625,-24.4140625,-41.50390625,-37.59765625
-30.76171875,-67.3828125,-44.921875,-35.64453125
-25.87890625,-70.3125,-46.38671875,-28.3203125
-17.08984375,-59.5703125,-45.41015625,-26.3671875
-45.41015625,-2.44140625,-47.8515625,-39.0625
-60.05859375,19.04296875,-46.38671875,-50.29296875
-45.41015625,-108.3984375,-39.55078125,-47.8515625
-64.453125,-123.046875,-38.57421875,-58.59375
-91.30859375,-32.2265625,-46.875,-72.75390625
-77.63671875,-21.97265625,-46.875,-74.21875
-52.24609375,-39.55078125,-47.8515625,-68.84765625
-45.8984375,-67.3828125,-48.828125,-62.98828125
-47.36328125,-78.125,-44.921875,-54.6875
-66.89453125,-64.453125,-43.9453125,-49.8046875
-49.31640625,-7.8125,-44.43359375,-44.43359375
-23.4375,-13.18359375,-44.43359375,-40.52734375
-44.43359375,-59.08203125,-43.45703125,-48.33984375
-57.12890625,-57.12890625,-43.45703125,-41.50390625
-57.12890625,-67.3828125,-47.8515625,-42.96875
-56.640625,-41.9921875,-52.734375,-54.19921875
-46.38671875,-18.06640625,-54.6875,-47.36328125
-50.29296875,-63.4765625,-47.36328125,-48.828125
-50.29296875,-87.890625,-44.43359375,-45.41015625
-54.19921875,-46.875,-51.26953125,-43.45703125
-56.640625,-10.25390625,-51.26953125,-41.50390625
-39.55078125,-20.01953125,-50.78125,-35.15625
-24.90234375,-54.19921875,-47.8515625,-38.0859375
-36.1328125,-86.9140625,-48.33984375,-44.921875
-48.828125,-54.19921875,-55.17578125,-45.8984375
-41.015625,21.484375,-53.7109375,-37.109375
-22.4609375,3.90625,-46.38671875,-31.25
-18.06640625,-60.05859375,-46.38671875,-32.2265625
-29.296875,-83.984375,-53.22265625,-35.15625
-34.1796875,-60.05859375,-52.734375,-31.73828125
-34.66796875,-5.37109375,-48.33984375,-27.34375
-27.83203125,6.34765625,-46.38671875,-25.87890625
-27.34375,-30.76171875,-45.8984375,-28.80859375
-30.76171875,-61.5234375,-43.9453125,-28.80859375
-43.45703125,-78.61328125,-44.921875,-20.01953125
-41.9921875,-50.78125,-48.828125,-23.4375
-38.57421875,1.46484375,-50.29296875,-43.45703125
-46.38671875,-12.6953125,-46.38671875,-45.41015625
-47.36328125,-81.0546875,-45.8984375,-35.15625
-50.29296875,-96.6796875,-51.7578125,-34.66796875
-45.41015625,-31.25,-52.24609375,-30.2734375
-33.69140625,5.37109375,-49.8046875,-23.4375
-23.92578125,-27.34375,-49.8046875,-22.94921875
-21.97265625,-74.21875,-47.36328125,-26.3671875
-33.69140625,-60.05859375,-46.875,-17.578125
-35.64453125,-16.11328125,-46.38671875,-3.90625
-41.50390625,-1.953125,-49.8046875,-10.7421875
-25.87890625,-18.06640625,-46.38671875,-22.94921875
-11.71875,-60.05859375,-41.9921875,-20.5078125
-31.73828125,-54.6875,-50.29296875,-22.94921875
-34.66796875,-13.671875,-55.6640625,-22.94921875
-29.296875,-12.20703125,-55.6640625,-23.92578125
-29.296875,-33.203125,-53.7109375,-35.15625
-26.85546875,-66.40625,-54.6875,-36.62109375
-30.76171875,-74.21875,-51.7578125,-43.45703125
-45.41015625,-26.3671875,-45.8984375,-48.33984375
-41.50390625,0.48828125,-44.921875,-34.1796875
-28.3203125,-4.39453125,-43.45703125,-26.3671875
-38.57421875,-39.0625,-42.48046875,-24.90234375
-46.38671875,-83.49609375,-40.52734375,-26.85546875
-40.0390625,-44.43359375,-42.96875,-31.25
-37.59765625,34.1796875,-49.8046875,-29.296875
-29.78515625,-12.20703125,-51.26953125,-25.390625
-22.94921875,-50.78125,-49.31640625,-27.83203125
-34.1796875,-64.453125,-48.33984375,-29.78515625
-41.50390625,-84.9609375,-52.24609375,-34.1796875
-37.109375,-20.5078125,-51.26953125,-39.0625
-27.34375,9.27734375,-49.31640625,-42.96875
-18.06640625,-28.3203125,-51.7578125,-46.38671875
-31.73828125,-95.703125,-48.828125,-41.50390625
-50.78125,-88.8671875,-48.33984375,-35.15625
-41.9921875,-20.99609375,-51.26953125,-36.62109375
-25.390625,1.953125,-46.38671875,-32.2265625
-29.78515625,-26.85546875,-47.8515625,-35.15625
-34.1796875,-95.21484375,-52.734375,-49.31640625
-41.9921875,-111.81640625,-52.24609375,-41.015625
-50.29296875,-30.2734375,-55.17578125,-36.62109375
-40.0390625,-1.46484375,-51.26953125,-44.921875
-37.109375,-37.59765625,-43.9453125,-44.921875
-32.2265625,-55.17578125,-42.96875,-48.828125
-42.96875,-85.9375,-44.43359375,-43.45703125
-46.38671875,-34.66796875,-47.8515625,-36.1328125
-26.85546875,9.765625,-43.45703125,-31.25
-21.97265625,-36.1328125,-34.1796875,-29.296875
-25.87890625,-63.4765625,-33.69140625,-39.55078125
-31.25,-47.8515625,-41.50390625,-39.0625
-36.62109375,-53.7109375,-44.43359375,-33.203125
-28.3203125,-15.625,-41.9921875,-30.76171875
-29.296875,-16.11328125,-41.9921875,-29.296875
-21.484375,-70.3125,-38.0859375,-18.5546875
-25.390625,-84.9609375,-40.52734375,-19.04296875
-48.33984375,-43.9453125,-45.8984375,-38.0859375
-38.0859375,14.6484375,-45.8984375,-29.78515625
-25.390625,12.20703125,-51.26953125,-33.203125
-18.06640625,-54.6875,-49.8046875,-34.1796875
-24.90234375,-99.12109375,-46.875,-32.2265625
-35.64453125,-62.98828125,-45.8984375,-41.015625
-30.2734375,33.69140625,-43.45703125,-37.59765625
-20.01953125,6.34765625,-45.41015625,-31.73828125
-27.83203125,-97.65625,-47.8515625,-28.80859375
-41.9921875,-83.0078125,-46.875,-33.203125
-44.921875,-56.640625,-44.921875,-32.71484375
-42.48046875,-13.671875,-46.875,-36.62109375
-32.2265625,-6.34765625,-50.78125,-40.52734375
-25.87890625,-53.22265625,-50.78125,-37.59765625
-33.203125,-66.40625,-51.26953125,-37.109375
-47.36328125,-62.01171875,-55.17578125,-36.62109375
-40.52734375,-14.16015625,-56.15234375,-34.1796875
-24.90234375,5.859375,-47.8515625,-30.76171875
-18.06640625,-22.94921875,-43.45703125,-29.78515625
-21.484375,-48.33984375,-45.8984375,-27.83203125
-27.83203125,-80.56640625,-43.9453125,-20.5078125
-24.4140625,-33.203125,-42.96875,-12.20703125
-12.20703125,12.6953125,-49.31640625,-14.6484375
-11.71875,-21.97265625,-45.8984375,-28.3203125
-26.3671875,-62.01171875,-43.45703125,-37.109375
-39.55078125,-59.5703125,-48.828125,-35.64453125
-47.36328125,-21.97265625,-52.24609375,-41.50390625
-39.55078125,-5.859375,-49.8046875,-41.50390625
-44.921875,-33.69140625,-47.36328125,-42.96875
-46.38671875,-59.08203125,-41.9921875,-41.50390625
-53.22265625,-41.015625,-41.50390625,-39.0625
-64.94140625,-25.87890625,-47.36328125,-43.9453125
-47.36328125,-5.37109375,-47.36328125,-42.96875
-42.96875,0.0,-44.43359375,-42.48046875
-47.36328125,-74.21875,-44.921875,-30.76171875
-51.7578125,-99.609375,-47.36328125,-20.5078125
-49.31640625,-36.62109375,-47.36328125,-29.296875
-35.15625,14.16015625,-43.45703125,-26.85546875
-31.73828125,-7.8125,-38.57421875,-19.53125
-30.76171875,-56.15234375,-41.9921875,-30.2734375
-44.43359375,-83.0078125,-41.015625,-37.59765625
-59.5703125,-27.34375,-43.45703125,-37.109375
-51.7578125,31.25,-51.7578125,-44.43359375
-46.875,-23.92578125,-48.33984375,-48.828125
-48.33984375,-81.54296875,-47.8515625,-48.828125
-52.734375,-83.0078125,-47.36328125,-42.96875
-51.26953125,-45.41015625,-47.8515625,-32.2265625
-43.45703125,30.76171875,-52.24609375,-37.109375
-30.76171875,23.4375,-47.36328125,-34.66796875
-25.87890625,-74.21875,-45.41015625,-29.296875
-44.43359375,-95.703125,-50.29296875,-34.66796875
-43.45703125,-59.5703125,-49.31640625,-36.1328125
-43.9453125,-4.8828125,-48.33984375,-41.50390625
-47.36328125,6.8359375,-47.36328125,-43.9453125
-46.38671875,-27.34375,-41.50390625,-51.7578125
-58.59375,-90.33203125,-42.48046875,-53.7109375
-62.98828125,-93.26171875,-44.921875,-46.875
-49.8046875,-6.8359375,-40.0390625,-46.38671875
-37.59765625,0.0,-38.57421875,-38.0859375
-47.8515625,-39.55078125,-43.9453125,-38.57421875
-59.08203125,-62.5,-42.48046875,-45.8984375
-55.6640625,-75.1953125,-40.52734375,-43.45703125
-48.33984375,0.0,-46.38671875,-36.1328125
-35.64453125,23.92578125,-49.8046875,-39.0625
-31.25,-76.171875,-48.33984375,-43.45703125
-31.73828125,-86.42578125,-46.875,-43.9453125
-41.015625,-19.53125,-51.7578125,-50.78125
-53.7109375,-26.85546875,-54.6875,-54.19921875
-37.59765625,-23.4375,-48.33984375,-43.9453125
-25.390625,-33.203125,-47.36328125,-42.96875
-53.22265625,-68.84765625,-49.8046875,-71.2890625
-83.0078125,-68.359375,-54.6875,-77.1484375
-81.54296875,-8.7890625,-51.7578125,-63.4765625
-73.73046875,30.2734375,-44.921875,-68.84765625
-87.890625,-4.8828125,-52.734375,-95.21484375
-114.74609375,-54.6875,-53.7109375,-127.44140625
-128.41796875,-70.80078125,-48.33984375,-127.9296875
-143.06640625,-3.41796875,-44.921875,-130.37109375
-157.2265625,48.33984375,-43.9453125,-146.484375
-143.5546875,-6.34765625,-47.36328125,-156.73828125
-152.34375,-81.54296875,-45.8984375,-176.26953125
-169.43359375,-81.0546875,-40.52734375,-179.6875
-160.64453125,-21.484375,-38.57421875,-173.33984375
-146.484375,22.94921875,-35.15625,-166.50390625
-146.97265625,0.48828125,-36.62109375,-160.64453125
-151.85546875,-35.64453125,-36.62109375,-171.875
-162.59765625,-56.640625,-30.76171875,-168.9453125
-175.29296875,-41.015625,-35.15625,-158.203125
-167.48046875,4.39453125,-39.55078125,-159.66796875
-139.16015625,-5.37109375,-32.2265625,-150.390625
-124.51171875,-48.33984375,-30.76171875,-147.94921875
-144.04296875,-96.6796875,-35.64453125,-141.6015625
-145.99609375,-82.51953125,-38.0859375,-121.09375
-124.51171875,3.41796875,-40.52734375,-120.1171875
-107.421875,-12.20703125,-41.50390625,-112.79296875
-89.84375,-73.73046875,-41.9921875,-102.5390625
-87.40234375,-104.00390625,-41.9921875,-101.5625
-79.58984375,-78.61328125,-38.0859375,-83.49609375
-73.2421875,-17.08984375,-48.828125,-77.1484375
-65.4296875,-15.13671875,-59.08203125,-74.21875
-58.10546875,-74.21875,-54.6875,-65.4296875
-63.4765625,-93.26171875,-56.15234375,-68.359375
-51.26953125,-46.875,-53.7109375,-54.19921875
-35.64453125,-37.59765625,-53.22265625,-39.55078125
-30.2734375,-44.43359375,-56.15234375,-44.921875
-23.4375,-53.22265625,-54.6875,-40.0390625
-15.625,-104.4921875,-60.05859375,-24.4140625
-23.92578125,-72.265625,-56.640625,-21.97265625
-13.671875,0.48828125,-52.734375,-14.16015625
-1.953125,-7.8125,-58.59375,-4.39453125
-2.44140625,-49.8046875,-50.78125,-7.32421875
1.953125,-80.56640625,-44.921875,-1.46484375
0.0,-89.35546875,-55.17578125,6.34765625
3.41796875,-34.66796875,-55.6640625,10.25390625
5.37109375,12.20703125,-48.828125,15.13671875
6.8359375,-46.38671875,-45.8984375,16.6015625
6.34765625,-117.67578125,-50.78125,19.53125
-1.46484375,-104.00390625,-55.17578125,20.5078125
1.953125,-32.71484375,-59.5703125,19.53125
13.671875,6.34765625,-61.5234375,22.94921875
20.99609375,-27.83203125,-56.15234375,18.06640625
18.5546875,-86.9140625,-56.15234375,9.765625
1.953125,-77.63671875,-55.6640625,2.9296875
-3.41796875,-18.06640625,-52.734375,0.0
2.44140625,-29.296875,-54.6875,3.90625
6.34765625,-29.78515625,-59.5703125,7.8125
10.7421875,-30.76171875,-60.546875,9.27734375
5.859375,-104.00390625,-60.546875,7.8125
-2.44140625,-63.96484375,-61.03515625,6.34765625
4.39453125,19.04296875,-54.19921875,3.41796875
3.90625,-6.34765625,-49.31640625,5.37109375
1.46484375,-51.26953125,-49.31640625,8.30078125
-8.7890625,-83.0078125,-54.6875,-4.39453125
-9.27734375,-57.12890625,-53.7109375,-9.765625
8.30078125,8.7890625,-47.8515625,-1.953125
5.859375,-7.32421875,-44.921875,0.9765625
-6.34765625,-70.80078125,-48.33984375,-7.32421875
-14.16015625,-73.73046875,-52.24609375,-6.8359375
-20.01953125,-41.015625,-54.19921875,-0.48828125
-18.06640625,-7.8125,-56.15234375,-1.46484375
-6.34765625,-24.90234375,-62.5,-4.8828125
-2.44140625,-85.9375,-62.98828125,-9.27734375
-6.8359375,-87.40234375,-55.17578125,-5.859375
-11.71875,-58.59375,-55.6640625,-0.48828125
-7.8125,-0.9765625,-53.7109375,-0.48828125
1.46484375,4.39453125,-44.921875,-9.27734375
-5.859375,-59.08203125,-40.52734375,-13.18359375
-12.20703125,-93.75,-44.43359375,-16.6015625
-27.83203125,-79.1015625,-51.7578125,-17.08984375
-32.71484375,-20.01953125,-51.7578125,-11.23046875
-12.20703125,30.2734375,-48.33984375,-7.8125
-16.11328125,-56.640625,-56.15234375,-18.06640625
-23.4375,-113.76953125,-58.59375,-23.4375
-31.73828125,-71.2890625,-60.546875,-20.99609375
-36.1328125,-34.1796875,-62.01171875,-26.3671875
-15.13671875,0.0,-56.15234375,-28.80859375
2.44140625,-33.203125,-54.6875,-24.4140625
-13.671875,-77.1484375,-53.22265625,-20.01953125
-34.66796875,-80.56640625,-52.734375,-24.4140625
-27.83203125,-21.97265625,-56.15234375,-24.4140625
-20.01953125,10.7421875,-54.19921875,-15.13671875
-22.94921875,-18.5546875,-53.22265625,-20.01953125
-19.53125,-63.96484375,-56.15234375,-27.83203125
-28.80859375,-82.03125,-54.19921875,-32.71484375
-39.55078125,-54.6875,-51.26953125,-34.1796875
-27.83203125,-17.578125,-50.29296875,-30.76171875
-20.5078125,-20.01953125,-54.19921875,-26.3671875
-13.18359375,-61.03515625,-56.15234375,-33.69140625
-33.203125,-78.125,-53.22265625,-44.43359375
-52.734375,-79.58984375,-51.26953125,-36.1328125
-40.0390625,-16.6015625,-51.26953125,-31.73828125
-28.3203125,-10.7421875,-54.19921875,-35.15625
-27.83203125,-75.68359375,-55.6640625,-39.0625
-37.59765625,-73.73046875,-48.828125,-37.59765625
-37.109375,-11.71875,-51.26953125,-35.15625
-28.80859375,6.34765625,-60.546875,-43.45703125
-25.390625,-41.9921875,-54.19921875,-37.59765625
-14.16015625,-65.91796875,-48.33984375,-24.90234375
-19.53125,-70.80078125,-45.41015625,-19.53125
-35.15625,-62.01171875,-45.8984375,-19.04296875
-31.25,2.44140625,-44.921875,-21.484375
-21.484375,3.41796875,-39.55078125,-21.484375
-27.83203125,-50.29296875,-44.43359375,-34.1796875
-44.43359375,-70.80078125,-47.8515625,-42.48046875
-46.875,-74.21875,-43.9453125,-39.0625
-31.25,-14.16015625,-44.921875,-31.73828125
-27.83203125,27.34375,-50.29296875,-33.69140625
-36.1328125,-51.26953125,-47.36328125,-35.15625
-39.0625,-107.91015625,-41.015625,-37.109375
-41.50390625,-60.05859375,-43.45703125,-34.1796875
-34.1796875,-6.34765625,-45.8984375,-25.87890625
-25.390625,1.953125,-51.26953125,-29.296875
-25.390625,-41.50390625,-48.33984375,-35.15625
-28.3203125,-68.359375,-40.0390625,-38.57421875
-36.62109375,-63.4765625,-41.015625,-19.53125
-34.66796875,-12.20703125,-43.9453125,-13.671875
-27.83203125,24.90234375,-41.015625,-23.92578125
-28.3203125,-16.11328125,-43.45703125,-25.390625
-38.0859375,-35.15625,-45.8984375,-33.69140625
-33.69140625,-64.453125,-43.9453125,-41.015625
-37.109375,-61.03515625,-38.57421875,-32.2265625
-40.52734375,-8.7890625,-35.64453125,-27.83203125
-31.25,-29.78515625,-40.52734375,-33.69140625
-33.203125,-60.546875,-41.9921875,-34.1796875
-41.9921875,-69.3359375,-42.96875,-35.64453125
-39.55078125,-26.3671875,-44.921875,-31.73828125
-22.94921875,22.94921875,-43.45703125,-32.2265625
-28.3203125,-16.11328125,-40.52734375,-41.015625
-42.48046875,-82.03125,-41.015625,-35.15625
-46.38671875,-61.03515625,-45.41015625,-29.296875
-43.9453125,-4.39453125,-49.31640625,-31.25
-34.1796875,-20.5078125,-50.78125,-30.2734375
-21.484375,-26.85546875,-41.50390625,-27.34375
-26.85546875,-50.29296875,-33.69140625,-28.3203125
-37.59765625,-78.125,-35.15625,-38.57421875
-30.76171875,-27.34375,-37.59765625,-45.41015625
-30.2734375,-16.11328125,-43.45703125,-39.55078125
-36.1328125,-13.671875,-47.8515625,-36.1328125
-32.71484375,-57.12890625,-46.875,-43.9453125
-45.41015625,-83.984375,-45.41015625,-44.921875
-52.24609375,-41.50390625,-45.8984375,-42.96875
-38.57421875,31.25,-48.33984375,-32.2265625
-26.3671875,35.15625,-46.38671875,-31.25
-34.1796875,-83.984375,-48.828125,-43.9453125
-54.19921875,-101.07421875,-53.22265625,-46.875
-53.7109375,-47.36328125,-49.31640625,-41.015625
-40.52734375,-15.13671875,-47.8515625,-37.59765625
-26.85546875,10.25390625,-51.26953125,-49.8046875
-30.76171875,-39.0625,-50.78125,-52.734375
-49.8046875,-103.515625,-45.8984375,-40.0390625
-62.98828125,-80.078125,-46.38671875,-45.8984375
-49.8046875,4.39453125,-51.7578125,-49.8046875
-39.55078125,22.4609375,-55.17578125,-44.43359375
-54.19921875,-28.3203125,-51.26953125,-53.22265625
-48.33984375,-53.7109375,-43.9453125,-48.33984375
-49.31640625,-98.6328125,-45.8984375,-43.45703125
-56.15234375,-38.57421875,-51.26953125,-43.45703125
-38.0859375,-0.48828125,-46.875,-40.0390625
-27.83203125,-43.9453125,-36.1328125,-30.76171875
-32.71484375,-70.3125,-34.66796875,-29.296875
-39.0625,-76.171875,-39.0625,-36.1328125
-49.8046875,-24.90234375,-42.48046875,-37.109375
-41.9921875,-5.859375,-40.0390625,-39.55078125
-35.64453125,-15.13671875,-39.0625,-37.109375
-46.38671875,-78.61328125,-42.96875,-46.875
-65.4296875,-73.73046875,-40.52734375,-55.6640625
-77.1484375,6.8359375,-33.203125,-55.6640625
-78.61328125,-11.23046875,-34.66796875,-76.66015625
-82.03125,-74.21875,-32.2265625,-90.8203125
-86.9140625,-86.42578125,-25.390625,-83.49609375
-98.6328125,-62.98828125,-31.73828125,-91.30859375
-129.8828125,-15.13671875,-36.62109375,-116.69921875
-142.578125,30.76171875,-34.1796875,-133.30078125
-137.20703125,1.46484375,-29.78515625,-142.578125
-145.5078125,-46.38671875,-27.34375,-155.76171875
-157.2265625,-61.03515625,-31.25,-157.2265625
-169.43359375,-21.484375,-31.25,-154.296875
-166.9921875,26.3671875,-28.80859375,-163.57421875
-165.52734375,22.94921875,-29.78515625,-172.8515625
-176.7578125,-44.921875,-27.83203125,-181.640625
-183.59375,-108.88671875,-29.78515625,-187.01171875
-179.19921875,-56.15234375,-28.80859375,-166.9921875
-177.734375,7.32421875,-22.4609375,-162.59765625
-166.9921875,4.8828125,-20.99609375,-164.55078125
-160.64453125,-32.2265625,-17.578125,-159.66796875
-156.73828125,-68.359375,-16.11328125,-153.3203125
-151.85546875,-52.24609375,-15.625,-147.4609375
-147.94921875,-11.71875,-12.6953125,-146.97265625
-132.8125,-13.18359375,-6.8359375,-140.625
-131.34765625,-68.359375,-7.32421875,-141.6015625
-138.18359375,-64.94140625,-16.6015625,-139.6484375
-136.23046875,-72.75390625,-18.06640625,-126.46484375
-127.44140625,-43.9453125,-12.6953125,-117.1875
-112.79296875,-4.39453125,-15.13671875,-119.140625
-99.609375,-71.77734375,-19.04296875,-114.2578125
-112.79296875,-96.6796875,-17.578125,-103.02734375
-111.328125,-84.47265625,-20.5078125,-93.26171875
-91.796875,-33.69140625,-16.11328125,-90.33203125
-94.23828125,-18.5546875,-10.7421875,-97.16796875
-93.75,-62.98828125,-8.7890625,-96.6796875
-93.75,-103.02734375,-15.625,-80.078125
-95.703125,-87.40234375,-20.01953125,-70.3125
-97.16796875,-4.39453125,-20.01953125,-77.63671875
-76.171875,-11.71875,-20.99609375,-68.359375
-71.77734375,-77.63671875,-25.390625,-60.05859375
-70.80078125,-108.88671875,-27.83203125,-54.19921875
-82.03125,-111.328125,-31.25,-50.78125
-87.40234375,-37.109375,-39.55078125,-54.6875
-49.8046875,-6.8359375,-41.015625,-49.8046875
-39.55078125,-58.10546875,-42.48046875,-53.22265625
-39.0625,-92.28515625,-48.828125,-42.48046875
-30.76171875,-88.37890625,-51.26953125,-24.90234375
-38.0859375,-29.78515625,-53.7109375,-32.2265625
-39.55078125,25.87890625,-58.10546875,-44.43359375
-25.87890625,-2.44140625,-63.96484375,-38.57421875
-25.390625,-115.234375,-71.77734375,-27.34375
-25.87890625,-128.41796875,-70.3125,-29.78515625
-20.99609375,-45.8984375,-65.4296875,-25.87890625
-14.6484375,-3.90625,-67.87109375,-10.7421875
-6.8359375,-38.0859375,-64.453125,2.44140625
1.46484375,-96.6796875,-65.91796875,10.25390625
3.41796875,-115.72265625,-69.82421875,21.484375
7.8125,-72.265625,-64.94140625,33.203125
20.01953125,-18.06640625,-60.546875,41.50390625
31.25,-60.546875,-63.96484375,44.921875
48.828125,-79.58984375,-65.91796875,41.015625
47.8515625,-53.7109375,-66.89453125,47.36328125
42.96875,-77.63671875,-68.359375,61.5234375
46.875,-53.22265625,-70.3125,51.7578125
48.828125,-13.18359375,-71.77734375,36.1328125
41.50390625,-60.546875,-74.70703125,26.3671875
31.25,-77.63671875,-76.66015625,23.92578125
36.1328125,-51.26953125,-72.75390625,33.69140625
44.43359375,-16.11328125,-72.75390625,32.71484375
54.6875,4.8828125,-74.21875,32.71484375
48.828125,-36.1328125,-72.265625,32.2265625
21.97265625,-81.0546875,-74.70703125,25.390625
18.06640625,-63.4765625,-78.125,28.80859375
23.92578125,11.23046875,-74.21875,35.15625
35.15625,23.4375,-67.87109375,37.59765625
42.96875,-66.89453125,-65.91796875,39.55078125
25.390625,-120.60546875,-70.3125,36.62109375
16.11328125,-80.56640625,-71.2890625,40.52734375
7.32421875,-32.71484375,-69.82421875,36.62109375
17.578125,-16.6015625,-67.87109375,23.92578125
25.87890625,-34.1796875,-66.40625,14.16015625
16.11328125,-82.03125,-67.3828125,3.41796875
13.671875,-79.1015625,-64.453125,5.859375
9.765625,-9.765625,-66.89453125,12.20703125
17.08984375,16.6015625,-62.5,13.671875
24.90234375,-12.6953125,-59.08203125,6.8359375
17.08984375,-89.35546875,-62.98828125,3.41796875
-2.9296875,-106.93359375,-62.98828125,0.0
-9.765625,-36.62109375,-62.98828125,-3.90625
0.9765625,-9.765625,-63.4765625,-3.90625
-0.9765625,-32.71484375,-62.01171875,-8.30078125
-2.9296875,-68.359375,-59.5703125,-7.8125
-26.3671875,-90.8203125,-60.546875,-6.34765625
-42.48046875,-49.31640625,-59.08203125,-6.34765625
-16.11328125,-3.41796875,-57.12890625,-6.34765625
-8.7890625,-24.90234375,-61.5234375,-7.32421875
-13.671875,-76.171875,-60.546875,-12.6953125
-25.87890625,-64.453125,-55.17578125,-15.625
-42.96875,-46.875,-53.7109375,-14.6484375
-25.390625,-30.76171875,-52.24609375,-18.06640625
-16.6015625,-8.7890625,-50.78125,-27.83203125
-18.06640625,-55.6640625,-50.29296875,-33.203125
-25.390625,-76.66015625,-45.8984375,-26.85546875
-42.48046875,-35.64453125,-44.921875,-24.90234375
-20.99609375,-14.16015625,-48.828125,-18.5546875
-6.8359375,-23.4375,-52.734375,-21.97265625
-20.5078125,-44.43359375,-53.22265625,-25.87890625
-21.97265625,-85.44921875,-48.33984375,-21.97265625
-30.76171875,-49.8046875,-47.8515625,-31.73828125
-37.59765625,24.90234375,-51.26953125,-33.203125
-28.3203125,-24.90234375,-56.15234375,-29.296875
-24.90234375,-99.12109375,-56.15234375,-40.52734375
-29.296875,-87.890625,-52.734375,-41.015625
-45.41015625,-45.8984375,-49.8046875,-32.2265625
-48.33984375,-3.90625,-45.41015625,-25.87890625
-32.2265625,7.32421875,-42.48046875,-31.25
-38.57421875,-47.8515625,-45.41015625,-40.52734375
-45.41015625,-69.3359375,-49.8046875,-31.25
-41.015625,-50.78125,-49.8046875,-30.76171875
-33.203125,-29.296875,-42.96875,-26.85546875
-36.1328125,7.32421875,-44.43359375,-25.390625
-31.73828125,-8.7890625,-45.41015625,-38.57421875
-34.66796875,-88.37890625,-44.43359375,-41.50390625
-63.96484375,-91.796875,-50.78125,-46.875
-62.5,-22.4609375,-52.734375,-53.7109375
-45.8984375,0.0,-52.734375,-50.29296875
-44.43359375,-22.4609375,-52.24609375,-57.12890625
-51.7578125,-87.40234375,-52.24609375,-58.59375
-61.5234375,-101.07421875,-52.24609375,-57.6171875
-68.359375,-32.71484375,-55.6640625,-62.5
-53.22265625,-9.27734375,-57.6171875,-58.10546875
-55.17578125,-34.1796875,-53.7109375,-55.6640625
-81.0546875,-87.40234375,-49.31640625,-63.4765625
-83.984375,-68.84765625,-41.50390625,-57.12890625
-72.265625,-25.390625,-45.8984375,-53.7109375
-60.546875,-44.921875,-56.640625,-58.59375
-63.96484375,-51.7578125,-60.05859375,-60.05859375
-61.03515625,-70.3125,-53.22265625,-51.7578125
-60.546875,-86.9140625,-49.31640625,-51.26953125
-58.10546875,-36.62109375,-52.734375,-59.08203125
-42.96875,6.8359375,-48.828125,-54.6875
-31.73828125,-17.578125,-48.33984375,-53.22265625
-35.64453125,-62.01171875,-49.8046875,-56.640625
-45.8984375,-97.16796875,-49.8046875,-55.6640625
-59.08203125,-55.6640625,-53.7109375,-52.24609375
-53.7109375,44.921875,-52.734375,-51.26953125
-47.8515625,-37.59765625,-51.7578125,-60.546875
-64.453125,-121.58203125,-54.19921875,-68.84765625
-69.82421875,-72.265625,-52.24609375,-66.40625
-72.75390625,-79.58984375,-47.8515625,-62.98828125
-62.01171875,-19.04296875,-47.36328125,-60.05859375
-58.59375,-11.71875,-54.19921875,-61.03515625
-67.3828125,-43.45703125,-46.875,-64.453125
-76.171875,-75.68359375,-41.50390625,-65.91796875
-88.8671875,-78.125,-50.29296875,-67.3828125
-78.61328125,-12.20703125,-53.22265625,-61.03515625
-61.5234375,-14.6484375,-46.875,-60.546875
-67.3828125,-39.55078125,-42.96875,-68.84765625
-77.63671875,-94.7265625,-49.31640625,-65.4296875
-66.89453125,-89.35546875,-57.6171875,-53.22265625
-55.17578125,-20.01953125,-49.31640625,-47.36328125
-46.38671875,-19.04296875,-44.43359375,-54.19921875
-32.71484375,-53.22265625,-47.36328125,-52.24609375
-35.64453125,-65.4296875,-50.78125,-40.52734375
-50.78125,-81.54296875,-52.24609375,-45.8984375
-53.22265625,-38.0859375,-50.78125,-45.8984375
-41.9921875,-0.48828125,-46.38671875,-48.33984375
-41.9921875,-48.33984375,-49.8046875,-58.10546875
-56.15234375,-63.4765625,-54.6875,-56.640625
-56.15234375,-41.015625,-50.29296875,-54.19921875
-53.7109375,-40.0390625,-47.8515625,-53.22265625
-47.36328125,-17.578125,-40.0390625,-42.96875
-43.9453125,-32.71484375,-35.64453125,-46.875
-48.828125,-78.61328125,-41.9921875,-59.5703125
-58.10546875,-89.35546875,-42.96875,-49.8046875
-60.546875,-31.25,-41.50390625,-44.921875
-44.921875,0.0,-41.015625,-50.78125
-49.8046875,-24.4140625,-37.109375,-54.19921875
-64.94140625,-47.36328125,-40.0390625,-57.12890625
-76.66015625,-94.7265625,-44.921875,-60.546875
-76.171875,-38.57421875,-42.48046875,-63.4765625
-64.94140625,57.12890625,-42.96875,-67.87109375
-70.80078125,-24.4140625,-42.96875,-73.73046875
-85.9375,-102.5390625,-43.45703125,-83.49609375
-103.02734375,-86.9140625,-49.8046875,-102.5390625
-106.4453125,-30.2734375,-52.734375,-107.91015625
-114.74609375,22.94921875,-51.26953125,-127.9296875
-128.41796875,-5.37109375,-47.8515625,-158.69140625
-149.4140625,-45.8984375,-42.48046875,-172.8515625
-184.08203125,-70.80078125,-38.0859375,-181.15234375
-184.5703125,-48.33984375,-33.69140625,-181.15234375
-187.98828125,10.25390625,-29.78515625,-184.5703125
-189.453125,13.18359375,-23.92578125,-185.05859375
-181.640625,-25.390625,-17.578125,-187.5
-194.3359375,-70.80078125,-16.11328125,-186.03515625
-204.58984375,-87.890625,-19.53125,-177.734375
-196.2890625,-42.48046875,-20.5078125,-167.96875
-179.19921875,-6.8359375,-21.97265625,-165.52734375
-165.0390625,-46.875,-22.94921875,-164.0625
-166.50390625,-89.84375,-20.5078125,-162.109375
-170.8984375,-66.89453125,-19.53125,-156.25
-166.015625,-10.7421875,-19.53125,-145.5078125
-137.20703125,-3.90625,-18.5546875,-140.625
-126.46484375,-66.89453125,-23.92578125,-136.71875
-135.7421875,-83.49609375,-27.34375,-133.7890625
-130.859375,-41.015625,-24.90234375,-131.8359375
-122.0703125,-51.7578125,-29.296875,-125.48828125
-98.14453125,-13.671875,-31.73828125,-114.74609375
-83.0078125,-16.11328125,-33.69140625,-105.95703125
-83.984375,-108.88671875,-39.55078125,-104.4921875
-96.19140625,-102.5390625,-45.8984375,-105.46875
-96.6796875,-41.50390625,-50.29296875,-102.5390625
-77.63671875,3.90625,-46.38671875,-101.07421875
-65.91796875,-34.1796875,-50.78125,-93.26171875
-71.77734375,-80.56640625,-60.05859375,-88.37890625
-76.171875,-67.3828125,-60.05859375,-88.8671875
-72.75390625,-9.765625,-57.6171875,-74.21875
-54.6875,33.69140625,-57.12890625,-61.03515625
-38.57421875,-33.203125,-58.59375,-52.734375
-35.64453125,-112.3046875,-65.91796875,-47.36328125
-44.43359375,-105.95703125,-70.80078125,-42.48046875
-41.9921875,-27.34375,-68.359375,-37.59765625
-24.4140625,31.25,-63.4765625,-31.25
-6.8359375,-13.18359375,-61.5234375,-19.53125
10.25390625,-99.12109375,-65.91796875,-12.20703125
3.41796875,-92.7734375,-69.3359375,-15.625
-7.8125,-37.59765625,-68.359375,-19.04296875
10.7421875,-5.37109375,-63.96484375,-10.25390625
18.5546875,-10.7421875,-62.01171875,-9.765625
12.6953125,-35.64453125,-63.96484375,-20.99609375
5.859375,-93.75,-67.3828125,-21.97265625
-1.953125,-104.00390625,-69.82421875,-17.578125
5.37109375,-26.3671875,-64.94140625,-14.16015625
15.625,-9.765625,-62.5,-5.859375
27.83203125,-63.96484375,-56.640625,2.44140625
19.04296875,-80.56640625,-51.26953125,9.765625
1.953125,-55.6640625,-55.6640625,13.671875
9.765625,3.90625,-56.640625,15.13671875
20.5078125,2.9296875,-57.12890625,20.01953125
29.296875,-76.171875,-58.10546875,19.04296875
22.4609375,-89.84375,-61.03515625,17.08984375
3.41796875,-44.921875,-62.98828125,18.06640625
3.90625,-41.9921875,-61.03515625,21.97265625
10.25390625,-40.52734375,-59.08203125,20.99609375
14.6484375,-44.921875,-57.12890625,16.6015625
13.671875,-85.9375,-56.15234375,15.625
11.23046875,-75.1953125,-50.78125,16.6015625
11.71875,-1.953125,-48.828125,16.6015625
21.484375,24.4140625,-45.41015625,13.671875
29.78515625,-29.296875,-42.96875,7.8125
17.08984375,-70.3125,-51.26953125,-4.8828125
7.32421875,-61.03515625,-55.17578125,-7.8125
6.8359375,-1.953125,-55.17578125,-2.44140625
15.13671875,51.7578125,-49.8046875,-5.37109375
25.390625,-29.296875,-44.43359375,-11.71875
21.484375,-115.72265625,-42.96875,-6.34765625
-6.8359375,-88.37890625,-46.38671875,-0.48828125
-18.5546875,-32.2265625,-48.828125,3.41796875
9.27734375,0.48828125,-47.8515625,16.11328125
13.671875,-28.3203125,-47.8515625,-1.46484375
-10.25390625,-79.1015625,-50.78125,-25.87890625
-20.01953125,-69.82421875,-59.08203125,-20.99609375
-12.6953125,-4.39453125,-62.5,-11.23046875
-7.32421875,14.16015625,-56.640625,-17.08984375
-8.7890625,-13.671875,-55.17578125,-25.390625
-16.11328125,-40.0390625,-54.6875,-29.78515625
-22.94921875,-95.21484375,-52.734375,-22.94921875
-18.5546875,-41.50390625,-55.6640625,-18.06640625
-4.8828125,31.73828125,-57.6171875,-20.5078125
-2.9296875,-31.25,-52.24609375,-24.90234375
-3.90625,-74.21875,-49.31640625,-25.87890625
-13.18359375,-65.91796875,-46.875,-26.85546875
-19.53125,-26.85546875,-52.24609375,-34.1796875
-7.8125,1.953125,-56.15234375,-31.73828125
-0.48828125,8.30078125,-50.29296875,-20.01953125
1.46484375,-61.5234375,-48.828125,-20.01953125
-12.20703125,-82.03125,-52.24609375,-28.3203125
-21.484375,-1.46484375,-53.7109375,-24.4140625
-17.578125,-14.16015625,-53.22265625,-17.578125
-11.71875,-26.3671875,-55.6640625,-21.97265625
-18.5546875,-59.08203125,-58.10546875,-33.69140625
-34.66796875,-102.05078125,-54.19921875,-41.9921875
-41.015625,-34.66796875,-47.8515625,-34.66796875
-38.57421875,14.6484375,-42.96875,-28.80859375
-25.87890625,-20.5078125,-42.48046875,-30.2734375
-20.99609375,-64.94140625,-47.36328125,-39.55078125
-26.85546875,-76.171875,-47.36328125,-48.33984375
-37.59765625,-66.89453125,-43.9453125,-41.9921875
-39.0625,3.41796875,-46.875,-40.0390625
-28.80859375,41.50390625,-49.31640625,-43.9453125
-28.80859375,-50.78125,-48.33984375,-44.43359375
-32.71484375,-97.16796875,-46.875,-41.50390625
-35.64453125,-77.63671875,-45.41015625,-35.15625
-37.109375,-15.13671875,-42.48046875,-33.69140625
-31.25,18.5546875,-46.875,-38.57421875
-22.94921875,-27.34375,-42.48046875,-35.64453125
-26.85546875,-81.54296875,-36.1328125,-42.96875
-43.45703125,-63.96484375,-41.015625,-47.8515625
-47.8515625,4.8828125,-47.8515625,-41.9921875
-32.2265625,-17.578125,-48.828125,-40.52734375
-26.85546875,-28.3203125,-45.8984375,-36.62109375
-28.3203125,-40.0390625,-48.828125,-37.109375
-36.1328125,-97.16796875,-51.7578125,-34.66796875
-51.7578125,-41.9921875,-53.22265625,-34.66796875
-37.109375,8.7890625,-49.31640625,-37.109375
-28.80859375,-40.0390625,-46.875,-44.921875
-33.203125,-75.1953125,-47.36328125,-45.8984375
-40.0390625,-67.3828125,-48.828125,-41.50390625
-42.48046875,-22.94921875,-53.7109375,-46.875
-32.71484375,-0.48828125,-48.828125,-47.8515625
-30.2734375,-31.73828125,-43.9453125,-47.8515625
-32.2265625,-86.9140625,-43.9453125,-48.828125
-48.33984375,-77.63671875,-43.9453125,-44.921875
-56.640625,3.41796875,-44.43359375,-38.57421875
-39.55078125,7.8125,-47.36328125,-38.57421875
-28.3203125,-51.7578125,-46.875,-43.45703125
-34.1796875,-80.56640625,-44.43359375,-46.38671875
-46.38671875,-77.63671875,-44.921875,-47.36328125
-55.17578125,-49.31640625,-48.828125,-45.8984375
-44.43359375,13.18359375,-45.8984375,-41.9921875
-40.52734375,10.25390625,-41.015625,-39.55078125
-48.828125,-63.4765625,-45.8984375,-42.96875
-42.96875,-75.68359375,-46.875,-47.36328125
-44.921875,-47.8515625,-42.96875,-44.921875
-54.19921875,9.765625,-44.921875,-44.921875
-41.015625,36.1328125,-44.43359375,-43.45703125
-43.9453125,-60.05859375,-40.0390625,-43.9453125
-55.6640625,-103.02734375,-40.52734375,-46.875
-58.59375,-48.33984375,-41.015625,-44.43359375
-63.4765625,-32.2265625,-40.0390625,-47.8515625
-57.12890625,-20.99609375,-35.64453125,-48.828125
-60.05859375,-54.19921875,-40.0390625,-56.640625
-75.68359375,-81.54296875,-43.9453125,-72.75390625
-82.51953125,-55.6640625,-44.921875,-80.56640625
-79.58984375,-1.953125,-43.45703125,-80.078125
-78.125,-10.7421875,-39.0625,-75.1953125
-66.89453125,-34.66796875,-39.0625,-65.91796875
-80.56640625,-31.73828125,-40.52734375,-82.03125
-126.46484375,-75.68359375,-42.48046875,-116.69921875
-134.765625,-35.64453125,-41.015625,-125.48828125
-128.90625,26.3671875,-40.52734375,-136.71875
-146.484375,-14.6484375,-41.9921875,-164.55078125
-165.52734375,-33.203125,-45.41015625,-189.453125
-178.22265625,-27.34375,-53.22265625,-194.82421875
-171.875,2.9296875,-54.19921875,-183.10546875
-172.8515625,30.76171875,-52.734375,-196.77734375
-187.01171875,-1.46484375,-54.6875,-220.703125
-182.12890625,-27.34375,-54.6875,-217.28515625
-186.03515625,-16.6015625,-55.17578125,-212.890625
-192.3828125,66.89453125,-57.12890625,-213.37890625
-181.15234375,74.70703125,-56.15234375,-211.9140625
-173.33984375,10.25390625,-50.78125,-210.9375
-162.59765625,-13.671875,-51.26953125,-210.9375
-172.36328125,-7.32421875,-56.15234375,-213.37890625
-184.08203125,36.62109375,-60.546875,-210.9375
-169.921875,77.63671875,-60.05859375,-209.47265625
-156.25,54.19921875,-61.03515625,-203.125
-156.73828125,7.8125,-60.05859375,-193.84765625
-161.1328125,13.18359375,-57.6171875,-180.6640625
-158.203125,13.18359375,-57.6171875,-173.828125
-147.94921875,69.3359375,-57.12890625,-176.7578125
-124.51171875,104.00390625,-57.12890625,-160.64453125
-120.1171875,-2.44140625,-55.6640625,-152.83203125
-117.1875,-47.36328125,-58.10546875,-163.0859375
-121.58203125,9.27734375,-63.96484375,-158.203125
-109.86328125,71.2890625,-62.98828125,-139.16015625
-79.58984375,71.77734375,-59.5703125,-121.58203125
-98.6328125,6.8359375,-68.84765625,-133.30078125
-115.234375,-27.83203125,-75.1953125,-143.06640625
-108.88671875,-3.90625,-66.40625,-125.0
-97.16796875,56.640625,-61.03515625,-102.5390625
-75.1953125,54.19921875,-62.01171875,-94.23828125
-75.68359375,8.30078125,-57.12890625,-111.81640625
-85.9375,18.06640625,-57.12890625,-110.3515625
-88.37890625,2.9296875,-61.03515625,-101.07421875
-94.23828125,15.13671875,-59.5703125,-102.5390625
-83.49609375,28.3203125,-58.10546875,-88.8671875
-71.77734375,-4.39453125,-59.5703125,-84.47265625
-79.58984375,-31.25,-60.546875,-96.19140625
-87.40234375,-13.671875,-62.98828125,-95.703125
-75.1953125,21.97265625,-67.87109375,-89.84375
-62.01171875,31.25,-66.89453125,-87.40234375
-57.12890625,8.7890625,-63.96484375,-88.37890625
-59.08203125,-49.31640625,-65.91796875,-91.30859375
-54.19921875,-20.99609375,-65.4296875,-70.3125
-45.41015625,58.59375,-65.91796875,-51.7578125
-45.41015625,21.97265625,-64.453125,-56.15234375
-53.22265625,-19.04296875,-66.89453125,-54.6875
-62.5,-38.0859375,-64.453125,-49.8046875
-65.4296875,-76.171875,-61.5234375,-46.38671875
-45.41015625,-9.27734375,-66.89453125,-35.15625
-19.53125,29.78515625,-65.4296875,-29.296875
-18.5546875,-0.9765625,-59.08203125,-32.71484375
-27.83203125,-49.8046875,-57.12890625,-42.48046875
-37.59765625,-71.2890625,-65.4296875,-44.921875
-38.57421875,-21.97265625,-68.84765625,-28.3203125
-16.11328125,15.13671875,-59.08203125,-20.99609375
-34.1796875,-4.8828125,-61.5234375,-45.41015625
-54.6875,-90.8203125,-62.98828125,-58.59375
-42.96875,-116.69921875,-49.8046875,-38.0859375
-42.48046875,-60.546875,-48.828125,-26.3671875
-30.2734375,-18.06640625,-49.31640625,-20.5078125
-29.78515625,-25.390625,-49.31640625,-24.90234375
-34.1796875,-83.0078125,-51.7578125,-32.2265625
-27.83203125,-123.53515625,-44.921875,-20.01953125
-41.015625,-81.0546875,-46.875,-19.53125
-40.0390625,-27.34375,-51.7578125,-25.390625
-20.99609375,-49.31640625,-49.8046875,-15.625
-24.90234375,-126.953125,-45.41015625,-14.16015625
-38.57421875,-110.83984375,-49.8046875,-17.08984375
-41.015625,-97.65625,-55.17578125,-12.20703125
-33.69140625,-83.984375,-52.24609375,-11.23046875
-29.78515625,-56.15234375,-49.31640625,-14.6484375
-29.296875,-103.515625,-47.36328125,-18.5546875
-32.2265625,-132.8125,-48.33984375,-9.765625
-26.85546875,-106.4453125,-55.6640625,1.46484375
-10.25390625,-57.6171875,-53.7109375,9.765625
-1.46484375,-50.78125,-48.33984375,15.13671875
7.32421875,-96.6796875,-48.828125,14.6484375
16.6015625,-166.50390625,-47.8515625,21.484375
19.53125,-135.7421875,-42.48046875,32.71484375
14.16015625,-10.7421875,-40.52734375,35.15625
14.16015625,-39.55078125,-46.875,37.109375
20.01953125,-123.53515625,-44.921875,42.48046875
11.23046875,-133.30078125,-38.0859375,37.109375
1.953125,-121.09375,-36.1328125,29.78515625
14.16015625,-50.78125,-37.109375,27.83203125
25.87890625,-39.0625,-35.64453125,26.85546875
15.13671875,-77.1484375,-37.59765625,21.484375
12.6953125,-123.53515625,-40.52734375,15.13671875
14.6484375,-137.6953125,-36.1328125,20.01953125
12.6953125,-52.24609375,-35.15625,29.78515625
27.83203125,-11.23046875,-40.0390625,32.71484375
39.55078125,-26.3671875,-41.9921875,22.94921875
22.4609375,-80.56640625,-43.45703125,28.3203125
2.9296875,-146.97265625,-47.8515625,32.71484375
4.39453125,-96.19140625,-52.734375,20.99609375
12.6953125,-27.34375,-45.41015625,26.3671875
17.578125,-31.25,-41.015625,20.99609375
23.4375,-99.12109375,-39.55078125,7.8125
6.8359375,-121.58203125,-37.109375,18.5546875
-2.44140625,-72.75390625,-41.50390625,26.85546875
18.06640625,-13.671875,-40.52734375,23.92578125
30.76171875,-18.06640625,-34.1796875,25.390625
25.87890625,-69.3359375,-33.203125,22.4609375
15.13671875,-70.3125,-35.64453125,20.5078125
0.48828125,-83.984375,-38.0859375,19.53125
6.34765625,-39.55078125,-42.96875,13.671875
17.08984375,-9.765625,-45.41015625,7.8125
15.13671875,-100.5859375,-45.41015625,8.7890625
9.27734375,-121.09375,-44.921875,11.71875
12.20703125,-63.4765625,-47.36328125,14.16015625
21.484375,-14.6484375,-46.875,22.4609375
23.4375,-10.7421875,-41.50390625,21.97265625
22.94921875,-63.96484375,-41.015625,9.27734375
15.625,-92.7734375,-42.96875,9.765625
14.6484375,-41.50390625,-40.0390625,18.5546875
9.27734375,18.5546875,-38.0859375,16.6015625
4.39453125,-23.4375,-36.62109375,16.11328125
-1.953125,-91.30859375,-38.57421875,15.13671875
-10.25390625,-92.28515625,-42.48046875,4.8828125
-15.625,-75.68359375,-41.50390625,-0.48828125
-15.13671875,-19.53125,-41.9921875,6.34765625
-2.44140625,17.578125,-40.0390625,14.6484375
1.953125,-62.5,-41.015625,7.8125
-7.8125,-116.2109375,-40.52734375,8.30078125
-14.6484375,-79.1015625,-42.96875,6.8359375
8.30078125,-20.5078125,-51.26953125,14.6484375
21.484375,19.04296875,-41.50390625,23.4375
-16.11328125,-9.27734375,-30.2734375,-15.13671875
-36.62109375,-92.28515625,-36.1328125,-45.41015625
-25.87890625,-101.5625,-39.55078125,-22.94921875
-31.25,-36.1328125,-37.59765625,-16.6015625
-46.38671875,-17.08984375,-38.57421875,-24.90234375
-33.69140625,-45.8984375,-43.45703125,-19.04296875
-30.76171875,-90.33203125,-40.52734375,-27.83203125
-39.55078125,-89.35546875,-38.0859375,-20.01953125
-28.3203125,-31.25,-42.96875,-16.6015625
-19.04296875,-5.37109375,-43.45703125,-19.53125
-18.06640625,-38.57421875,-42.48046875,-13.671875
-18.06640625,-77.1484375,-41.015625,-13.18359375
-34.1796875,-65.91796875,-41.9921875,-21.484375
-46.38671875,-49.31640625,-45.41015625,-20.01953125
-22.4609375,-35.15625,-44.43359375,-19.53125
-6.8359375,-18.5546875,-40.0390625,-21.97265625
-15.13671875,-62.01171875,-41.015625,-21.484375
-28.80859375,-93.75,-46.875,-20.5078125
-38.57421875,-46.38671875,-46.38671875,-21.484375
-31.73828125,11.71875,-42.96875,-21.97265625
-20.01953125,-19.04296875,-43.9453125,-22.94921875
-29.78515625,-64.94140625,-46.875,-31.73828125
-43.9453125,-86.42578125,-47.36328125,-29.78515625
-39.55078125,-56.15234375,-45.41015625,-27.83203125
-29.296875,14.6484375,-43.45703125,-25.87890625
-18.06640625,-8.7890625,-47.8515625,-29.296875
-18.06640625,-107.421875,-48.828125,-33.69140625
-27.34375,-105.46875,-42.48046875,-15.13671875
-26.85546875,-41.50390625,-42.48046875,-12.6953125
-23.4375,-0.48828125,-44.921875,-24.90234375
-16.11328125,-3.90625,-42.96875,-22.94921875
-12.6953125,-47.8515625,-42.96875,-27.34375
-18.5546875,-89.84375,-41.015625,-23.92578125
-37.109375,-60.05859375,-41.015625,-20.01953125
-38.57421875,-16.11328125,-40.0390625,-19.53125
-23.4375,-12.6953125,-37.59765625,-22.94921875
-22.4609375,-18.06640625,-36.1328125,-30.76171875
-20.5078125,-94.7265625,-37.109375,-33.69140625
-36.1328125,-89.35546875,-42.48046875,-26.3671875
-40.0390625,-1.46484375,-42.96875,-23.4375
-36.1328125,-30.2734375,-38.57421875,-22.94921875
-38.57421875,-65.4296875,-38.57421875,-23.92578125
-39.55078125,-74.21875,-42.96875,-34.1796875
-44.43359375,-76.66015625,-41.50390625,-26.85546875
-43.9453125,-38.57421875,-38.0859375,-27.83203125
-40.0390625,-20.5078125,-40.0390625,-39.55078125
-37.109375,-44.921875,-41.50390625,-30.2734375
-36.1328125,-61.03515625,-41.50390625,-22.94921875
-48.33984375,-51.26953125,-42.96875,-31.73828125
-64.453125,-44.43359375,-41.50390625,-36.62109375
-48.33984375,-35.64453125,-41.9921875,-31.25
-39.0625,-45.41015625,-44.921875,-36.62109375
-43.9453125,-73.73046875,-42.48046875,-44.921875
-50.78125,-66.40625,-41.015625,-45.41015625
-59.5703125,-35.15625,-46.875,-40.0390625
-53.22265625,-22.94921875,-50.29296875,-36.1328125
-45.41015625,-37.59765625,-47.36328125,-41.015625
-41.9921875,-67.3828125,-45.41015625,-43.45703125
-53.7109375,-82.03125,-48.33984375,-49.31640625
-68.84765625,-36.62109375,-46.38671875,-58.10546875
-61.03515625,40.52734375,-35.64453125,-67.87109375
-76.66015625,-18.06640625,-36.62109375,-78.125
-100.09765625,-77.1484375,-41.015625,-88.8671875
-106.4453125,-66.89453125,-35.64453125,-104.4921875
-132.8125,-32.2265625,-35.64453125,-124.51171875
-148.4375,17.08984375,-34.1796875,-129.39453125
-155.76171875,5.37109375,-30.76171875,-140.625
-153.80859375,-38.57421875,-33.69140625,-155.2734375
-164.0625,-41.9921875,-35.15625,-158.69140625
-187.98828125,-6.8359375,-38.57421875,-179.19921875
-175.78125,2.9296875,-36.1328125,-181.15234375
-173.33984375,17.08984375,-26.85546875,-175.29296875
-197.75390625,9.27734375,-24.90234375,-182.6171875
-197.75390625,-53.22265625,-29.296875,-174.8046875
-191.40625,-70.80078125,-31.73828125,-166.50390625
-191.40625,1.953125,-29.296875,-179.19921875
-182.6171875,20.99609375,-23.92578125,-189.453125
-177.24609375,-41.50390625,-20.5078125,-185.546875
-171.38671875,-73.73046875,-27.34375,-177.734375
-176.26953125,-60.05859375,-26.85546875,-152.83203125
-177.734375,-6.8359375,-19.04296875,-145.99609375
-161.62109375,12.6953125,-20.5078125,-149.4140625
-155.2734375,-46.38671875,-22.4609375,-149.4140625
-149.4140625,-66.40625,-20.99609375,-150.87890625
-143.5546875,-26.85546875,-17.08984375,-129.39453125
-147.4609375,-20.5078125,-19.04296875,-112.79296875
-117.67578125,-31.25,-21.97265625,-119.140625
-113.76953125,-50.78125,-17.578125,-125.0
-132.8125,-90.8203125,-19.53125,-118.1640625
-131.34765625,-74.70703125,-22.94921875,-106.93359375
-138.671875,-22.94921875,-22.94921875,-107.91015625
-118.1640625,-15.625,-28.3203125,-104.4921875
-99.609375,-37.59765625,-22.4609375,-89.35546875
-106.93359375,-93.26171875,-24.4140625,-84.47265625
-100.09765625,-114.74609375,-39.0625,-69.82421875
-101.07421875,-44.921875,-35.64453125,-73.73046875
-96.19140625,20.99609375,-29.78515625,-83.0078125
-81.54296875,-59.5703125,-39.0625,-73.73046875
-85.9375,-124.51171875,-39.55078125,-75.1953125
-86.42578125,-78.125,-38.0859375,-72.75390625
-97.65625,-58.59375,-40.52734375,-62.01171875
-85.44921875,-42.48046875,-35.15625,-58.59375
-69.3359375,-44.43359375,-33.69140625,-77.1484375
-78.61328125,-105.46875,-37.109375,-75.68359375
-81.54296875,-105.95703125,-38.57421875,-60.05859375
-88.37890625,-50.78125,-33.69140625,-66.89453125
-90.33203125,-22.4609375,-36.1328125,-85.44921875
-83.49609375,-37.109375,-39.55078125,-80.078125
-83.984375,-70.80078125,-32.2265625,-69.82421875
-87.890625,-116.69921875,-31.25,-74.21875
-87.890625,-92.28515625,-29.296875,-68.359375
-80.56640625,-12.20703125,-32.71484375,-74.21875
-61.5234375,-24.90234375,-30.76171875,-57.12890625
-70.3125,-81.54296875,-22.94921875,-49.8046875
-71.2890625,-80.56640625,-28.3203125,-53.22265625
-64.453125,-90.33203125,-40.0390625,-44.43359375
-60.05859375,-41.015625,-36.62109375,-36.62109375
-49.8046875,-17.08984375,-32.2265625,-27.83203125
-41.9921875,-92.7734375,-37.59765625,-22.94921875
-36.62109375,-105.46875,-40.0390625,-11.71875
-29.78515625,-47.36328125,-41.9921875,4.39453125
-14.16015625,-32.71484375,-39.0625,17.08984375
16.6015625,-35.64453125,-39.55078125,27.34375
23.92578125,-89.35546875,-42.48046875,36.1328125
22.4609375,-133.30078125,-42.48046875,35.15625
27.34375,-93.75,-49.31640625,39.0625
40.52734375,-8.7890625,-53.22265625,57.6171875
62.01171875,-7.8125,-52.734375,57.12890625
50.78125,-68.359375,-56.15234375,37.59765625
42.48046875,-121.09375,-59.5703125,36.62109375
55.17578125,-138.671875,-65.4296875,47.36328125
61.5234375,-34.1796875,-70.3125,42.48046875
69.3359375,25.390625,-64.94140625,52.24609375
81.0546875,-66.40625,-67.3828125,60.546875
85.44921875,-120.60546875,-75.1953125,53.22265625
64.94140625,-98.6328125,-70.80078125,62.98828125
56.15234375,-38.0859375,-69.3359375,80.078125
67.3828125,-9.765625,-73.2421875,70.80078125
47.8515625,-27.34375,-74.70703125,62.98828125
39.55078125,-97.65625,-68.84765625,72.75390625
41.015625,-112.3046875,-62.98828125,68.84765625
28.80859375,-36.62109375,-70.3125,60.05859375
42.48046875,-17.08984375,-73.73046875,54.6875
42.96875,-47.8515625,-67.3828125,48.828125
39.55078125,-65.91796875,-68.84765625,43.45703125
41.50390625,-96.6796875,-72.75390625,36.1328125
27.34375,-93.26171875,-68.84765625,36.1328125
39.0625,-6.34765625,-64.453125,35.64453125
49.8046875,-8.7890625,-62.98828125,30.2734375
46.38671875,-79.1015625,-64.453125,29.296875
40.0390625,-93.26171875,-61.5234375,36.1328125
29.78515625,-29.296875,-59.08203125,32.2265625
28.3203125,29.296875,-59.5703125,26.85546875
41.015625,-11.23046875,-55.6640625,33.203125
43.9453125,-62.98828125,-51.7578125,31.25
29.296875,-83.984375,-51.26953125,23.4375
14.6484375,-33.203125,-55.17578125,18.06640625
5.859375,-17.08984375,-51.26953125,12.6953125
14.16015625,-32.71484375,-48.828125,19.04296875
14.16015625,-42.48046875,-51.26953125,20.99609375
-7.32421875,-108.88671875,-56.15234375,16.11328125
-10.25390625,-75.1953125,-55.6640625,15.13671875
6.8359375,14.16015625,-52.734375,10.25390625
15.625,-1.953125,-54.19921875,1.953125
2.9296875,-68.84765625,-56.640625,-4.8828125
-18.5546875,-91.30859375,-57.12890625,-14.16015625
-21.97265625,-83.0078125,-55.6640625,-15.13671875
-18.5546875,-20.99609375,-58.10546875,-8.7890625
-8.7890625,33.69140625,-54.19921875,-2.44140625
-14.16015625,-51.26953125,-49.8046875,-7.32421875
-25.87890625,-110.83984375,-54.19921875,-16.11328125
-25.390625,-83.984375,-54.19921875,-16.11328125
-24.4140625,-27.34375,-54.6875,-20.01953125
-15.625,21.97265625,-53.22265625,-24.90234375
-24.4140625,-21.484375,-50.29296875,-23.92578125
-31.73828125,-103.515625,-55.17578125,-26.85546875
-34.66796875,-97.65625,-56.15234375,-35.15625
-31.25,-2.44140625,-48.828125,-26.3671875
-13.18359375,20.01953125,-49.31640625,-21.97265625
-15.625,-23.4375,-48.33984375,-22.4609375
-30.76171875,-41.9921875,-47.36328125,-27.83203125
-40.0390625,-89.35546875,-51.26953125,-36.1328125
-40.52734375,-58.59375,-53.22265625,-25.390625
-35.15625,1.953125,-47.8515625,-23.4375
-25.87890625,-23.4375,-43.9453125,-31.25
-31.73828125,-76.171875,-47.36328125,-36.1328125
-45.8984375,-89.84375,-51.7578125,-37.109375
-46.875,-32.71484375,-54.19921875,-36.1328125
-32.71484375,15.625,-48.33984375,-30.2734375
-25.390625,-11.71875,-44.43359375,-33.203125
-32.71484375,-90.33203125,-50.29296875,-40.0390625
-37.109375,-59.5703125,-54.19921875,-34.1796875
-47.36328125,-11.23046875,-53.22265625,-39.0625
-43.45703125,-37.109375,-53.7109375,-46.875
-30.2734375,-33.69140625,-50.29296875,-42.48046875
-40.52734375,-77.1484375,-45.41015625,-42.48046875
-56.15234375,-81.54296875,-43.9453125,-41.015625
-48.33984375,-34.1796875,-43.9453125,-34.1796875
-26.85546875,-11.71875,-43.9453125,-21.484375
-21.97265625,-14.6484375,-49.31640625,-28.80859375
-28.80859375,-62.5,-50.78125,-46.875
-28.3203125,-86.42578125,-46.875,-45.8984375
-34.66796875,-70.3125,-51.26953125,-49.31640625
-26.3671875,14.6484375,-48.828125,-37.109375
-16.6015625,32.2265625,-44.921875,-28.80859375
-26.3671875,-59.08203125,-49.8046875,-38.0859375
-41.015625,-122.55859375,-49.8046875,-37.59765625
-44.921875,-94.23828125,-48.828125,-33.69140625
-43.9453125,-5.37109375,-50.78125,-28.80859375
-35.15625,15.625,-49.31640625,-30.2734375
-21.97265625,-40.0390625,-45.8984375,-34.1796875
-31.25,-77.63671875,-48.828125,-40.0390625
-47.8515625,-67.3828125,-54.19921875,-45.8984375
-40.52734375,-13.18359375,-52.24609375,-43.9453125
-29.78515625,2.9296875,-48.33984375,-45.8984375
-36.62109375,-26.85546875,-48.33984375,-43.9453125
-45.41015625,-46.38671875,-50.29296875,-39.0625
-55.17578125,-100.5859375,-51.26953125,-40.0390625
-64.453125,-44.43359375,-47.8515625,-38.0859375
-54.19921875,-0.48828125,-46.875,-38.0859375
-49.31640625,-52.24609375,-51.7578125,-51.26953125
-53.7109375,-94.7265625,-56.640625,-56.15234375
-59.5703125,-98.6328125,-55.17578125,-45.41015625
-58.59375,-26.3671875,-50.29296875,-41.9921875
-47.8515625,-10.7421875,-49.8046875,-45.41015625
-42.96875,-33.203125,-50.29296875,-44.921875
-44.43359375,-82.03125,-50.78125,-43.9453125
-54.6875,-82.51953125,-53.7109375,-43.45703125
-51.7578125,0.9765625,-48.828125,-40.0390625
-35.64453125,4.8828125,-41.50390625,-30.76171875
-32.71484375,-56.15234375,-40.52734375,-25.390625
-35.64453125,-76.66015625,-42.48046875,-32.71484375
-40.52734375,-77.1484375,-40.52734375,-31.25
-44.921875,-23.4375,-44.921875,-31.73828125
-35.15625,40.0390625,-46.38671875,-33.203125
-33.69140625,-28.3203125,-44.43359375,-34.1796875
-37.109375,-81.54296875,-45.41015625,-44.43359375
-38.57421875,-73.73046875,-41.50390625,-42.96875
-47.36328125,-56.640625,-45.8984375,-43.45703125
-44.43359375,-1.46484375,-49.31640625,-42.96875
-38.57421875,22.94921875,-45.8984375,-45.8984375
-38.0859375,-64.94140625,-43.9453125,-50.78125
-49.31640625,-117.1875,-46.38671875,-48.828125
-56.640625,-53.22265625,-44.921875,-46.38671875
-36.62109375,4.8828125,-40.52734375,-43.45703125
-19.53125,-7.8125,-39.55078125,-38.0859375
-32.2265625,-56.640625,-44.43359375,-35.64453125
-43.9453125,-64.94140625,-44.921875,-34.1796875
-50.29296875,-53.22265625,-39.55078125,-38.0859375
-48.33984375,1.46484375,-43.9453125,-45.8984375
-38.0859375,-16.6015625,-49.8046875,-43.45703125
-39.55078125,-66.89453125,-46.875,-37.59765625
-49.8046875,-52.24609375,-44.43359375,-38.0859375
-61.5234375,-79.1015625,-44.921875,-34.1796875
-60.546875,-46.875,-43.9453125,-33.203125
-45.41015625,22.94921875,-39.55078125,-29.78515625
-42.96875,-36.62109375,-41.50390625,-28.3203125
-51.26953125,-101.5625,-42.48046875,-34.66796875
-53.7109375,-69.82421875,-45.8984375,-34.1796875
-52.734375,-9.27734375,-44.43359375,-31.73828125
-40.0390625,2.44140625,-38.57421875,-30.76171875
-37.109375,-38.57421875,-44.43359375,-33.69140625
-47.36328125,-86.42578125,-49.31640625,-44.921875
-46.875,-74.21875,-47.36328125,-40.0390625
-41.015625,9.27734375,-47.36328125,-29.296875
-31.73828125,12.20703125,-46.875,-30.2734375
-26.3671875,-55.6640625,-49.8046875,-35.15625
-27.34375,-87.40234375,-55.17578125,-43.9453125
-36.62109375,-94.7265625,-52.734375,-39.55078125
-47.36328125,-47.8515625,-52.24609375,-40.52734375
-42.48046875,8.30078125,-53.22265625,-41.50390625
-40.52734375,-10.25390625,-47.36328125,-32.71484375
-44.921875,-63.96484375,-48.33984375,-33.69140625
-57.12890625,-79.1015625,-52.734375,-38.0859375
-62.98828125,-40.0390625,-50.78125,-43.9453125
-51.7578125,7.8125,-51.7578125,-49.31640625
-46.38671875,0.48828125,-47.36328125,-41.50390625
-54.19921875,-99.12109375,-43.9453125,-46.38671875
-62.98828125,-109.375,-50.29296875,-56.15234375
-60.05859375,-32.2265625,-53.22265625,-46.38671875
-50.78125,-11.23046875,-51.26953125,-43.9453125
-48.828125,-24.4140625,-49.8046875,-49.31640625
-34.66796875,-74.21875,-48.33984375,-48.828125
-41.50390625,-85.9375,-49.8046875,-50.29296875
-54.6875,-50.29296875,-46.875,-50.29296875
-44.921875,0.9765625,-44.921875,-48.33984375
-32.2265625,5.37109375,-45.41015625,-54.6875
-37.109375,-41.015625,-43.9453125,-58.10546875
-56.640625,-53.7109375,-44.921875,-53.7109375
-62.01171875,-62.5,-42.96875,-46.875
-62.98828125,-38.57421875,-43.9453125,-48.828125
-48.828125,-1.46484375,-48.828125,-43.45703125
-43.9453125,-56.640625,-48.33984375,-38.0859375
-57.6171875,-80.56640625,-46.38671875,-36.1328125
-61.5234375,-48.33984375,-44.43359375,-34.1796875
-62.01171875,-17.578125,-47.36328125,-31.25
-55.17578125,0.48828125,-48.33984375,-30.2734375
-47.8515625,-49.8046875,-45.41015625,-42.96875
-50.29296875,-89.84375,-50.78125,-46.875
-48.33984375,-59.08203125,-51.26953125,-34.66796875
-41.015625,22.94921875,-51.7578125,-34.1796875
-31.25,1.46484375,-55.17578125,-50.78125
-27.34375,-62.01171875,-53.7109375,-52.24609375
-35.15625,-89.35546875,-47.8515625,-41.9921875
-48.33984375,-79.1015625,-42.96875,-37.109375
-38.57421875,-18.06640625,-45.41015625,-34.66796875
-20.5078125,15.13671875,-49.8046875,-41.50390625
-23.92578125,-19.04296875,-50.78125,-43.9453125
-33.203125,-80.56640625,-43.9453125,-42.96875
-45.8984375,-83.49609375,-42.96875,-44.43359375
-50.29296875,-44.43359375,-49.8046875,-39.0625
-32.71484375,16.11328125,-48.828125,-34.1796875
-26.85546875,19.04296875,-42.48046875,-38.57421875
-46.875,-84.47265625,-45.8984375,-55.17578125
-61.03515625,-115.234375,-42.96875,-56.640625
-55.6640625,-38.57421875,-40.52734375,-47.36328125
-43.45703125,11.71875,-46.38671875,-46.38671875
-28.80859375,-22.94921875,-41.50390625,-41.9921875
-37.59765625,-81.54296875,-39.0625,-49.31640625
-54.6875,-88.8671875,-41.015625,-60.05859375
-55.6640625,-41.50390625,-43.9453125,-57.6171875
-59.08203125,9.27734375,-42.96875,-56.640625
-44.43359375,-9.27734375,-38.0859375,-50.78125
-32.71484375,-61.03515625,-38.57421875,-44.43359375
-50.29296875,-54.6875,-42.96875,-49.8046875
-57.12890625,-46.875,-49.8046875,-45.41015625
-47.36328125,-37.109375,-52.734375,-42.48046875
-31.25,-15.625,-55.6640625,-45.41015625
-35.64453125,-73.73046875,-56.640625,-45.41015625
-55.6640625,-104.4921875,-54.6875,-44.921875
-52.24609375,-63.96484375,-56.640625,-44.921875
-42.48046875,1.46484375,-56.15234375,-46.38671875
-36.62109375,-0.48828125,-47.36328125,-49.8046875
-29.78515625,-54.6875,-42.96875,-49.31640625
-41.50390625,-90.8203125,-44.921875,-57.6171875
-47.8515625,-59.08203125,-45.8984375,-57.6171875
-38.0859375,35.15625,-41.015625,-41.9921875
-36.1328125,-1.953125,-40.0390625,-42.48046875
-39.55078125,-67.3828125,-42.48046875,-47.36328125
-37.59765625,-61.5234375,-43.9453125,-44.43359375
-46.38671875,-104.98046875,-41.50390625,-42.48046875
-48.33984375,-41.9921875,-38.0859375,-39.0625
-35.64453125,10.25390625,-38.57421875,-38.57421875
-38.57421875,-46.38671875,-41.9921875,-41.50390625
-50.78125,-86.42578125,-48.828125,-49.8046875
-61.03515625,-66.40625,-49.31640625,-52.24609375
-59.08203125,-21.484375,-45.41015625,-42.48046875
-46.875,-5.859375,-44.921875,-45.8984375
-41.015625,-8.30078125,-46.38671875,-45.8984375
-44.43359375,-84.9609375,-46.38671875,-44.921875
-56.640625,-125.9765625,-48.828125,-47.36328125
-61.03515625,-35.15625,-46.38671875,-40.52734375
-49.8046875,-11.23046875,-44.921875,-36.1328125
-35.64453125,-6.8359375,-44.921875,-41.9921875
-44.43359375,-63.4765625,-43.9453125,-50.78125
-50.78125,-105.46875,-39.55078125,-40.0390625
-46.875,-36.1328125,-41.015625,-33.203125
-44.921875,-2.44140625,-44.921875,-43.45703125
-36.1328125,-28.3203125,-51.26953125,-52.24609375
-35.64453125,-57.12890625,-55.6640625,-56.640625
-53.7109375,-61.5234375,-52.734375,-55.17578125
-67.87109375,-58.10546875,-55.17578125,-52.24609375
-55.6640625,-25.390625,-56.15234375,-54.6875
-40.0390625,-20.01953125,-50.78125,-53.22265625
-40.52734375,-59.5703125,-43.9453125,-46.875
-46.875,-88.37890625,-46.38671875,-47.36328125
-42.48046875,-41.50390625,-44.43359375,-41.015625
-31.25,7.32421875,-40.52734375,-31.25
-33.69140625,-12.20703125,-46.38671875,-34.1796875
-34.1796875,-48.33984375,-45.41015625,-35.64453125
-41.50390625,-102.05078125,-43.9453125,-42.96875
-56.640625,-62.5,-46.875,-46.38671875
-48.828125,17.578125,-40.52734375,-31.73828125
-31.73828125,-20.01953125,-43.45703125,-31.25
-22.94921875,-79.58984375,-50.29296875,-41.9921875
-30.2734375,-93.75,-45.41015625,-38.0859375
-48.828125,-61.5234375,-41.9921875,-42.48046875
-50.29296875,-1.46484375,-39.55078125,-49.31640625
-30.2734375,-8.7890625,-38.57421875,-33.203125
-32.2265625,-63.4765625,-39.0625,-30.76171875
-55.6640625,-92.7734375,-39.55078125,-47.36328125
-59.08203125,-81.54296875,-42.96875,-46.38671875
-54.6875,-25.87890625,-45.41015625,-46.38671875
-46.875,0.48828125,-44.921875,-48.33984375
-38.57421875,-33.69140625,-45.41015625,-47.8515625
-50.78125,-86.9140625,-49.31640625,-52.24609375
-61.03515625,-111.328125,-51.7578125,-53.7109375
-54.6875,-50.29296875,-44.43359375,-46.875
-46.875,-3.90625,-39.55078125,-39.55078125
-47.36328125,-44.43359375,-40.0390625,-41.50390625
-59.5703125,-96.6796875,-42.48046875,-54.6875
-68.359375,-87.890625,-43.45703125,-53.7109375
-68.84765625,-27.34375,-42.96875,-40.52734375
-50.78125,9.27734375,-41.50390625,-37.59765625
-39.0625,-40.52734375,-43.45703125,-40.0390625
-38.0859375,-98.14453125,-44.921875,-40.52734375
-38.0859375,-62.98828125,-40.52734375,-27.83203125
-45.41015625,-45.41015625,-41.9921875,-25.87890625
-41.015625,-27.83203125,-39.55078125,-28.3203125
-34.66796875,-29.296875,-36.1328125,-23.92578125
-38.0859375,-99.12109375,-34.1796875,-27.34375
-48.828125,-98.14453125,-31.73828125,-29.78515625
-56.15234375,-29.296875,-32.2265625,-27.83203125
-47.8515625,4.8828125,-35.15625,-32.2265625
-39.55078125,-20.5078125,-40.0390625,-33.203125
-50.29296875,-62.01171875,-41.50390625,-39.55078125
-59.08203125,-104.00390625,-36.62109375,-41.50390625
-62.01171875,-50.78125,-38.57421875,-35.15625
-63.4765625,37.59765625,-37.59765625,-40.0390625
-56.15234375,-32.2265625,-33.203125,-44.43359375
-49.8046875,-101.5625,-34.1796875,-44.921875
-55.17578125,-78.61328125,-35.64453125,-46.38671875
-55.6640625,-41.50390625,-38.0859375,-46.875
-39.55078125,-7.32421875,-40.0390625,-47.36328125
-21.97265625,-4.39453125,-41.015625,-50.78125
-24.90234375,-65.4296875,-36.1328125,-41.9921875
-40.52734375,-89.35546875,-39.0625,-43.45703125
-44.921875,-55.17578125,-42.48046875,-47.36328125
-38.0859375,-7.32421875,-40.52734375,-40.0390625
-26.3671875,-0.9765625,-42.48046875,-39.0625
-24.4140625,-18.5546875,-42.48046875,-43.45703125
-46.875,-108.88671875,-45.8984375,-44.43359375
-61.5234375,-124.51171875,-43.9453125,-41.50390625
-52.734375,-18.06640625,-43.9453125,-40.0390625
-45.41015625,-16.6015625,-45.8984375,-36.62109375
-41.9921875,-60.546875,-43.45703125,-34.1796875
-48.33984375,-76.66015625,-45.8984375,-38.57421875
-52.24609375,-74.70703125,-45.41015625,-40.52734375
-41.015625,-16.11328125,-41.015625,-40.0390625
-34.66796875,2.44140625,-43.45703125,-41.50390625
-29.78515625,-69.82421875,-45.8984375,-41.015625
-34.1796875,-87.890625,-47.8515625,-48.33984375
-45.41015625,-56.640625,-52.734375,-41.9921875
-42.48046875,-33.69140625,-54.6875,-29.296875
-28.80859375,-1.46484375,-51.7578125,-36.1328125
-23.92578125,-28.3203125,-46.875,-41.50390625
-34.1796875,-91.30859375,-48.828125,-45.41015625
-46.38671875,-80.56640625,-48.828125,-51.7578125
-48.33984375,-19.53125,-47.8515625,-47.8515625
-44.43359375,-15.13671875,-50.78125,-42.96875
-41.015625,-44.921875,-50.29296875,-43.9453125
-41.9921875,-81.0546875,-46.38671875,-41.015625
-51.26953125,-82.51953125,-46.38671875,-39.55078125
-57.12890625,-36.62109375,-48.828125,-39.0625
-42.96875,26.3671875,-47.8515625,-39.55078125
-34.1796875,-18.5546875,-50.29296875,-38.57421875
-43.9453125,-127.9296875,-52.734375,-41.015625
-56.15234375,-112.3046875,-56.640625,-41.015625
-61.5234375,-39.0625,-52.734375,-36.1328125
-50.29296875,11.23046875,-52.734375,-36.62109375
-42.48046875,-5.859375,-54.6875,-35.15625
-44.921875,-77.63671875,-46.875,-41.50390625
-59.08203125,-108.3984375,-42.96875,-47.8515625
-64.94140625,-46.875,-45.41015625,-46.38671875
-45.41015625,-10.7421875,-43.45703125,-42.96875
-45.41015625,-14.6484375,-41.50390625,-49.8046875
-47.8515625,-36.1328125,-47.8515625,-55.17578125
-56.640625,-108.88671875,-52.734375,-48.33984375
-55.6640625,-73.2421875,-53.7109375,-41.50390625
-46.875,-1.953125,-54.6875,-42.96875
-43.45703125,-32.71484375,-56.640625,-44.43359375
-32.71484375,-81.0546875,-55.17578125,-30.76171875
-46.875,-94.7265625,-51.7578125,-27.34375
-77.63671875,-72.265625,-50.29296875,-47.36328125
-75.1953125,-12.20703125,-51.7578125,-54.6875
-62.98828125,-13.671875,-55.6640625,-49.8046875
-60.546875,-66.40625,-56.640625,-54.6875
-62.01171875,-95.703125,-57.6171875,-57.6171875
-68.359375,-57.12890625,-58.10546875,-50.29296875
-63.96484375,-23.4375,-51.7578125,-41.015625
-53.22265625,-36.1328125,-51.7578125,-45.41015625
-52.734375,-64.453125,-52.734375,-55.6640625
-52.734375,-109.86328125,-51.26953125,-53.22265625
-56.15234375,-88.37890625,-48.828125,-44.921875
-58.59375,-12.20703125,-48.828125,-42.96875
-54.6875,-32.2265625,-50.29296875,-50.29296875
-54.19921875,-65.91796875,-45.8984375,-53.22265625
-57.12890625,-74.70703125,-45.41015625,-55.17578125
-61.03515625,-85.9375,-51.26953125,-50.29296875
-55.6640625,-11.71875,-49.31640625,-44.43359375
-43.9453125,35.64453125,-47.36328125,-47.36328125
-42.96875,-50.78125,-48.33984375,-52.24609375
-56.640625,-115.234375,-50.78125,-55.17578125
-63.96484375,-99.12109375,-53.22265625,-56.15234375
-58.59375,-37.59765625,-49.31640625,-51.7578125
-48.828125,12.20703125,-47.8515625,-41.015625
-39.0625,-21.484375,-46.38671875,-36.62109375
-38.57421875,-86.42578125,-42.96875,-40.0390625
-49.31640625,-89.35546875,-45.41015625,-48.33984375
-52.24609375,-19.04296875,-46.38671875,-44.921875
-38.0859375,0.0,-47.8515625,-41.015625
-32.71484375,-44.921875,-49.8046875,-37.59765625
-29.78515625,-62.5,-48.828125,-35.64453125
-40.0390625,-95.703125,-48.33984375,-39.0625
-57.6171875,-78.125,-50.78125,-41.9921875
-51.7578125,-5.37109375,-49.8046875,-41.50390625
-37.59765625,-7.32421875,-45.8984375,-38.57421875
-42.96875,-86.9140625,-48.33984375,-44.921875
-50.78125,-90.8203125,-48.828125,-48.828125
-56.640625,-48.828125,-49.8046875,-48.828125
-62.01171875,-16.6015625,-50.29296875,-55.17578125
-53.22265625,-4.8828125,-51.7578125,-56.640625
-48.828125,-66.40625,-52.24609375,-53.7109375
-54.6875,-82.03125,-49.8046875,-53.22265625
-52.24609375,-30.2734375,-49.31640625,-50.29296875
-43.9453125,10.25390625,-48.33984375,-41.50390625
-44.43359375,-28.3203125,-46.875,-41.015625
-46.38671875,-104.98046875,-44.43359375,-46.875
-50.29296875,-88.8671875,-47.8515625,-49.31640625
-48.33984375,-62.98828125,-44.921875,-44.43359375
-46.38671875,-15.13671875,-39.0625,-41.015625
-43.9453125,-6.34765625,-38.0859375,-41.50390625
-39.55078125,-64.94140625,-36.62109375,-45.41015625
-43.45703125,-73.73046875,-41.50390625,-49.8046875
-51.26953125,-69.3359375,-42.48046875,-49.8046875
-55.17578125,-15.13671875,-44.43359375,-52.24609375
-47.8515625,37.59765625,-45.41015625,-53.22265625
-37.59765625,-61.03515625,-42.48046875,-48.33984375
-51.26953125,-104.98046875,-43.9453125,-54.6875
-58.10546875,-75.68359375,-44.921875,-56.640625
-49.31640625,-47.8515625,-49.8046875,-44.921875
-42.48046875,-14.16015625,-52.24609375,-41.50390625
-43.9453125,-48.33984375,-49.8046875,-43.9453125
-44.921875,-88.8671875,-46.38671875,-51.26953125
-43.45703125,-91.796875,-42.48046875,-44.43359375
-47.8515625,-39.55078125,-42.96875,-40.52734375
-35.64453125,-11.71875,-44.921875,-38.57421875
-29.296875,-26.3671875,-46.875,-34.1796875
-36.1328125,-55.6640625,-49.8046875,-39.55078125
-43.9453125,-106.4453125,-51.26953125,-48.828125
-54.19921875,-60.05859375,-52.734375,-46.38671875
-44.43359375,5.37109375,-55.17578125,-41.9921875
-36.1328125,-29.78515625,-53.7109375,-45.8984375
-51.26953125,-84.9609375,-54.6875,-46.38671875
-69.82421875,-95.703125,-61.03515625,-51.7578125
-67.3828125,-62.5,-58.59375,-57.6171875
-52.24609375,-3.41796875,-51.26953125,-57.6171875
-46.38671875,-16.11328125,-51.7578125,-57.6171875
-53.7109375,-89.84375,-54.6875,-58.10546875
-62.5,-92.28515625,-53.22265625,-51.26953125
-62.01171875,-13.671875,-55.6640625,-47.8515625
-51.26953125,-5.859375,-51.7578125,-42.96875
-47.36328125,-53.7109375,-47.8515625,-41.50390625
-47.36328125,-72.75390625,-49.31640625,-54.6875
-51.7578125,-84.47265625,-50.78125,-54.19921875
-62.01171875,-60.05859375,-53.7109375,-46.875
-54.6875,-5.859375,-49.31640625,-43.45703125
-42.96875,-4.39453125,-43.9453125,-43.45703125
-41.50390625,-51.7578125,-48.33984375,-44.921875
-49.8046875,-71.2890625,-51.26953125,-45.41015625
-61.03515625,-100.09765625,-49.31640625,-48.33984375
-54.6875,-28.80859375,-47.36328125,-46.38671875
-40.52734375,17.578125,-42.48046875,-40.0390625
-43.9453125,-76.171875,-41.9921875,-41.50390625
-54.6875,-115.72265625,-47.8515625,-45.8984375
-61.5234375,-79.58984375,-48.828125,-49.31640625
-63.96484375,-26.3671875,-49.8046875,-54.19921875
-58.10546875,-12.20703125,-49.31640625,-57.6171875
-49.8046875,-55.17578125,-46.38671875,-48.828125
-33.203125,-93.75,-48.828125,-25.390625
-44.921875,-80.56640625,-48.828125,-32.2265625
-70.80078125,-10.7421875,-48.33984375,-57.6171875
-58.10546875,5.859375,-54.19921875,-62.98828125
-55.6640625,-41.015625,-56.15234375,-64.94140625
-68.84765625,-61.03515625,-49.31640625,-67.87109375
-75.68359375,-81.0546875,-50.29296875,-64.94140625
-73.2421875,-50.78125,-50.78125,-63.96484375
-59.5703125,-11.71875,-54.19921875,-66.40625
-43.45703125,-57.12890625,-53.22265625,-49.8046875
-40.0390625,-88.37890625,-47.36328125,-47.36328125
-46.38671875,-77.63671875,-46.875,-53.22265625
-54.6875,-29.78515625,-46.38671875,-47.36328125
-41.015625,-0.9765625,-46.875,-35.64453125
-32.71484375,-27.34375,-49.31640625,-33.203125
-40.0390625,-67.87109375,-51.7578125,-41.015625
-49.31640625,-63.4765625,-54.6875,-41.9921875
-49.8046875,-5.37109375,-54.19921875,-48.33984375
-36.1328125,-3.41796875,-48.33984375,-48.828125
-33.203125,-33.203125,-46.875,-45.8984375
-36.62109375,-66.89453125,-51.26953125,-45.41015625
-40.52734375,-101.5625,-55.17578125,-44.921875
-47.8515625,-43.9453125,-60.546875,-47.36328125
-35.64453125,15.625,-53.7109375,-38.57421875
-32.2265625,-4.39453125,-44.43359375,-38.0859375
-47.36328125,-62.98828125,-45.41015625,-51.26953125
-51.26953125,-74.70703125,-42.96875,-61.03515625
-55.17578125,-50.29296875,-43.45703125,-62.01171875
-54.19921875,7.32421875,-44.921875,-52.24609375
-43.9453125,22.4609375,-45.8984375,-51.7578125
-41.015625,-69.82421875,-46.875,-51.26953125
-47.36328125,-104.4921875,-44.921875,-44.43359375
-51.7578125,-54.6875,-50.78125,-51.7578125
-56.15234375,-3.41796875,-55.6640625,-61.03515625
-52.24609375,-5.859375,-53.7109375,-58.59375
-45.41015625,-71.77734375,-52.24609375,-52.734375
-51.7578125,-116.2109375,-48.33984375,-49.8046875
-60.546875,-67.87109375,-44.921875,-43.9453125
-57.6171875,-11.71875,-41.50390625,-37.59765625
-52.734375,-28.80859375,-45.8984375,-41.9921875
-54.19921875,-37.109375,-51.26953125,-41.9921875
-60.546875,-59.5703125,-47.36328125,-43.9453125
-61.5234375,-104.4921875,-51.7578125,-42.48046875
-56.640625,-46.875,-54.6875,-38.0859375
-49.31640625,-20.5078125,-49.31640625,-47.8515625
-48.828125,-49.31640625,-49.31640625,-52.24609375
-62.01171875,-87.40234375,-50.29296875,-51.26953125
-71.77734375,-83.984375,-50.29296875,-54.19921875
-61.5234375,-16.6015625,-51.26953125,-48.828125
-42.48046875,5.859375,-51.26953125,-47.36328125
-39.0625,-24.4140625,-49.31640625,-52.24609375
-43.45703125,-97.65625,-48.33984375,-51.26953125
-47.36328125,-80.56640625,-48.828125,-42.48046875
-45.8984375,6.34765625,-48.33984375,-39.55078125
-41.9921875,-4.39453125,-43.9453125,-40.52734375
-41.9921875,-69.3359375,-40.0390625,-39.55078125
-51.26953125,-88.8671875,-38.0859375,-43.45703125
-59.08203125,-65.4296875,-43.9453125,-46.875
-58.59375,-34.66796875,-47.8515625,-45.8984375
-52.24609375,-14.6484375,-46.38671875,-40.52734375
-47.8515625,-35.15625,-48.33984375,-42.96875
-55.6640625,-84.9609375,-51.26953125,-48.828125
-61.03515625,-85.44921875,-47.8515625,-46.38671875
-52.24609375,-48.828125,-44.43359375,-43.9453125
-51.26953125,-15.625,-51.26953125,-50.29296875
-50.78125,-9.27734375,-57.12890625,-50.29296875
-46.38671875,-67.3828125,-53.22265625,-45.8984375
-52.24609375,-141.6015625,-54.19921875,-51.26953125
-60.546875,-94.23828125,-61.5234375,-52.734375
-56.15234375,-15.625,-61.03515625,-42.96875
-45.41015625,-19.04296875,-56.15234375,-46.875
-45.41015625,-65.4296875,-52.24609375,-54.6875
-51.26953125,-86.42578125,-54.6875,-46.38671875
-43.9453125,-56.640625,-58.59375,-46.38671875
-42.96875,-5.37109375,-54.6875,-41.50390625
-40.52734375,-8.7890625,-51.7578125,-41.015625
-37.109375,-68.84765625,-55.6640625,-51.26953125
-40.0390625,-55.6640625,-58.10546875,-50.78125
-43.9453125,-73.73046875,-50.78125,-43.45703125
-50.78125,-46.38671875,-46.38671875,-36.62109375
-42.96875,13.18359375,-49.31640625,-42.96875
-41.9921875,-62.5,-48.33984375,-49.31640625
-58.10546875,-89.84375,-47.8515625,-54.6875
-61.5234375,-65.4296875,-46.875,-50.78125
-54.6875,-17.08984375,-45.8984375,-39.55078125
-41.015625,20.99609375,-45.41015625,-42.48046875
-34.66796875,-24.90234375,-44.43359375,-51.26953125
-44.921875,-94.23828125,-50.29296875,-54.19921875
-56.640625,-92.28515625,-46.38671875,-55.6640625
-57.12890625,0.0,-45.41015625,-56.640625
-44.43359375,-5.859375,-49.31640625,-53.22265625
-37.59765625,-75.68359375,-50.29296875,-54.19921875
-41.9921875,-96.19140625,-52.734375,-55.17578125
-53.22265625,-83.49609375,-55.17578125,-51.26953125
-57.6171875,-6.34765625,-56.15234375,-43.9453125
-42.48046875,4.39453125,-51.26953125,-37.109375
-30.76171875,-42.96875,-46.875,-39.0625
-33.69140625,-68.359375,-48.828125,-44.921875
-46.38671875,-78.61328125,-51.26953125,-42.48046875
-46.38671875,-31.25,-51.7578125,-35.64453125
-33.203125,16.11328125,-47.8515625,-30.2734375
-25.87890625,25.87890625,-44.43359375,-36.1328125
-36.62109375,-77.1484375,-51.26953125,-46.875
-49.8046875,-135.7421875,-53.22265625,-50.29296875
-55.6640625,-52.734375,-49.31640625,-52.24609375
-49.31640625,-3.41796875,-45.8984375,-47.8515625
-45.41015625,-35.15625,-43.9453125,-49.8046875
-49.31640625,-51.26953125,-45.41015625,-57.6171875
-55.6640625,-81.54296875,-43.45703125,-43.9453125
-60.05859375,-54.6875,-43.45703125,-31.25
-53.22265625,11.23046875,-45.8984375,-39.0625
-47.36328125,-21.97265625,-44.43359375,-43.9453125
-46.875,-47.8515625,-41.9921875,-36.1328125
-51.7578125,-64.94140625,-43.45703125,-41.015625
-54.6875,-74.70703125,-44.921875,-41.50390625
-49.8046875,-22.4609375,-41.015625,-31.73828125
-50.78125,-19.04296875,-39.55078125,-41.015625
-56.640625,-79.1015625,-41.50390625,-50.29296875
-56.640625,-82.51953125,-45.8984375,-53.7109375
-55.17578125,-58.10546875,-45.8984375,-46.875
-41.9921875,-14.16015625,-40.52734375,-36.62109375
-26.85546875,0.48828125,-39.55078125,-37.59765625
-27.83203125,-47.36328125,-38.57421875,-42.96875
-39.55078125,-91.30859375,-39.0625,-43.45703125
-51.7578125,-53.7109375,-46.38671875,-41.9921875
-53.7109375,31.25,-51.7578125,-44.43359375
-45.41015625,9.27734375,-47.8515625,-48.33984375
-54.19921875,-85.44921875,-40.52734375,-55.17578125
-74.70703125,-123.046875,-40.52734375,-64.94140625
-85.9375,-94.7265625,-41.9921875,-64.453125
-92.7734375,-19.53125,-39.55078125,-69.82421875
-69.82421875,-11.71875,-38.0859375,-50.78125
-48.33984375,-40.52734375,-40.52734375,-47.36328125
-95.703125,-74.70703125,-42.96875,-105.46875
-125.9765625,-73.2421875,-45.8984375,-125.0
-128.41796875,-7.32421875,-52.24609375,-126.46484375
-126.953125,32.2265625,-53.7109375,-148.4375
-126.953125,26.3671875,-53.22265625,-164.55078125
-147.4609375,-46.875,-55.17578125,-179.19921875
-171.38671875,-53.7109375,-57.12890625,-189.94140625
-176.26953125,30.2734375,-62.01171875,-192.3828125
-167.96875,26.3671875,-59.08203125,-201.171875
-176.26953125,-1.953125,-53.7109375,-212.40234375
-169.43359375,-24.4140625,-54.6875,-205.56640625
-175.78125,-40.0390625,-56.15234375,-208.0078125
-186.03515625,24.90234375,-57.6171875,-209.9609375
-172.8515625,73.2421875,-56.15234375,-203.61328125
-171.38671875,18.06640625,-57.6171875,-210.9375
-162.59765625,-20.01953125,-61.5234375,-203.125
-166.9921875,6.34765625,-58.59375,-197.75390625
-169.43359375,20.01953125,-62.98828125,-195.3125
-161.62109375,34.1796875,-66.89453125,-196.77734375
-151.3671875,44.921875,-66.89453125,-195.80078125
-136.23046875,-7.32421875,-69.3359375,-183.10546875
-138.18359375,-26.85546875,-70.80078125,-174.8046875
-130.859375,14.6484375,-68.84765625,-157.71484375
-130.859375,29.296875,-69.3359375,-155.2734375
-116.69921875,18.06640625,-69.3359375,-145.5078125
-93.75,-24.90234375,-65.4296875,-122.0703125
-102.05078125,-41.50390625,-65.4296875,-115.234375
-92.7734375,-22.4609375,-63.96484375,-102.5390625
-80.56640625,64.453125,-61.03515625,-105.46875
-78.61328125,32.71484375,-63.4765625,-104.4921875
-65.91796875,-74.70703125,-62.01171875,-89.35546875
-71.77734375,-66.89453125,-57.6171875,-91.796875
-75.1953125,-41.015625,-60.546875,-76.66015625
-58.10546875,29.296875,-62.98828125,-61.03515625
-46.875,28.3203125,-61.5234375,-68.84765625
-51.26953125,-58.59375,-60.05859375,-76.66015625
-59.08203125,-59.08203125,-58.10546875,-71.2890625
-67.87109375,-32.2265625,-62.5,-68.359375
-69.3359375,-15.625,-69.3359375,-69.82421875
-49.8046875,34.1796875,-62.5,-63.4765625
-44.43359375,3.90625,-56.640625,-67.87109375
-55.6640625,-72.265625,-60.546875,-66.89453125
-64.453125,-80.078125,-59.08203125,-64.94140625
-66.89453125,6.8359375,-52.734375,-62.98828125
-54.19921875,31.25,-48.33984375,-53.7109375
-46.875,-14.6484375,-46.875,-53.7109375
-56.15234375,-46.875,-45.41015625,-57.6171875
-62.01171875,-54.19921875,-42.96875,-60.05859375
-67.3828125,5.37109375,-37.59765625,-66.40625
-57.6171875,43.9453125,-35.15625,-69.82421875
-57.6171875,-3.41796875,-35.64453125,-75.1953125
-83.984375,-55.6640625,-38.0859375,-85.9375
-88.8671875,-23.92578125,-40.52734375,-84.9609375
-82.51953125,-7.8125,-44.43359375,-82.51953125
-65.91796875,-13.18359375,-43.9453125,-76.66015625
-51.26953125,-12.20703125,-41.50390625,-79.58984375
-60.05859375,-43.45703125,-44.921875,-89.35546875
-69.82421875,-63.4765625,-49.8046875,-85.44921875
-66.89453125,-32.71484375,-46.38671875,-73.73046875
-57.6171875,-0.48828125,-44.921875,-69.3359375
-55.17578125,-29.296875,-48.33984375,-73.2421875
-54.6875,-62.01171875,-48.33984375,-69.3359375
-60.05859375,-77.63671875,-47.8515625,-63.4765625
-61.03515625,-36.1328125,-46.38671875,-55.17578125
-45.8984375,23.4375,-48.33984375,-46.38671875
-34.1796875,-41.9921875,-47.36328125,-46.38671875
-37.109375,-109.375,-48.33984375,-41.50390625
-45.41015625,-83.984375,-52.24609375,-27.34375
-52.24609375,-90.8203125,-52.24609375,-22.94921875
-44.921875,-43.9453125,-51.26953125,-23.92578125
-32.2265625,-29.78515625,-49.8046875,-22.4609375
-23.92578125,-83.49609375,-48.828125,-23.92578125
-23.4375,-112.79296875,-48.828125,-18.5546875
-17.08984375,-88.37890625,-43.45703125,-2.9296875
-4.39453125,-41.9921875,-40.0390625,2.44140625
11.23046875,-4.8828125,-41.50390625,-3.90625
13.18359375,-31.25,-40.52734375,4.39453125
2.44140625,-125.48828125,-41.015625,7.8125
8.30078125,-116.2109375,-43.45703125,3.90625
14.16015625,-40.52734375,-44.921875,9.27734375
20.99609375,-29.296875,-45.41015625,9.765625
24.90234375,-71.2890625,-43.9453125,7.32421875
7.8125,-72.75390625,-44.43359375,2.9296875
-2.44140625,-84.9609375,-42.48046875,7.32421875
-4.8828125,-89.84375,-43.9453125,10.7421875
-1.46484375,-40.0390625,-47.8515625,6.8359375
8.7890625,-62.98828125,-46.38671875,8.7890625
8.7890625,-100.5859375,-46.875,8.30078125
6.34765625,-70.3125,-50.29296875,5.859375
4.39453125,-56.640625,-49.31640625,11.23046875
7.32421875,-41.50390625,-49.8046875,4.8828125
9.27734375,-55.17578125,-52.734375,-2.44140625
2.9296875,-113.28125,-53.22265625,-6.8359375
-7.8125,-120.1171875,-53.7109375,-11.71875
-16.6015625,-42.48046875,-56.15234375,-7.8125
4.8828125,-17.08984375,-53.22265625,-4.8828125
16.6015625,-58.10546875,-49.31640625,2.44140625
16.11328125,-75.1953125,-47.36328125,5.859375
10.25390625,-119.140625,-48.828125,1.46484375
-2.44140625,-50.29296875,-54.6875,-0.9765625
17.578125,17.578125,-49.8046875,-0.48828125
23.92578125,-47.36328125,-44.43359375,-1.953125
4.39453125,-117.1875,-53.7109375,-7.8125
-11.71875,-114.2578125,-57.6171875,-10.7421875
-20.01953125,-62.01171875,-54.19921875,-9.27734375
-8.30078125,-7.32421875,-49.8046875,-10.25390625
-5.859375,-20.99609375,-43.9453125,-8.7890625
-14.16015625,-84.47265625,-45.41015625,-11.23046875
-22.4609375,-76.171875,-49.31640625,-23.4375
-24.4140625,-55.6640625,-50.29296875,-13.671875
-12.6953125,-40.52734375,-51.26953125,-8.7890625
-10.25390625,-21.484375,-53.22265625,-12.6953125
-4.8828125,-42.48046875,-48.828125,-6.8359375
-5.37109375,-66.40625,-41.9921875,0.9765625
-11.71875,-99.12109375,-44.43359375,5.859375
-9.765625,-62.5,-51.7578125,3.41796875
0.48828125,-17.578125,-54.6875,-7.8125
-5.37109375,-53.7109375,-54.19921875,-17.08984375
-21.484375,-94.7265625,-59.08203125,-23.4375
-33.203125,-76.171875,-61.03515625,-31.25
-28.3203125,-3.90625,-57.6171875,-31.25
-19.04296875,0.0,-58.59375,-31.73828125
-25.87890625,-51.7578125,-61.03515625,-40.0390625
-24.90234375,-88.37890625,-57.6171875,-31.73828125
-34.66796875,-51.26953125,-57.6171875,-22.4609375
-37.109375,-29.78515625,-56.15234375,-29.78515625
-25.87890625,-34.1796875,-50.29296875,-30.2734375
-28.80859375,-39.0625,-50.29296875,-22.94921875
-27.83203125,-106.4453125,-50.78125,-28.3203125
-26.3671875,-92.28515625,-57.6171875,-27.83203125
-2.44140625,-28.80859375,-61.5234375,-8.7890625
-6.34765625,-9.765625,-48.828125,-20.5078125
-46.875,-49.8046875,-40.0390625,-48.33984375
-57.12890625,-93.26171875,-45.8984375,-50.78125
-54.19921875,-98.14453125,-47.36328125,-41.015625
-63.96484375,-30.2734375,-40.0390625,-41.50390625
-69.82421875,8.30078125,-37.59765625,-53.22265625
-69.82421875,-62.98828125,-42.48046875,-61.03515625
-73.2421875,-146.97265625,-54.19921875,-64.453125
-76.171875,-121.58203125,-57.6171875,-62.01171875
-76.66015625,-54.6875,-50.29296875,-62.01171875
-67.3828125,-10.7421875,-47.8515625,-56.640625
-48.33984375,-18.5546875,-44.43359375,-49.8046875
-41.015625,-87.890625,-47.36328125,-57.6171875
-50.78125,-104.4921875,-50.78125,-57.12890625
-62.98828125,-51.7578125,-46.38671875,-47.36328125
-53.7109375,-4.8828125,-45.41015625,-46.38671875
-46.38671875,-27.34375,-47.36328125,-56.640625
-50.29296875,-49.8046875,-43.45703125,-62.5
-72.265625,-88.37890625,-43.45703125,-55.17578125
-65.4296875,-70.80078125,-47.36328125,-49.8046875
-48.33984375,-2.9296875,-49.8046875,-44.921875
-42.48046875,-17.08984375,-45.41015625,-40.0390625
-38.0859375,-80.078125,-40.0390625,-42.96875
-55.17578125,-99.12109375,-47.8515625,-45.8984375
-62.98828125,-67.87109375,-51.26953125,-47.8515625
-45.8984375,3.90625,-41.015625,-46.875
-32.71484375,-7.8125,-33.69140625,-37.109375
-37.109375,-83.49609375,-41.50390625,-40.0390625
-51.7578125,-84.9609375,-46.38671875,-40.52734375
-59.5703125,-23.4375,-44.921875,-41.9921875
-49.31640625,-6.34765625,-47.8515625,-40.52734375
-28.3203125,-47.8515625,-46.875,-37.109375
-38.57421875,-96.6796875,-48.33984375,-36.1328125
-54.19921875,-91.796875,-49.8046875,-29.78515625
-56.640625,-54.19921875,-46.38671875,-32.71484375
-57.6171875,-12.6953125,-49.31640625,-45.41015625
-46.875,0.0,-48.828125,-47.8515625
-46.38671875,-45.41015625,-46.875,-47.36328125
-58.10546875,-92.7734375,-50.78125,-47.8515625
-81.54296875,-79.1015625,-50.29296875,-45.41015625
-70.80078125,-16.11328125,-43.45703125,-39.55078125
-40.52734375,14.6484375,-47.8515625,-37.109375
-42.48046875,-40.0390625,-57.6171875,-41.015625
-51.26953125,-118.65234375,-57.6171875,-48.828125
-59.5703125,-105.95703125,-53.7109375,-48.33984375
-50.29296875,-41.9921875,-55.17578125,-32.2265625
-35.64453125,-7.8125,-49.31640625,-22.94921875
-40.0390625,-34.66796875,-43.9453125,-24.4140625
-47.36328125,-87.40234375,-48.828125,-31.25
-51.26953125,-87.890625,-49.31640625,-39.0625
-54.6875,-40.0390625,-49.31640625,-35.15625
-52.734375,-0.48828125,-49.31640625,-30.2734375
-42.48046875,-26.3671875,-43.9453125,-37.109375
-29.78515625,-55.17578125,-40.52734375,-38.0859375
-46.875,-85.44921875,-45.8984375,-42.96875
-57.6171875,-46.875,-52.24609375,-53.22265625
-47.36328125,6.8359375,-45.41015625,-53.22265625
-41.015625,-31.73828125,-37.109375,-49.8046875
-41.9921875,-85.9375,-42.48046875,-49.31640625
-48.828125,-79.1015625,-40.0390625,-46.875
-49.31640625,-31.73828125,-40.52734375,-41.50390625
-44.921875,-1.46484375,-47.8515625,-44.921875
-35.64453125,-15.13671875,-50.29296875,-57.6171875
-37.59765625,-76.66015625,-48.33984375,-63.4765625
-42.48046875,-82.03125,-48.828125,-52.734375
-14.6484375,-23.4375,-48.33984375,-34.66796875
-23.4375,-22.4609375,-43.45703125,-47.36328125
-41.015625,-45.8984375,-44.43359375,-58.10546875
-44.43359375,-70.80078125,-43.9453125,-46.875
-49.8046875,-90.33203125,-48.828125,-41.50390625
-41.50390625,-51.7578125,-49.8046875,-44.921875
-33.203125,-7.8125,-44.921875,-50.78125
-30.2734375,-28.80859375,-44.921875,-46.875
-34.1796875,-68.84765625,-47.36328125,-45.41015625
-34.1796875,-96.19140625,-54.6875,-44.43359375
-49.8046875,-76.171875,-57.6171875,-48.828125
-39.55078125,-19.53125,-53.7109375,-45.8984375
-22.94921875,20.5078125,-47.36328125,-45.41015625
-19.53125,-50.29296875,-43.45703125,-48.33984375
-28.80859375,-125.9765625,-42.96875,-38.57421875
-41.50390625,-88.8671875,-40.52734375,-35.64453125
-42.96875,-30.2734375,-40.52734375,-39.55078125
-23.92578125,0.9765625,-41.015625,-34.66796875
-16.11328125,-39.0625,-40.0390625,-36.1328125
-19.04296875,-103.515625,-40.52734375,-40.0390625
-15.625,-69.3359375,-41.50390625,-36.1328125
-21.484375,-11.71875,-38.0859375,-30.76171875
-17.578125,-23.4375,-38.57421875,-28.3203125
-9.765625,-38.57421875,-46.38671875,-25.390625
-17.08984375,-36.62109375,-45.41015625,-30.76171875
-39.55078125,-100.5859375,-45.41015625,-32.71484375
-44.921875,-66.40625,-48.828125,-28.3203125
-31.73828125,3.41796875,-42.48046875,-30.2734375
-19.04296875,-35.64453125,-39.55078125,-28.3203125
-28.3203125,-93.75,-44.43359375,-23.4375
-40.0390625,-92.28515625,-42.48046875,-22.4609375
-38.0859375,-24.4140625,-44.43359375,-31.25
-34.1796875,10.7421875,-45.41015625,-32.2265625
-29.296875,-33.69140625,-39.0625,-36.1328125
-41.9921875,-89.35546875,-44.43359375,-50.29296875
-57.6171875,-88.8671875,-50.78125,-52.734375
-66.89453125,-20.01953125,-51.7578125,-46.875
-54.19921875,-5.859375,-54.6875,-52.734375
-38.57421875,-69.82421875,-52.24609375,-54.6875
-46.875,-89.35546875,-50.78125,-54.19921875
-60.05859375,-82.03125,-53.7109375,-61.03515625
-57.12890625,-43.45703125,-50.78125,-58.10546875
-34.1796875,11.71875,-47.36328125,-53.22265625
-32.2265625,2.44140625,-48.828125,-51.7578125
-43.45703125,-78.61328125,-52.734375,-53.22265625
-42.96875,-91.30859375,-56.15234375,-51.7578125
-53.7109375,-32.2265625,-54.19921875,-46.38671875
-40.0390625,-4.8828125,-47.8515625,-36.1328125
-19.53125,16.6015625,-47.36328125,-32.2265625
-20.99609375,-46.38671875,-44.921875,-30.76171875
-28.80859375,-102.05078125,-43.9453125,-23.4375
-40.0390625,-41.9921875,-41.015625,-20.5078125
-35.15625,-12.20703125,-42.48046875,-31.25
-16.6015625,1.46484375,-44.921875,-34.1796875
-31.25,-46.38671875,-46.875,-37.109375
-48.33984375,-88.8671875,-53.7109375,-41.9921875
-56.15234375,-59.5703125,-53.22265625,-48.828125
-65.4296875,-6.34765625,-44.43359375,-52.24609375
-50.29296875,-12.20703125,-37.109375,-44.43359375
-39.0625,-59.08203125,-44.43359375,-47.8515625
-41.9921875,-64.94140625,-47.8515625,-53.22265625
-54.6875,-79.58984375,-49.31640625,-54.19921875
-49.31640625,-39.0625,-47.8515625,-43.45703125
-32.71484375,-8.30078125,-45.41015625,-39.55078125
-38.57421875,-60.546875,-49.8046875,-49.31640625
-52.734375,-73.2421875,-47.36328125,-49.8046875
-51.26953125,-47.8515625,-45.41015625,-41.9921875
-55.6640625,-28.80859375,-46.38671875,-46.38671875
-48.828125,-14.16015625,-45.8984375,-52.734375
-38.57421875,-25.390625,-43.9453125,-52.734375
-38.57421875,-83.0078125,-44.921875,-57.6171875
-45.41015625,-86.9140625,-49.8046875,-56.15234375
-50.78125,2.44140625,-49.31640625,-44.921875
-31.25,-8.30078125,-45.8984375,-36.62109375
-20.5078125,-42.96875,-47.36328125,-47.8515625
-28.3203125,-68.359375,-51.26953125,-62.01171875
-39.0625,-88.8671875,-53.22265625,-54.19921875
-43.9453125,-36.1328125,-52.24609375,-48.828125
-41.50390625,-2.44140625,-53.7109375,-52.734375
-42.96875,-20.99609375,-53.22265625,-52.734375
-30.76171875,-64.453125,-50.29296875,-43.45703125
-34.1796875,-90.8203125,-52.734375,-45.41015625
-34.66796875,-75.68359375,-58.59375,-47.8515625
-20.01953125,-23.4375,-57.6171875,-25.87890625
-17.578125,21.484375,-52.24609375,-29.296875
-20.99609375,-59.08203125,-51.26953125,-45.41015625
-41.015625,-125.48828125,-48.828125,-52.24609375
-46.38671875,-52.734375,-43.45703125,-48.33984375
-23.4375,13.18359375,-43.9453125,-36.62109375
-17.08984375,-10.25390625,-49.31640625,-36.62109375
-32.71484375,-78.61328125,-53.22265625,-47.8515625
-44.921875,-104.4921875,-49.31640625,-51.7578125
-47.36328125,-47.36328125,-43.9453125,-40.52734375
-41.015625,8.7890625,-45.41015625,-33.69140625
-33.203125,-13.18359375,-48.33984375,-44.921875
-27.83203125,-53.7109375,-46.875,-56.15234375
-43.45703125,-64.453125,-50.78125,-58.59375
-53.22265625,-55.17578125,-54.19921875,-50.29296875
-54.6875,-40.52734375,-50.29296875,-47.36328125
-47.8515625,-30.2734375,-45.8984375,-52.734375
-55.17578125,-47.8515625,-50.78125,-53.7109375
-64.453125,-90.8203125,-52.24609375,-56.15234375
-55.17578125,-79.58984375,-47.8515625,-53.7109375
-48.33984375,-11.71875,-49.8046875,-49.31640625
-32.71484375,-10.7421875,-53.7109375,-47.36328125
-22.94921875,-59.5703125,-52.734375,-53.7109375
-37.109375,-101.07421875,-49.8046875,-57.6171875
-54.19921875,-74.70703125,-51.26953125,-56.640625
-41.9921875,8.30078125,-53.7109375,-49.8046875
-27.34375,-9.27734375,-51.26953125,-44.921875
-26.3671875,-52.24609375,-44.921875,-46.38671875
-42.96875,-70.80078125,-40.52734375,-62.5
-52.734375,-110.3515625,-43.45703125,-58.10546875
-47.8515625,-33.69140625,-42.96875,-43.45703125
-39.0625,9.27734375,-41.50390625,-43.9453125
-34.1796875,-20.99609375,-48.828125,-49.8046875
-25.87890625,-83.0078125,-47.36328125,-51.26953125
-37.59765625,-97.65625,-43.45703125,-49.31640625
-56.15234375,-48.828125,-46.875,-58.10546875
-56.15234375,-7.8125,-45.41015625,-67.3828125
-54.6875,12.20703125,-41.50390625,-64.453125
-52.24609375,-76.171875,-38.57421875,-67.3828125
-64.453125,-137.6953125,-47.36328125,-79.1015625
-74.21875,-57.6171875,-55.6640625,-72.75390625
-48.33984375,0.48828125,-47.36328125,-54.6875
-38.0859375,-16.11328125,-40.0390625,-46.875
-23.92578125,-49.31640625,-44.43359375,-38.0859375
-28.80859375,-104.00390625,-46.38671875,-26.3671875
-60.05859375,-59.5703125,-49.31640625,-41.9921875
-50.29296875,10.7421875,-52.734375,-46.875
-25.87890625,-5.37109375,-55.6640625,-42.96875
-16.6015625,-49.8046875,-55.17578125,-38.57421875
-13.18359375,-56.15234375,-58.10546875,-27.34375
-24.90234375,-64.94140625,-63.96484375,-22.94921875
-20.01953125,-3.90625,-58.10546875,-14.16015625
-13.671875,24.90234375,-55.6640625,-22.4609375
-28.80859375,-64.94140625,-54.19921875,-30.76171875
-34.1796875,-100.5859375,-51.26953125,-36.62109375
-42.96875,-45.41015625,-51.26953125,-32.71484375
-36.62109375,18.5546875,-43.9453125,-40.52734375
-20.5078125,28.80859375,-41.015625,-57.12890625
-25.390625,-21.484375,-43.9453125,-58.10546875
-45.41015625,-100.5859375,-49.8046875,-61.03515625
-60.05859375,-72.75390625,-49.31640625,-53.7109375
-45.41015625,18.06640625,-42.96875,-47.36328125
-41.9921875,-14.6484375,-48.828125,-49.8046875
-42.48046875,-90.33203125,-54.6875,-48.828125
-35.64453125,-93.75,-57.12890625,-42.48046875
-44.43359375,-78.125,-58.59375,-38.0859375
-50.29296875,-26.3671875,-56.640625,-30.76171875
-40.52734375,-15.625,-55.17578125,-38.0859375
-28.80859375,-33.69140625,-54.6875,-48.828125
-40.52734375,-70.80078125,-53.7109375,-41.015625
-46.38671875,-78.125,-58.10546875,-38.0859375
-53.7109375,-7.8125,-57.12890625,-43.9453125
-48.33984375,13.671875,-53.7109375,-44.921875
-33.69140625,-3.90625,-56.640625,-41.50390625
-41.9921875,-71.77734375,-57.6171875,-47.36328125
-54.6875,-129.39453125,-56.15234375,-53.7109375
-54.6875,-47.36328125,-50.78125,-45.8984375
-35.64453125,-6.8359375,-48.828125,-54.6875
-29.296875,-41.50390625,-50.29296875,-61.03515625
-31.25,-67.87109375,-48.33984375,-55.6640625
-36.1328125,-84.9609375,-43.45703125,-50.78125
-57.6171875,-52.24609375,-37.59765625,-49.8046875
-47.36328125,6.8359375,-44.43359375,-52.734375
-30.2734375,-2.44140625,-46.875,-40.52734375
-43.9453125,-69.82421875,-40.0390625,-40.0390625
-45.41015625,-56.15234375,-41.015625,-40.52734375
-41.50390625,-42.96875,-49.8046875,-30.2734375
-35.15625,-25.87890625,-51.26953125,-29.78515625
-19.53125,-25.87890625,-46.38671875,-26.3671875
-25.390625,-76.171875,-46.38671875,-22.94921875
-28.80859375,-98.6328125,-42.96875,-15.625
-45.8984375,-85.44921875,-45.41015625,-18.06640625
-47.36328125,-3.41796875,-46.38671875,-39.55078125
-23.4375,11.71875,-38.57421875,-39.55078125
-38.57421875,-72.265625,-36.1328125,-45.8984375
-66.40625,-95.21484375,-41.9921875,-59.08203125
-64.94140625,-45.41015625,-46.38671875,-49.31640625
-62.98828125,19.53125,-43.9453125,-55.17578125
-50.78125,-6.34765625,-45.41015625,-53.7109375
-54.6875,-75.1953125,-45.41015625,-47.8515625
-67.87109375,-98.14453125,-49.8046875,-56.640625
-43.45703125,-76.66015625,-55.6640625,-48.33984375
-34.1796875,5.37109375,-50.78125,-41.015625
-21.484375,17.08984375,-46.875,-44.43359375
-25.87890625,-65.4296875,-44.921875,-40.0390625
-43.45703125,-86.9140625,-43.45703125,-38.57421875
-36.62109375,-65.91796875,-46.38671875,-30.76171875
-23.92578125,-17.578125,-49.31640625,-24.4140625
-18.06640625,11.23046875,-46.875,-25.87890625
-1.953125,-19.04296875,-36.62109375,-20.5078125
-11.71875,-89.84375,-40.0390625,-23.92578125
-38.57421875,-90.8203125,-47.36328125,-30.2734375
-21.484375,-16.6015625,-43.45703125,-23.4375
-9.27734375,6.8359375,-41.015625,-25.390625
-19.53125,-28.80859375,-43.9453125,-39.0625
-30.2734375,-62.98828125,-43.9453125,-47.8515625
-39.0625,-75.68359375,-42.48046875,-49.8046875
-39.0625,-24.90234375,-46.875,-39.0625
-19.53125,14.16015625,-49.31640625,-41.9921875
-19.04296875,-44.43359375,-48.828125,-51.26953125
-40.0390625,-70.3125,-43.45703125,-54.6875
-47.8515625,-52.734375,-41.50390625,-46.875
-48.33984375,-53.22265625,-48.828125,-38.0859375
-45.41015625,-25.390625,-50.29296875,-39.0625
-26.3671875,-9.765625,-45.41015625,-35.15625
-27.83203125,-52.24609375,-40.52734375,-38.57421875
-54.19921875,-81.54296875,-44.43359375,-41.9921875
-47.8515625,-16.6015625,-52.24609375,-44.921875
-44.921875,20.5078125,-51.7578125,-53.22265625
-48.828125,-23.4375,-49.31640625,-53.7109375
-44.43359375,-59.5703125,-49.8046875,-53.7109375
-56.15234375,-94.7265625,-48.828125,-56.15234375
-52.734375,-52.24609375,-43.9453125,-45.8984375
-41.50390625,42.96875,-41.50390625,-42.96875
-39.55078125,-0.48828125,-40.52734375,-48.33984375
-37.109375,-108.88671875,-39.0625,-49.8046875
-41.50390625,-85.44921875,-40.52734375,-57.6171875
-47.36328125,-38.57421875,-41.50390625,-42.96875
-43.9453125,4.8828125,-41.015625,-34.1796875
-35.15625,-5.859375,-47.36328125,-51.26953125
-31.25,-72.75390625,-51.7578125,-47.8515625
-40.52734375,-88.37890625,-49.8046875,-43.9453125
-50.78125,-59.5703125,-46.875,-52.734375
-61.03515625,-30.2734375,-48.828125,-49.8046875
-42.48046875,-5.37109375,-47.8515625,-44.43359375
-21.97265625,3.90625,-42.48046875,-44.921875
-30.76171875,-90.33203125,-41.9921875,-38.57421875
-58.10546875,-99.12109375,-47.8515625,-41.50390625
-49.8046875,-1.46484375,-54.19921875,-45.41015625
-24.4140625,-20.99609375,-55.17578125,-51.7578125
-27.83203125,-48.33984375,-48.33984375,-53.7109375
-34.1796875,-73.2421875,-45.41015625,-47.36328125
-45.41015625,-71.2890625,-47.36328125,-36.62109375
-53.7109375,-17.578125,-45.8984375,-37.59765625
-34.1796875,6.34765625,-43.45703125,-49.31640625
-14.6484375,-22.94921875,-42.96875,-57.12890625
-22.4609375,-64.453125,-45.41015625,-61.03515625
-50.78125,-57.12890625,-46.38671875,-53.22265625
-63.96484375,-33.203125,-45.41015625,-45.41015625
-56.15234375,-35.64453125,-46.875,-46.38671875
-53.7109375,-44.43359375,-48.828125,-54.6875
-48.33984375,-85.9375,-48.828125,-55.6640625
-52.734375,-78.125,-46.875,-58.59375
-55.6640625,-6.34765625,-49.8046875,-61.03515625
-45.41015625,-19.53125,-55.6640625,-52.24609375
-32.2265625,-55.6640625,-57.12890625,-37.59765625
-38.0859375,-74.70703125,-51.7578125,-41.50390625
-63.96484375,-85.9375,-46.875,-63.96484375
-62.5,-10.25390625,-49.31640625,-65.91796875
-51.26953125,38.0859375,-53.7109375,-56.640625
-46.38671875,-38.57421875,-57.12890625,-54.6875
-44.43359375,-82.51953125,-58.10546875,-56.640625
-47.36328125,-75.1953125,-62.01171875,-45.8984375
-38.57421875,-32.71484375,-64.94140625,-38.0859375
-34.1796875,16.11328125,-63.4765625,-44.921875
-29.78515625,-8.7890625,-63.96484375,-45.8984375
-22.94921875,-72.265625,-61.5234375,-50.78125
-31.25,-73.2421875,-56.640625,-45.8984375
-35.64453125,-29.78515625,-59.08203125,-41.015625
-18.06640625,-34.1796875,-62.01171875,-45.41015625
-18.06640625,5.859375,-61.03515625,-48.33984375
-25.390625,-2.44140625,-59.08203125,-47.8515625
-18.5546875,-96.6796875,-57.6171875,-51.26953125
-35.64453125,-68.359375,-56.15234375,-46.875
-35.64453125,17.578125,-55.6640625,-38.57421875
-16.6015625,23.92578125,-49.8046875,-41.015625
-24.4140625,-43.45703125,-48.828125,-38.0859375
-48.828125,-90.8203125,-54.6875,-38.57421875
-54.6875,-57.6171875,-58.10546875,-41.9921875
-38.57421875,3.90625,-56.640625,-44.43359375
-26.85546875,10.7421875,-54.19921875,-48.33984375
-34.1796875,-44.921875,-50.29296875,-40.52734375
-30.2734375,-73.73046875,-46.38671875,-31.73828125
-29.78515625,-23.4375,-44.43359375,-40.0390625
-41.50390625,-1.953125,-42.96875,-36.62109375
-36.1328125,-27.83203125,-39.0625,-34.1796875
-37.59765625,-62.5,-40.52734375,-37.109375
-47.36328125,-92.28515625,-46.875,-39.55078125
-49.8046875,-67.3828125,-42.96875,-39.0625
-40.52734375,-10.25390625,-41.50390625,-41.015625
-30.76171875,-0.9765625,-42.96875,-41.50390625
-25.390625,-30.2734375,-43.9453125,-30.2734375
-20.99609375,-64.453125,-45.41015625,-33.203125
-30.2734375,-91.796875,-46.875,-30.76171875
-34.66796875,-21.484375,-50.29296875,-27.34375
-28.3203125,39.0625,-48.33984375,-37.109375
-36.1328125,-52.24609375,-47.8515625,-34.1796875
-32.71484375,-100.09765625,-45.41015625,-38.57421875
-41.50390625,-77.63671875,-44.43359375,-38.57421875
-49.8046875,-47.36328125,-47.36328125,-39.0625
-30.2734375,-4.8828125,-50.78125,-38.0859375
-25.87890625,-20.01953125,-49.8046875,-20.99609375
-26.3671875,-48.33984375,-50.29296875,-28.80859375
-25.87890625,-52.24609375,-51.26953125,-34.66796875
-39.0625,-36.1328125,-47.8515625,-31.25
-34.66796875,-2.44140625,-47.36328125,-29.78515625
-12.20703125,-2.9296875,-45.8984375,-29.78515625
-21.484375,-37.59765625,-42.96875,-41.015625
-33.69140625,-89.35546875,-42.96875,-43.9453125
-35.64453125,-81.0546875,-49.8046875,-37.59765625
-37.109375,-3.90625,-49.8046875,-26.85546875
-2.44140625,-5.37109375,-43.9453125,-7.8125
-1.46484375,-52.734375,-46.875,-12.20703125
-70.3125,-69.3359375,-48.33984375,-59.5703125
-83.0078125,-74.70703125,-52.24609375,-79.1015625
-72.75390625,-13.671875,-50.78125,-76.171875
-65.4296875,0.0,-44.43359375,-74.21875
-45.8984375,-52.734375,-46.875,-75.68359375
-74.70703125,-80.56640625,-52.24609375,-86.9140625
-102.5390625,-29.78515625,-56.640625,-82.03125
-87.890625,-5.859375,-53.7109375,-82.51953125
-68.84765625,-33.203125,-50.78125,-89.35546875
-59.5703125,-46.875,-50.29296875,-83.0078125
-62.01171875,-73.2421875,-50.78125,-71.2890625
-68.84765625,-71.77734375,-54.19921875,-67.3828125
-80.56640625,1.953125,-55.17578125,-75.68359375
-66.89453125,8.30078125,-57.12890625,-77.1484375
-61.03515625,-60.546875,-56.15234375,-68.359375
-64.94140625,-61.03515625,-53.7109375,-58.59375
-77.1484375,-95.703125,-53.22265625,-68.84765625
-80.078125,-37.109375,-46.875,-94.23828125
-72.75390625,42.48046875,-41.9921875,-107.91015625
-89.35546875,-47.36328125,-43.45703125,-110.83984375
-102.05078125,-113.28125,-55.17578125,-119.62890625
-120.60546875,-70.3125,-59.08203125,-128.41796875
-137.20703125,-33.69140625,-53.22265625,-131.8359375
-108.88671875,8.30078125,-50.29296875,-113.76953125
-96.19140625,-12.6953125,-50.78125,-102.5390625
-98.6328125,-91.796875,-50.78125,-100.5859375
-104.4921875,-89.84375,-46.875,-90.33203125
-101.5625,-30.2734375,-46.875,-74.70703125
-77.63671875,0.48828125,-47.8515625,-71.2890625
-64.453125,-14.16015625,-48.33984375,-72.75390625
-74.21875,-44.43359375,-46.38671875,-66.40625
-78.125,-85.44921875,-42.48046875,-69.82421875
-67.3828125,-67.3828125,-41.50390625,-65.91796875
-58.59375,-11.23046875,-37.59765625,-59.5703125
-58.10546875,-9.27734375,-36.1328125,-61.03515625
-58.10546875,-51.26953125,-38.57421875,-58.59375
-63.96484375,-92.7734375,-38.0859375,-52.734375
-68.84765625,-44.921875,-43.45703125,-55.17578125
-56.15234375,3.90625,-53.7109375,-59.08203125
-49.8046875,-27.83203125,-52.24609375,-59.5703125
-58.10546875,-63.4765625,-48.33984375,-65.4296875
-50.78125,-65.91796875,-49.31640625,-65.91796875
-43.9453125,-34.1796875,-46.875,-51.7578125
-41.50390625,-34.66796875,-41.50390625,-42.96875
-28.80859375,-35.15625,-37.109375,-42.48046875
-31.73828125,-58.59375,-38.0859375,-40.0390625
-49.8046875,-112.3046875,-47.36328125,-50.29296875
-43.9453125,-71.2890625,-49.8046875,-50.29296875
-39.0625,-5.37109375,-44.43359375,-47.36328125
-34.1796875,15.625,-42.96875,-41.50390625
-12.6953125,-42.48046875,-41.015625,-37.59765625
-27.34375,-98.6328125,-42.96875,-44.921875
-43.45703125,-71.77734375,-47.36328125,-35.15625
-36.1328125,-2.44140625,-42.48046875,-32.2265625
-29.78515625,20.01953125,-38.0859375,-35.64453125
-23.4375,-49.8046875,-45.41015625,-31.73828125
-24.90234375,-84.9609375,-48.828125,-33.203125
-46.38671875,-86.9140625,-47.8515625,-38.57421875
-46.38671875,-29.78515625,-49.8046875,-34.66796875
-21.484375,20.01953125,-46.875,-22.4609375
-21.484375,-23.92578125,-44.921875,-21.484375
-30.76171875,-94.23828125,-45.41015625,-39.0625
-49.8046875,-94.7265625,-44.43359375,-41.015625
-56.15234375,-28.80859375,-41.015625,-21.484375
-29.78515625,-8.30078125,-48.33984375,-27.34375
-25.87890625,-36.1328125,-46.38671875,-30.76171875
-37.59765625,-30.2734375,-40.52734375,-23.92578125
-34.1796875,-72.265625,-41.9921875,-27.34375
-34.66796875,-77.1484375,-38.0859375,-27.83203125
-20.99609375,-27.83203125,-40.52734375,-21.97265625
-15.625,-27.83203125,-42.96875,-27.34375
-30.76171875,-60.05859375,-41.9921875,-39.55078125
-34.1796875,-95.21484375,-46.38671875,-39.55078125
-44.921875,-38.57421875,-45.41015625,-41.50390625
-42.48046875,11.23046875,-43.45703125,-44.921875
-34.1796875,-4.8828125,-43.9453125,-51.7578125
-44.43359375,-84.9609375,-42.96875,-48.33984375
-49.8046875,-99.609375,-44.43359375,-38.0859375
-39.0625,-1.953125,-46.38671875,-26.85546875
-27.83203125,-4.39453125,-46.38671875,-23.92578125
-37.59765625,-48.828125,-41.50390625,-37.59765625
-35.64453125,-75.1953125,-41.50390625,-42.48046875
-41.50390625,-78.125,-43.9453125,-41.015625
-56.640625,-41.50390625,-42.96875,-34.66796875
-42.96875,-10.7421875,-42.48046875,-39.55078125
-22.4609375,-8.30078125,-39.55078125,-46.38671875
-15.625,-47.36328125,-44.921875,-34.66796875
-22.4609375,-74.21875,-51.26953125,-32.71484375
-52.734375,-67.87109375,-46.875,-48.33984375
-56.15234375,-8.7890625,-47.36328125,-58.10546875
-48.33984375,35.15625,-47.8515625,-50.29296875
-46.875,-44.921875,-46.38671875,-51.26953125
-51.7578125,-131.8359375,-52.24609375,-66.89453125
-66.89453125,-87.40234375,-50.78125,-57.6171875
-62.5,-8.7890625,-45.8984375,-48.33984375
-56.640625,-7.8125,-45.8984375,-54.6875
-49.31640625,-62.5,-43.9453125,-63.4765625
-50.78125,-90.8203125,-41.015625,-56.15234375
-62.5,-76.171875,-40.0390625,-43.45703125
-59.08203125,-25.87890625,-41.50390625,-43.45703125
-39.55078125,0.48828125,-39.0625,-40.52734375
-45.8984375,-20.5078125,-36.62109375,-43.45703125
-47.8515625,-61.5234375,-35.64453125,-48.828125
-44.921875,-107.91015625,-35.64453125,-46.875
-44.921875,-60.05859375,-37.59765625,-37.59765625
-36.1328125,10.7421875,-42.48046875,-36.62109375
-36.62109375,-39.55078125,-43.9453125,-41.015625
-40.52734375,-99.12109375,-44.43359375,-43.45703125
-46.38671875,-85.9375,-39.55078125,-39.0625
-51.7578125,-22.94921875,-39.55078125,-38.57421875
-43.9453125,-0.48828125,-42.96875,-43.45703125
-38.0859375,-47.36328125,-44.43359375,-43.9453125
-41.9921875,-95.703125,-41.50390625,-44.43359375
-56.15234375,-79.58984375,-39.0625,-38.0859375
-62.98828125,-6.34765625,-43.9453125,-34.1796875
-47.8515625,-20.99609375,-46.875,-36.62109375
-40.52734375,-62.98828125,-41.015625,-35.15625
-39.0625,-64.94140625,-38.57421875,-36.1328125
-46.875,-97.65625,-41.50390625,-41.015625
-52.24609375,-52.24609375,-39.0625,-40.0390625
-37.109375,25.87890625,-36.62109375,-35.15625
-34.66796875,-15.625,-38.0859375,-34.1796875
-34.66796875,-89.35546875,-45.41015625,-40.0390625
-49.31640625,-103.515625,-50.29296875,-43.45703125
-60.05859375,-66.40625,-47.36328125,-39.55078125
-37.59765625,2.44140625,-41.015625,-38.57421875
-26.85546875,13.18359375,-37.59765625,-28.80859375
-25.390625,-83.0078125,-41.015625,-28.3203125
-45.41015625,-119.62890625,-43.9453125,-36.62109375
-59.08203125,-58.59375,-43.45703125,-33.69140625
-51.26953125,-1.46484375,-42.96875,-40.52734375
-37.109375,-17.578125,-47.8515625,-54.6875
-40.0390625,-56.15234375,-48.828125,-51.7578125
-44.921875,-78.61328125,-44.921875,-46.875
-43.9453125,-60.05859375,-49.31640625,-47.36328125
-44.43359375,5.859375,-50.78125,-45.8984375
-40.0390625,-20.01953125,-48.33984375,-45.41015625
-52.734375,-69.3359375,-48.828125,-42.48046875
-57.12890625,-80.56640625,-48.33984375,-46.38671875
-45.41015625,-84.9609375,-51.7578125,-43.45703125
-48.828125,-33.203125,-52.734375,-35.64453125
-44.921875,-16.11328125,-52.734375,-39.0625
-35.15625,-56.640625,-50.29296875,-39.55078125
-40.0390625,-85.44921875,-48.33984375,-43.9453125
-42.96875,-79.1015625,-48.828125,-45.8984375
-40.0390625,-31.25,-51.7578125,-41.50390625
-26.3671875,-13.18359375,-54.6875,-34.66796875
-23.92578125,-38.57421875,-52.734375,-36.62109375
-40.0390625,-75.1953125,-45.8984375,-41.9921875
-51.26953125,-81.54296875,-43.45703125,-45.41015625
-48.828125,2.9296875,-48.828125,-41.015625
-39.0625,4.39453125,-45.41015625,-45.8984375
-47.36328125,-85.44921875,-43.45703125,-50.78125
-44.43359375,-97.65625,-44.43359375,-41.9921875
-60.546875,-102.05078125,-47.8515625,-44.921875
-64.94140625,-58.10546875,-50.29296875,-44.43359375
-32.2265625,-8.7890625,-51.26953125,-44.921875
-39.0625,-30.76171875,-51.7578125,-52.24609375
-39.0625,-74.21875,-49.8046875,-53.7109375
-41.9921875,-78.61328125,-50.29296875,-52.24609375
-55.6640625,-47.36328125,-49.8046875,-48.828125
-25.87890625,-2.44140625,-50.29296875,-41.50390625
-28.80859375,12.6953125,-47.8515625,-45.41015625
-33.203125,-72.265625,-49.8046875,-52.24609375
-40.0390625,-100.09765625,-52.24609375,-48.33984375
-55.6640625,-41.015625,-50.29296875,-41.015625
-50.29296875,-30.76171875,-53.7109375,-39.0625
-36.1328125,-27.83203125,-51.7578125,-45.41015625
-23.4375,-70.80078125,-50.29296875,-48.33984375
-46.38671875,-87.40234375,-49.31640625,-42.96875
-54.19921875,-42.48046875,-45.41015625,-36.1328125
-47.36328125,-2.9296875,-48.828125,-36.62109375
-37.59765625,-18.06640625,-49.8046875,-37.59765625
-35.15625,-67.87109375,-50.78125,-41.50390625
-52.24609375,-55.6640625,-55.17578125,-50.78125
-48.33984375,-64.453125,-54.6875,-47.36328125
-40.0390625,-51.26953125,-55.6640625,-45.8984375
-33.203125,-29.296875,-48.828125,-44.921875
-41.015625,-66.89453125,-41.50390625,-43.45703125
-47.8515625,-83.984375,-44.43359375,-47.36328125
-50.29296875,-60.05859375,-51.26953125,-42.96875
-50.29296875,-29.296875,-46.875,-50.78125
-41.015625,-9.765625,-34.66796875,-49.31640625
-30.2734375,-30.2734375,-30.76171875,-43.9453125
-42.96875,-72.75390625,-33.69140625,-50.78125
-63.96484375,-60.546875,-35.15625,-47.8515625
-56.640625,7.32421875,-35.15625,-42.96875
-42.96875,-16.11328125,-39.55078125,-48.33984375
-49.8046875,-63.96484375,-41.9921875,-47.8515625
-38.0859375,-76.66015625,-42.48046875,-39.0625
-37.109375,-72.75390625,-51.7578125,-35.15625
-50.29296875,-18.5546875,-50.78125,-36.1328125
-26.85546875,-14.6484375,-38.57421875,-40.0390625
-36.1328125,-48.33984375,-34.66796875,-37.59765625
-54.19921875,-65.4296875,-42.48046875,-34.1796875
-45.8984375,-57.6171875,-44.921875,-33.203125
-49.31640625,-44.921875,-45.41015625,-37.109375
-41.015625,-8.30078125,-42.48046875,-32.71484375
-38.57421875,4.39453125,-40.52734375,-35.64453125
-48.828125,-89.84375,-47.8515625,-51.26953125
-47.36328125,-122.55859375,-46.875,-48.828125
-57.6171875,-27.34375,-44.921875,-45.41015625
-52.734375,6.8359375,-48.828125,-47.8515625
-31.73828125,-33.203125,-51.26953125,-50.29296875
-36.62109375,-59.5703125,-48.828125,-51.26953125
-49.8046875,-66.89453125,-50.78125,-52.24609375
-50.29296875,-54.6875,-49.8046875,-52.734375
-38.0859375,-1.953125,-46.38671875,-42.48046875
-37.109375,-10.7421875,-47.36328125,-37.109375
-46.38671875,-66.89453125,-44.43359375,-42.48046875
-43.45703125,-47.36328125,-40.52734375,-35.64453125
-56.640625,-42.48046875,-40.52734375,-36.1328125
-64.94140625,-55.17578125,-45.41015625,-52.734375
-57.6171875,-34.1796875,-51.26953125,-48.33984375
-46.38671875,-57.6171875,-53.22265625,-54.19921875
-37.109375,-71.2890625,-47.36328125,-57.6171875
-45.8984375,-56.640625,-47.36328125,-46.875
-42.96875,-2.44140625,-46.38671875,-40.52734375
-31.73828125,8.7890625,-41.9921875,-43.9453125
-33.203125,-46.38671875,-43.9453125,-49.8046875
-49.8046875,-83.984375,-43.9453125,-53.7109375
-59.08203125,-64.453125,-42.48046875,-45.8984375
-36.62109375,15.625,-40.52734375,-32.2265625
-24.90234375,-19.53125,-44.43359375,-32.71484375
-31.73828125,-78.125,-44.43359375,-38.57421875
-47.36328125,-73.2421875,-45.41015625,-50.78125
-54.19921875,-76.171875,-44.43359375,-48.33984375
-54.19921875,-24.4140625,-46.875,-41.50390625
-44.921875,6.34765625,-51.7578125,-41.50390625
-25.390625,-36.62109375,-47.36328125,-40.0390625
-32.71484375,-66.40625,-47.8515625,-43.45703125
-53.7109375,-54.19921875,-52.24609375,-43.9453125
-52.24609375,-33.203125,-51.26953125,-41.015625
-43.45703125,-5.859375,-47.36328125,-45.8984375
-44.43359375,-28.80859375,-44.43359375,-48.828125
-49.8046875,-95.21484375,-47.36328125,-53.22265625
-54.19921875,-107.91015625,-47.8515625,-52.24609375
-49.8046875,-29.296875,-40.52734375,-42.48046875
-35.64453125,-1.46484375,-39.55078125,-37.109375
-30.2734375,-20.99609375,-38.57421875,-41.9921875
-31.73828125,-46.875,-38.0859375,-40.0390625
-39.0625,-82.51953125,-41.50390625,-37.109375
-45.41015625,-34.1796875,-41.50390625,-42.96875
-38.0859375,-5.37109375,-41.015625,-42.48046875
-39.0625,-33.69140625,-37.109375,-41.9921875
-50.78125,-69.82421875,-36.62109375,-50.78125
-52.734375,-66.40625,-41.015625,-64.94140625
-51.7578125,-43.9453125,-39.55078125,-57.6171875
-48.828125,-14.6484375,-37.109375,-39.55078125
-28.80859375,-23.4375,-36.62109375,-35.15625
-34.66796875,-66.89453125,-37.59765625,-30.76171875
-53.22265625,-80.078125,-38.57421875,-24.90234375
-50.78125,-43.9453125,-44.921875,-34.1796875
-41.50390625,-5.37109375,-46.38671875,-41.50390625
-32.2265625,1.46484375,-43.9453125,-41.015625
-46.875,-25.390625,-43.45703125,-38.57421875
-62.01171875,-69.3359375,-42.96875,-49.8046875
-62.98828125,-45.8984375,-47.8515625,-56.640625
-80.078125,16.6015625,-57.12890625,-69.82421875
-86.42578125,11.23046875,-56.15234375,-90.33203125
-92.7734375,-56.15234375,-48.828125,-93.26171875
-116.2109375,-59.08203125,-58.59375,-108.88671875
-132.32421875,-22.94921875,-70.3125,-127.44140625
-147.94921875,31.25,-68.84765625,-136.23046875
-139.6484375,36.1328125,-64.453125,-149.4140625
-140.13671875,-1.46484375,-65.91796875,-163.57421875
-147.4609375,-34.1796875,-62.5,-170.41015625
-160.64453125,-13.18359375,-55.6640625,-174.8046875
-183.59375,41.015625,-51.7578125,-180.6640625
-173.33984375,51.7578125,-52.734375,-180.17578125
-154.78515625,35.64453125,-53.7109375,-180.17578125
-159.1796875,-24.4140625,-50.78125,-176.7578125
-170.8984375,-51.7578125,-52.734375,-159.66796875
-166.9921875,8.30078125,-52.734375,-154.296875
-140.13671875,46.875,-50.29296875,-145.5078125
