TP9,AF7,AF8,TP10
-63.4765625,-74.21875,-46.38671875,-51.7578125
-86.42578125,-68.84765625,-52.24609375,-42.48046875
-46.38671875,-23.92578125,-53.22265625,-64.94140625
-20.01953125,-8.7890625,-51.7578125,-60.546875
-38.57421875,-26.85546875,-53.7109375,-49.31640625
-70.80078125,-57.6171875,-56.640625,-75.1953125
-68.359375,-100.09765625,-56.15234375,-80.56640625
-62.5,-45.41015625,-49.8046875,-53.7109375
-40.0390625,-1.46484375,-47.8515625,-25.87890625
-31.25,-53.22265625,-47.8515625,-41.50390625
-48.828125,-75.68359375,-49.8046875,-50.78125
-66.89453125,-71.77734375,-51.26953125,-33.69140625
-81.0546875,-38.57421875,-42.96875,-38.57421875
-33.203125,-13.671875,-46.38671875,-54.6875
-35.15625,-26.3671875,-49.31640625,-62.98828125
-49.8046875,-70.80078125,-48.828125,-49.8046875
-74.70703125,-75.1953125,-55.6640625,-81.0546875
-50.29296875,-18.5546875,-51.26953125,-79.1015625
-38.0859375,-17.08984375,-46.38671875,-42.48046875
-73.73046875,-42.48046875,-54.19921875,-63.4765625
-38.0859375,-77.63671875,-57.6171875,-68.359375
-48.828125,-88.8671875,-54.6875,-54.19921875
-83.984375,-38.0859375,-51.7578125,-36.1328125
-19.04296875,-7.8125,-50.29296875,-37.109375
-36.62109375,-47.36328125,-55.17578125,-76.171875
-81.54296875,-77.63671875,-53.7109375,-64.94140625
-50.78125,-73.73046875,-53.22265625,-61.03515625
-49.8046875,-43.9453125,-56.640625,-69.3359375
-53.22265625,-14.16015625,-47.36328125,-60.05859375
-41.50390625,-15.13671875,-43.9453125,-68.359375
-57.6171875,-72.75390625,-49.31640625,-69.3359375
-86.9140625,-110.3515625,-44.921875,-69.3359375
-65.4296875,-71.77734375,-44.43359375,-34.1796875
-44.43359375,-31.25,-50.29296875,-54.6875
-44.921875,-32.71484375,-51.26953125,-50.78125
-32.2265625,-60.546875,-48.828125,-41.9921875
-46.875,-83.984375,-48.33984375,-90.33203125
-99.609375,-71.77734375,-45.41015625,-62.5
-64.453125,-19.04296875,-42.96875,-41.50390625
-39.55078125,-22.94921875,-46.875,-35.64453125
-42.48046875,-54.19921875,-46.38671875,-63.4765625
-63.96484375,-66.89453125,-45.41015625,-77.1484375
-91.30859375,-82.51953125,-48.33984375,-58.59375
-68.84765625,-52.24609375,-49.8046875,-63.4765625
-44.921875,-8.30078125,-49.8046875,-50.29296875
-34.66796875,-37.109375,-55.6640625,-66.40625
-67.3828125,-99.12109375,-53.7109375,-80.56640625
-61.5234375,-93.26171875,-50.29296875,-73.73046875
-48.33984375,-32.71484375,-47.36328125,-42.96875
-5.859375,-11.23046875,-46.875,-14.16015625
-17.08984375,-41.015625,-48.828125,-59.08203125
-66.89453125,-76.171875,-47.8515625,-72.75390625
-60.05859375,-83.49609375,-49.31640625,-64.453125
-72.75390625,-17.578125,-47.36328125,-67.87109375
-43.9453125,-12.6953125,-48.828125,-60.546875
-28.3203125,-73.2421875,-54.19921875,-53.22265625
-56.15234375,-79.1015625,-51.26953125,-50.29296875
-66.89453125,-86.42578125,-50.29296875,-65.91796875
-66.40625,-56.640625,-55.17578125,-77.63671875
-48.828125,-5.859375,-49.31640625,-78.125
-39.0625,-20.5078125,-42.48046875,-65.91796875
-41.50390625,-66.89453125,-47.36328125,-70.3125
-64.453125,-76.66015625,-48.828125,-80.56640625
-72.75390625,-56.640625,-46.875,-83.0078125
-61.03515625,-4.8828125,-47.36328125,-51.7578125
-61.5234375,9.765625,-43.9453125,-32.2265625
-51.26953125,-82.51953125,-39.55078125,-71.2890625
-69.3359375,-109.375,-40.52734375,-86.42578125
-79.58984375,-55.17578125,-44.921875,-71.77734375
-50.29296875,-21.484375,-40.0390625,-68.84765625
-8.30078125,-3.41796875,-33.203125,-65.4296875
-31.73828125,-49.31640625,-34.1796875,-47.8515625
-67.3828125,-96.6796875,-35.64453125,-49.31640625
-64.453125,-65.91796875,-33.203125,-35.15625
-60.546875,-5.859375,-38.57421875,-43.9453125
-45.8984375,-10.7421875,-42.96875,-54.19921875
-55.6640625,-49.8046875,-41.015625,-57.12890625
-69.3359375,-57.12890625,-47.36328125,-74.70703125
-72.75390625,-64.94140625,-50.78125,-76.66015625
-79.1015625,-22.4609375,-49.31640625,-72.75390625
-46.38671875,5.859375,-52.734375,-63.4765625
-23.4375,-48.33984375,-57.12890625,-78.125
-40.0390625,-75.1953125,-53.7109375,-72.75390625
-67.87109375,-44.43359375,-53.7109375,-59.5703125
-58.10546875,-15.13671875,-58.10546875,-70.3125
-43.9453125,-3.41796875,-56.640625,-84.47265625
-39.55078125,-39.55078125,-59.08203125,-88.8671875
-43.45703125,-80.078125,-60.05859375,-71.2890625
-62.01171875,-56.15234375,-58.10546875,-63.4765625
-53.7109375,10.25390625,-54.19921875,-32.71484375
-42.96875,-12.20703125,-49.31640625,-35.15625
-44.43359375,-56.640625,-51.7578125,-88.37890625
-55.6640625,-87.40234375,-56.15234375,-80.078125
-68.359375,-85.9375,-58.59375,-70.3125
-62.98828125,-29.78515625,-57.6171875,-70.80078125
-52.24609375,-3.41796875,-58.10546875,-57.6171875
-43.9453125,-37.59765625,-57.12890625,-82.03125
-62.98828125,-77.1484375,-59.5703125,-100.09765625
-79.1015625,-74.21875,-56.640625,-75.68359375
-52.734375,-49.8046875,-54.6875,-90.8203125
-67.3828125,-16.6015625,-57.6171875,-89.35546875
-68.84765625,-6.8359375,-57.6171875,-69.82421875
-40.52734375,-76.171875,-57.12890625,-77.63671875
-62.01171875,-102.5390625,-56.15234375,-92.7734375
-89.84375,-51.7578125,-52.734375,-117.67578125
-67.87109375,-13.18359375,-45.41015625,-78.61328125
-35.64453125,-29.78515625,-45.8984375,-48.33984375
-42.48046875,-75.68359375,-52.24609375,-63.96484375
-69.82421875,-76.171875,-50.29296875,-68.84765625
-45.41015625,-41.015625,-45.8984375,-69.82421875
-44.43359375,-7.8125,-48.828125,-40.0390625
-35.64453125,-21.97265625,-48.828125,-39.0625
-6.34765625,-67.3828125,-47.36328125,-79.1015625
-49.8046875,-62.98828125,-47.36328125,-72.265625
-48.828125,-46.38671875,-47.8515625,-39.0625
-42.96875,-37.109375,-49.8046875,-29.296875
-40.0390625,-29.78515625,-49.31640625,-44.921875
-44.43359375,-66.40625,-51.26953125,-47.8515625
-44.921875,-78.61328125,-45.41015625,-57.12890625
-41.50390625,-55.6640625,-40.0390625,-80.56640625
-54.19921875,-10.7421875,-41.015625,-46.875
-36.62109375,-8.30078125,-38.0859375,-43.45703125
-60.05859375,-55.17578125,-37.109375,-48.33984375
-62.5,-65.4296875,-43.45703125,-66.89453125
-65.4296875,-68.84765625,-49.8046875,-85.44921875
-71.77734375,-8.30078125,-47.8515625,-75.1953125
-34.66796875,-21.484375,-37.59765625,-65.91796875
-32.2265625,-66.89453125,-36.62109375,-61.5234375
-46.875,-68.359375,-40.52734375,-53.22265625
-75.1953125,-87.40234375,-43.45703125,-37.109375
-89.35546875,-35.64453125,-49.8046875,-55.6640625
-39.0625,-20.01953125,-49.31640625,-73.73046875
-50.29296875,-53.22265625,-46.875,-60.546875
-38.0859375,-65.4296875,-54.6875,-48.828125
-55.17578125,-66.40625,-55.6640625,-79.1015625
-75.1953125,-32.2265625,-51.7578125,-88.8671875
-22.94921875,-8.30078125,-50.29296875,-68.359375
-25.87890625,-13.18359375,-48.33984375,-64.453125
-59.08203125,-64.453125,-49.8046875,-57.6171875
-39.55078125,-87.40234375,-53.22265625,-62.98828125
-32.71484375,-22.4609375,-56.15234375,-79.58984375
-52.734375,-3.41796875,-53.7109375,-52.24609375
-37.109375,-27.34375,-43.9453125,-50.78125
-70.3125,-61.03515625,-43.9453125,-51.7578125
-109.375,-85.9375,-51.26953125,-59.5703125
-68.359375,-45.41015625,-50.78125,-78.61328125
-47.36328125,-11.71875,-47.36328125,-72.265625
-63.96484375,-33.203125,-45.41015625,-56.15234375
-83.49609375,-70.3125,-42.96875,-71.2890625
-43.9453125,-59.08203125,-45.8984375,-80.56640625
-54.6875,-58.10546875,-50.29296875,-41.50390625
-49.31640625,-50.29296875,-45.41015625,-39.0625
-19.53125,-19.04296875,-47.8515625,-59.5703125
-47.36328125,-54.6875,-48.828125,-43.9453125
-51.7578125,-90.33203125,-45.8984375,-53.7109375
-74.21875,-62.98828125,-49.8046875,-55.6640625
-71.2890625,-27.34375,-52.24609375,-60.05859375
-46.875,-13.18359375,-54.6875,-79.58984375
-37.59765625,-44.921875,-58.59375,-83.984375
-67.87109375,-96.19140625,-59.08203125,-65.91796875
-94.23828125,-71.77734375,-61.03515625,-51.7578125
-61.03515625,8.30078125,-63.4765625,-98.6328125
-21.97265625,-6.8359375,-65.4296875,-106.93359375
-46.875,-69.82421875,-64.453125,-93.26171875
-62.5,-83.49609375,-55.6640625,-68.84765625
-50.78125,-70.3125,-50.78125,-72.265625
-58.59375,-23.4375,-55.6640625,-94.7265625
-51.26953125,-0.48828125,-55.6640625,-82.51953125
-50.29296875,-42.48046875,-51.7578125,-87.40234375
-86.42578125,-84.47265625,-54.6875,-78.61328125
-78.61328125,-72.265625,-54.6875,-73.2421875
-63.4765625,-23.4375,-52.24609375,-59.5703125
-30.76171875,-3.90625,-49.31640625,-61.5234375
-42.48046875,-11.23046875,-42.96875,-58.59375
-64.94140625,-52.734375,-45.8984375,-62.98828125
-60.05859375,-85.9375,-50.29296875,-65.4296875
-52.734375,-55.6640625,-44.43359375,-57.6171875
-56.640625,-28.80859375,-44.921875,-74.21875
-51.7578125,-45.41015625,-47.36328125,-61.03515625
-55.6640625,-70.3125,-41.015625,-54.19921875
-60.546875,-74.70703125,-44.43359375,-46.875
-64.94140625,-35.15625,-54.19921875,-42.48046875
-43.9453125,-21.484375,-58.10546875,-55.17578125
-39.55078125,-38.57421875,-56.15234375,-82.51953125
-60.546875,-59.08203125,-50.78125,-85.9375
-62.5,-60.05859375,-49.31640625,-84.9609375
-90.8203125,-43.45703125,-52.24609375,-62.98828125
-64.94140625,-15.625,-48.33984375,-63.96484375
-15.625,-31.25,-45.41015625,-73.73046875
-37.59765625,-88.37890625,-42.48046875,-39.55078125
-89.84375,-95.21484375,-39.0625,-47.8515625
-100.09765625,-66.40625,-38.57421875,-75.1953125
-67.3828125,-28.80859375,-38.57421875,-80.56640625
-59.08203125,-34.1796875,-34.66796875,-73.73046875
-80.078125,-82.03125,-30.2734375,-82.51953125
-111.81640625,-97.16796875,-32.71484375,-84.9609375
-120.60546875,-54.6875,-39.55078125,-58.10546875
-82.03125,-11.71875,-39.55078125,-49.8046875
-82.51953125,-41.50390625,-44.43359375,-90.33203125
-86.42578125,-87.890625,-48.828125,-104.4921875
-66.89453125,-90.33203125,-49.31640625,-97.16796875
-75.68359375,-51.26953125,-52.24609375,-92.28515625
-71.77734375,-18.5546875,-48.33984375,-90.8203125
-59.5703125,-21.484375,-52.734375,-94.7265625
-45.8984375,-60.546875,-59.08203125,-86.42578125
-61.03515625,-86.42578125,-53.7109375,-62.01171875
-91.30859375,-58.59375,-50.29296875,-54.19921875
-78.125,-14.16015625,-47.8515625,-81.54296875
-57.12890625,-33.203125,-40.52734375,-99.609375
-53.7109375,-44.921875,-41.50390625,-95.21484375
-46.875,-83.984375,-53.7109375,-82.51953125
-58.10546875,-91.796875,-54.6875,-83.984375
-52.734375,-33.69140625,-45.41015625,-83.0078125
-72.75390625,-18.06640625,-41.50390625,-69.82421875
-65.4296875,-45.8984375,-41.9921875,-41.50390625
-53.7109375,-86.42578125,-42.48046875,-59.5703125
-80.56640625,-90.33203125,-46.38671875,-93.26171875
-87.890625,-30.2734375,-50.78125,-92.28515625
-67.3828125,-2.44140625,-49.8046875,-100.5859375
-48.33984375,-37.109375,-48.828125,-90.8203125
-52.24609375,-82.51953125,-50.78125,-82.03125
-71.2890625,-69.3359375,-50.78125,-66.40625
-46.875,-21.484375,-50.78125,-77.1484375
-48.33984375,-29.296875,-51.26953125,-70.3125
-78.61328125,-42.48046875,-52.24609375,-71.2890625
-49.8046875,-72.265625,-52.24609375,-111.81640625
-57.6171875,-76.66015625,-44.921875,-95.21484375
-78.125,-24.4140625,-44.921875,-91.30859375
-56.640625,-10.25390625,-51.7578125,-106.4453125
-39.0625,-42.96875,-50.29296875,-93.26171875
-44.43359375,-74.21875,-50.29296875,-97.16796875
-59.08203125,-83.0078125,-54.6875,-103.515625
-80.078125,-50.29296875,-55.6640625,-96.19140625
-57.6171875,14.16015625,-57.12890625,-96.19140625
-35.15625,-13.18359375,-61.5234375,-107.91015625
-40.52734375,-97.16796875,-62.01171875,-126.953125
-58.59375,-87.890625,-56.15234375,-110.83984375
-79.1015625,-43.9453125,-58.59375,-112.3046875
-53.22265625,-10.7421875,-55.6640625,-103.515625
-22.4609375,-20.99609375,-57.6171875,-95.703125
-42.48046875,-67.87109375,-59.5703125,-115.234375
-70.3125,-88.8671875,-56.15234375,-98.6328125
-78.125,-52.24609375,-54.6875,-79.58984375
-64.453125,-9.765625,-48.33984375,-102.05078125
-33.203125,-12.20703125,-51.7578125,-117.1875
-75.1953125,-28.80859375,-52.24609375,-71.2890625
-103.02734375,-94.23828125,-50.78125,-85.44921875
-64.94140625,-90.8203125,-48.33984375,-127.44140625
-63.96484375,-15.625,-42.48046875,-102.05078125
-55.6640625,-30.2734375,-41.50390625,-96.19140625
-56.640625,-73.2421875,-42.96875,-108.88671875
-67.3828125,-89.84375,-45.8984375,-113.28125
-68.359375,-65.4296875,-46.875,-112.3046875
-73.2421875,-21.97265625,-50.29296875,-102.5390625
-63.4765625,-27.83203125,-51.26953125,-127.9296875
-54.19921875,-62.01171875,-50.78125,-123.046875
-69.82421875,-78.125,-52.734375,-107.91015625
-84.9609375,-49.8046875,-51.26953125,-128.90625
-68.359375,-28.3203125,-50.78125,-115.234375
-44.921875,-25.390625,-51.26953125,-107.91015625
-43.9453125,-48.828125,-48.33984375,-122.55859375
-59.08203125,-82.03125,-49.31640625,-100.09765625
-57.12890625,-72.265625,-51.7578125,-79.1015625
-78.125,-26.85546875,-49.31640625,-123.046875
-55.17578125,-17.578125,-48.33984375,-113.76953125
-40.52734375,-46.38671875,-46.875,-100.09765625
-75.1953125,-73.2421875,-42.48046875,-107.91015625
-80.078125,-87.40234375,-45.41015625,-109.375
-76.66015625,-39.0625,-48.33984375,-87.40234375
-64.94140625,9.765625,-40.52734375,-74.70703125
-34.66796875,-41.50390625,-43.45703125,-92.28515625
-61.03515625,-99.12109375,-46.875,-84.9609375
-88.37890625,-97.65625,-44.43359375,-90.8203125
-64.453125,-47.8515625,-43.9453125,-69.82421875
-64.453125,-20.5078125,-39.0625,-47.8515625
-41.015625,-29.78515625,-43.45703125,-80.56640625
-48.33984375,-76.66015625,-44.43359375,-96.6796875
-78.61328125,-90.8203125,-41.015625,-84.47265625
-49.31640625,-19.04296875,-44.921875,-78.61328125
-35.15625,-7.32421875,-40.0390625,-64.94140625
-49.8046875,-36.1328125,-41.9921875,-71.77734375
-23.4375,-32.71484375,-46.38671875,-77.1484375
-37.59765625,-76.171875,-41.9921875,-79.58984375
-71.2890625,-65.4296875,-44.921875,-73.73046875
-60.546875,-16.11328125,-50.78125,-77.1484375
-44.921875,-21.484375,-55.17578125,-93.75
-25.87890625,-49.8046875,-52.734375,-90.33203125
-52.734375,-81.54296875,-52.734375,-88.8671875
-75.1953125,-70.80078125,-53.7109375,-88.8671875
-51.7578125,-21.97265625,-48.828125,-85.44921875
-33.69140625,-11.71875,-49.8046875,-80.56640625
-61.03515625,-58.59375,-50.78125,-101.07421875
-73.2421875,-78.61328125,-48.33984375,-113.76953125
-67.87109375,-49.8046875,-44.921875,-103.515625
-78.61328125,-16.6015625,-42.48046875,-100.5859375
-62.01171875,-38.57421875,-37.109375,-87.890625
-26.3671875,-72.265625,-35.64453125,-98.14453125
-65.4296875,-93.26171875,-45.8984375,-116.69921875
-96.19140625,-86.42578125,-48.828125,-91.796875
-88.37890625,-29.296875,-41.50390625,-76.66015625
-75.68359375,-13.18359375,-37.59765625,-70.3125
-47.8515625,-53.22265625,-35.64453125,-64.453125
-51.26953125,-81.0546875,-38.57421875,-92.7734375
-67.87109375,-81.54296875,-45.41015625,-89.35546875
-55.6640625,-32.2265625,-42.48046875,-69.82421875
-52.24609375,6.34765625,-40.0390625,-76.171875
-46.38671875,-46.875,-38.0859375,-73.73046875
-35.64453125,-92.7734375,-37.109375,-70.80078125
-46.875,-80.078125,-48.33984375,-66.89453125
-45.41015625,-36.1328125,-54.19921875,-69.3359375
-28.80859375,-12.6953125,-47.36328125,-68.359375
-36.62109375,-36.62109375,-42.48046875,-58.59375
-38.0859375,-65.91796875,-42.96875,-56.15234375
-40.0390625,-76.171875,-43.45703125,-51.26953125
-56.640625,-23.4375,-41.50390625,-64.453125
-43.9453125,-6.34765625,-42.48046875,-83.0078125
-41.015625,-40.52734375,-47.8515625,-78.125
-27.34375,-47.36328125,-45.8984375,-80.078125
-50.78125,-82.03125,-40.0390625,-76.171875
-69.3359375,-74.21875,-45.8984375,-66.40625
-54.6875,-16.6015625,-46.875,-73.2421875
-33.203125,-17.578125,-46.875,-90.33203125
-40.52734375,-46.38671875,-51.26953125,-104.4921875
-65.4296875,-68.359375,-49.8046875,-99.609375
-83.49609375,-77.63671875,-51.7578125,-99.609375
-61.5234375,-29.296875,-52.734375,-97.16796875
-54.19921875,-19.53125,-49.31640625,-95.21484375
-72.265625,-68.84765625,-48.33984375,-116.69921875
-101.5625,-77.1484375,-49.31640625,-108.3984375
-102.05078125,-32.71484375,-54.19921875,-102.5390625
-71.2890625,-19.04296875,-56.640625,-122.55859375
-71.2890625,-39.0625,-56.15234375,-118.65234375
-63.4765625,-63.4765625,-56.15234375,-99.609375
-108.3984375,-91.796875,-57.6171875,-91.30859375
-131.34765625,-78.61328125,-56.640625,-99.12109375
-65.4296875,-17.578125,-56.15234375,-88.8671875
-54.19921875,-17.578125,-58.59375,-96.6796875
-56.640625,-59.5703125,-58.59375,-106.93359375
-54.19921875,-72.265625,-58.59375,-86.9140625
-88.8671875,-75.1953125,-60.05859375,-64.453125
-81.0546875,-30.76171875,-50.78125,-73.2421875
-58.10546875,2.9296875,-48.828125,-99.12109375
-56.15234375,-59.5703125,-47.36328125,-75.68359375
-63.4765625,-104.98046875,-45.41015625,-56.640625
-54.6875,-79.58984375,-43.45703125,-76.66015625
-53.7109375,-31.25,-39.0625,-64.94140625
-56.15234375,0.0,-45.41015625,-58.10546875
-42.48046875,-32.2265625,-41.015625,-72.75390625
-32.71484375,-84.47265625,-40.0390625,-73.2421875
-61.03515625,-84.9609375,-42.48046875,-77.1484375
-71.77734375,-36.62109375,-38.0859375,-73.73046875
-63.96484375,-13.18359375,-41.9921875,-67.87109375
-76.171875,-30.76171875,-43.45703125,-76.66015625
-61.03515625,-53.22265625,-45.8984375,-90.33203125
-70.80078125,-83.0078125,-52.24609375,-95.703125
-85.44921875,-67.3828125,-50.29296875,-95.703125
-58.10546875,-19.04296875,-39.55078125,-83.49609375
-44.43359375,-29.296875,-33.69140625,-53.22265625
-72.265625,-86.9140625,-41.015625,-69.82421875
-83.0078125,-97.65625,-49.31640625,-90.33203125
-72.265625,-43.45703125,-55.17578125,-61.03515625
-50.78125,-12.20703125,-53.22265625,-64.453125
-41.9921875,-19.53125,-50.78125,-81.54296875
-70.80078125,-67.87109375,-52.24609375,-84.9609375
-83.49609375,-79.58984375,-55.6640625,-82.03125
-78.61328125,-20.01953125,-54.19921875,-96.19140625
-80.56640625,-18.5546875,-50.29296875,-90.8203125
-35.64453125,-19.53125,-57.12890625,-82.51953125
-44.43359375,-32.71484375,-59.08203125,-107.91015625
-72.265625,-87.40234375,-55.17578125,-118.65234375
-77.1484375,-65.91796875,-54.6875,-86.42578125
-47.8515625,-3.90625,-54.19921875,-68.359375
-58.59375,-12.20703125,-53.7109375,-83.984375
-105.46875,-59.08203125,-51.7578125,-88.8671875
-82.03125,-67.3828125,-54.6875,-78.125
-55.17578125,-56.640625,-52.734375,-85.9375
-56.640625,-15.625,-55.17578125,-89.84375
-41.015625,10.25390625,-64.453125,-76.171875
-34.1796875,-68.359375,-56.640625,-63.4765625
-79.58984375,-100.09765625,-52.734375,-64.453125
-87.890625,-62.98828125,-53.22265625,-64.94140625
-76.171875,-26.85546875,-47.36328125,-28.80859375
-35.64453125,-4.39453125,-45.8984375,-35.15625
-19.04296875,-34.1796875,-49.8046875,-74.70703125
-49.8046875,-80.078125,-55.6640625,-84.9609375
-59.5703125,-69.3359375,-49.31640625,-78.61328125
-58.10546875,-19.53125,-48.33984375,-66.40625
-54.6875,-8.7890625,-49.31640625,-65.4296875
-42.96875,-25.390625,-45.8984375,-74.70703125
-49.8046875,-38.57421875,-50.29296875,-81.0546875
-45.8984375,-72.75390625,-52.24609375,-64.94140625
-55.17578125,-49.8046875,-51.26953125,-63.96484375
-42.96875,-10.25390625,-50.29296875,-58.10546875
-41.015625,-41.015625,-49.8046875,-60.05859375
-71.77734375,-70.3125,-50.29296875,-77.1484375
-84.47265625,-67.87109375,-49.8046875,-90.33203125
-86.9140625,-20.5078125,-47.8515625,-83.49609375
-73.73046875,0.0,-46.38671875,-80.078125
-59.08203125,-27.34375,-41.50390625,-88.8671875
-83.49609375,-82.03125,-31.73828125,-87.890625
-89.35546875,-91.796875,-34.66796875,-103.515625
-74.70703125,-20.5078125,-37.59765625,-77.63671875
-68.359375,-13.671875,-37.59765625,-53.7109375
-59.08203125,-40.0390625,-42.48046875,-81.0546875
-96.19140625,-63.4765625,-47.8515625,-119.140625
-130.859375,-62.98828125,-51.26953125,-135.7421875
-139.6484375,-41.9921875,-54.6875,-141.11328125
-117.67578125,-1.46484375,-61.03515625,-168.9453125
-124.51171875,-5.859375,-60.05859375,-166.9921875
-161.1328125,-55.17578125,-63.4765625,-160.15625
-157.71484375,-53.22265625,-69.82421875,-167.96875
-167.48046875,-19.04296875,-72.75390625,-217.7734375
-155.2734375,29.296875,-75.68359375,-213.8671875
-137.20703125,43.45703125,-74.21875,-210.44921875
-149.4140625,-5.37109375,-74.21875,-237.3046875
-183.10546875,-48.828125,-77.1484375,-220.703125
-187.98828125,-16.6015625,-80.56640625,-212.40234375
-177.24609375,40.0390625,-74.21875,-186.03515625
-181.15234375,27.34375,-73.2421875,-179.6875
-168.45703125,-11.23046875,-77.1484375,-220.21484375
-180.6640625,-18.06640625,-76.66015625,-204.1015625
-189.453125,-0.48828125,-77.1484375,-197.265625
-165.0390625,48.828125,-78.61328125,-213.37890625
-149.90234375,62.01171875,-81.0546875,-210.44921875
-145.5078125,13.18359375,-77.1484375,-192.3828125
-138.671875,-2.44140625,-73.2421875,-180.17578125
-175.29296875,-19.53125,-81.54296875,-183.59375
-168.45703125,19.53125,-86.9140625,-195.3125
-134.27734375,59.5703125,-85.44921875,-211.42578125
-152.83203125,18.5546875,-88.8671875,-191.89453125
-142.578125,-20.01953125,-91.796875,-181.640625
-142.578125,-19.53125,-91.30859375,-177.734375
-154.296875,24.90234375,-85.44921875,-168.45703125
-109.375,49.8046875,-80.56640625,-161.62109375
-82.51953125,19.04296875,-74.70703125,-149.4140625
-112.3046875,-32.71484375,-71.2890625,-164.0625
-145.99609375,-23.92578125,-78.125,-167.48046875
-129.39453125,32.71484375,-77.1484375,-145.99609375
-104.00390625,23.92578125,-78.125,-150.390625
-72.75390625,-13.18359375,-78.61328125,-132.8125
-83.49609375,-40.52734375,-75.68359375,-130.37109375
-126.46484375,-53.7109375,-77.63671875,-132.8125
-91.30859375,4.39453125,-74.21875,-96.6796875
-83.49609375,20.99609375,-72.265625,-93.26171875
-101.07421875,-16.11328125,-76.66015625,-116.69921875
-87.890625,-55.6640625,-76.66015625,-116.69921875
-105.95703125,-75.1953125,-71.77734375,-103.02734375
-100.5859375,-34.1796875,-69.3359375,-98.6328125
-65.91796875,2.44140625,-65.91796875,-86.9140625
-43.45703125,9.27734375,-58.59375,-76.66015625
-27.83203125,-43.45703125,-62.01171875,-79.1015625
-56.15234375,-89.35546875,-63.96484375,-61.5234375
-70.3125,-71.77734375,-62.01171875,-50.78125
-47.36328125,-26.3671875,-61.03515625,-67.87109375
-8.30078125,-20.01953125,-61.03515625,-51.26953125
6.34765625,-69.82421875,-57.6171875,-38.0859375
-26.3671875,-101.5625,-51.26953125,-36.62109375
-49.8046875,-60.05859375,-50.29296875,-36.62109375
-51.26953125,-16.11328125,-55.17578125,-44.43359375
-18.06640625,-31.73828125,-54.6875,-18.5546875
-8.30078125,-50.78125,-47.36328125,-23.92578125
-20.01953125,-78.61328125,-52.734375,-40.0390625
-15.625,-89.35546875,-53.7109375,-23.92578125
-43.45703125,-53.7109375,-48.828125,-30.76171875
-28.3203125,-38.57421875,-50.78125,-28.3203125
-20.5078125,-72.75390625,-48.828125,-25.87890625
-24.4140625,-90.33203125,-45.8984375,-26.3671875
-37.109375,-81.54296875,-49.8046875,-21.97265625
-34.66796875,-44.43359375,-49.31640625,-26.3671875
8.30078125,-25.87890625,-50.29296875,-48.828125
-2.44140625,-62.5,-48.33984375,-51.7578125
-18.5546875,-97.16796875,-47.36328125,-43.9453125
-30.76171875,-76.66015625,-51.7578125,-35.15625
7.32421875,-19.04296875,-51.7578125,-15.13671875
-1.953125,-21.484375,-52.734375,-18.5546875
-15.625,-79.58984375,-57.6171875,-36.62109375
4.8828125,-101.5625,-55.17578125,-34.66796875
-20.01953125,-94.7265625,-50.29296875,-39.55078125
-21.97265625,-48.33984375,-45.41015625,-48.33984375
-25.390625,-17.578125,-44.921875,-30.2734375
-14.16015625,-49.8046875,-52.24609375,-24.4140625
-29.296875,-88.8671875,-50.78125,-52.24609375
-41.50390625,-89.84375,-48.828125,-46.38671875
-47.36328125,-43.9453125,-45.41015625,-31.25
-55.17578125,-7.32421875,-41.9921875,-35.15625
-10.25390625,-19.53125,-43.9453125,-48.828125
-3.90625,-100.09765625,-45.8984375,-41.015625
-30.76171875,-108.3984375,-51.26953125,-50.78125
-44.43359375,-49.8046875,-50.78125,-55.6640625
-42.96875,-39.0625,-46.875,-42.48046875
-33.203125,-34.66796875,-49.8046875,-43.45703125
-18.5546875,-71.2890625,-51.7578125,-59.08203125
-40.0390625,-86.9140625,-52.734375,-75.68359375
-59.5703125,-53.7109375,-48.33984375,-56.15234375
-36.1328125,-16.11328125,-49.8046875,-41.50390625
-7.32421875,-16.6015625,-53.7109375,-58.59375
-6.34765625,-52.734375,-51.26953125,-66.40625
-30.76171875,-65.4296875,-52.734375,-56.640625
-59.08203125,-72.265625,-54.19921875,-60.546875
-27.83203125,-49.8046875,-59.5703125,-84.47265625
-10.25390625,-26.85546875,-57.12890625,-47.36328125
-38.57421875,-54.6875,-50.29296875,-44.43359375
-54.19921875,-69.3359375,-49.31640625,-77.1484375
-54.6875,-46.875,-53.22265625,-63.96484375
-28.3203125,-21.97265625,-55.6640625,-72.265625
-34.66796875,-13.18359375,-44.43359375,-53.7109375
-23.4375,-44.43359375,-37.109375,-38.57421875
-5.37109375,-78.125,-46.875,-59.5703125
-69.3359375,-71.2890625,-45.41015625,-73.73046875
-57.12890625,7.32421875,-39.0625,-64.453125
-31.73828125,-12.6953125,-45.8984375,-76.171875
-44.921875,-60.546875,-44.43359375,-87.40234375
-49.8046875,-73.2421875,-41.50390625,-79.58984375
-64.94140625,-84.9609375,-44.921875,-84.9609375
-46.38671875,-25.390625,-43.9453125,-75.68359375
-39.55078125,-5.37109375,-41.50390625,-60.05859375
-31.73828125,-36.1328125,-41.50390625,-51.7578125
-41.9921875,-68.359375,-39.0625,-68.359375
-60.05859375,-67.87109375,-34.1796875,-67.87109375
-69.3359375,-43.9453125,-37.109375,-57.6171875
-62.01171875,-23.92578125,-46.875,-79.58984375
-49.31640625,-18.5546875,-39.0625,-83.49609375
-76.66015625,-82.03125,-31.73828125,-77.1484375
-65.4296875,-110.3515625,-38.0859375,-73.2421875
-62.5,-45.41015625,-38.0859375,-68.84765625
-70.80078125,-13.671875,-34.66796875,-61.5234375
-33.203125,-33.203125,-40.0390625,-54.19921875
-52.24609375,-75.1953125,-48.33984375,-71.77734375
-95.21484375,-84.9609375,-49.8046875,-76.66015625
-77.1484375,-52.734375,-46.38671875,-70.80078125
-66.89453125,-16.11328125,-42.96875,-69.82421875
-76.66015625,-33.69140625,-41.015625,-63.4765625
-44.921875,-79.58984375,-42.48046875,-76.171875
-66.89453125,-68.84765625,-46.875,-80.078125
-75.68359375,-61.5234375,-45.8984375,-85.44921875
-32.71484375,-49.31640625,-43.45703125,-83.984375
-51.7578125,-45.41015625,-41.9921875,-74.21875
-72.75390625,-70.80078125,-39.0625,-85.9375
-59.08203125,-89.35546875,-37.109375,-69.82421875
-52.734375,-65.4296875,-38.57421875,-47.36328125
-52.24609375,-17.08984375,-33.69140625,-48.33984375
-54.19921875,-20.5078125,-31.73828125,-59.5703125
-37.109375,-47.8515625,-34.66796875,-73.2421875
-60.546875,-77.63671875,-37.109375,-70.80078125
-81.0546875,-57.12890625,-46.38671875,-68.359375
-69.3359375,3.90625,-49.8046875,-67.87109375
-21.484375,-33.203125,-46.875,-78.61328125
-39.0625,-70.80078125,-40.52734375,-85.44921875
-97.16796875,-69.82421875,-33.203125,-92.28515625
-79.1015625,-83.0078125,-39.0625,-92.28515625
-56.640625,-27.83203125,-40.52734375,-81.0546875
-28.80859375,-1.953125,-37.59765625,-96.6796875
-61.5234375,-56.15234375,-40.0390625,-107.91015625
-88.37890625,-85.44921875,-40.0390625,-98.6328125
-61.5234375,-59.08203125,-40.0390625,-93.26171875
-42.48046875,-10.7421875,-46.38671875,-93.26171875
-51.7578125,5.37109375,-46.38671875,-93.75
-43.9453125,-32.2265625,-40.0390625,-75.1953125
-31.73828125,-90.33203125,-48.828125,-77.63671875
-66.89453125,-84.9609375,-52.24609375,-77.1484375
-71.2890625,-43.9453125,-44.43359375,-71.2890625
-60.546875,-25.87890625,-39.55078125,-72.265625
-38.57421875,-43.9453125,-39.0625,-71.77734375
-50.29296875,-62.01171875,-42.48046875,-100.5859375
-79.58984375,-69.3359375,-47.8515625,-103.515625
-68.84765625,-50.29296875,-44.921875,-69.82421875
-61.03515625,-16.6015625,-42.48046875,-75.68359375
-68.359375,-29.296875,-44.921875,-99.12109375
-66.89453125,-51.7578125,-50.78125,-112.79296875
-96.6796875,-48.33984375,-49.8046875,-95.703125
-101.07421875,-48.828125,-46.38671875,-78.61328125
-47.36328125,-24.4140625,-50.78125,-94.23828125
-52.24609375,-25.87890625,-48.828125,-99.609375
-67.3828125,-68.84765625,-48.33984375,-112.3046875
-65.91796875,-75.68359375,-50.29296875,-118.1640625
-71.2890625,-48.33984375,-53.22265625,-112.3046875
-61.5234375,-12.6953125,-52.734375,-94.7265625
-58.10546875,-11.23046875,-49.8046875,-83.984375
-65.91796875,-62.5,-54.19921875,-111.81640625
-81.54296875,-99.609375,-51.7578125,-96.19140625
-81.54296875,-52.734375,-45.8984375,-70.3125
-50.29296875,0.9765625,-49.8046875,-95.703125
-56.640625,-37.109375,-56.640625,-97.16796875
-73.73046875,-96.6796875,-57.6171875,-104.00390625
-84.47265625,-93.75,-58.10546875,-107.91015625
-107.91015625,-63.96484375,-66.40625,-105.95703125
-62.98828125,-22.94921875,-64.453125,-94.7265625
-40.0390625,-21.484375,-51.26953125,-78.61328125
-100.09765625,-67.87109375,-40.52734375,-114.2578125
-90.8203125,-71.2890625,-47.36328125,-133.30078125
-101.5625,-61.03515625,-50.29296875,-119.62890625
-129.39453125,-48.33984375,-37.109375,-129.8828125
-77.63671875,-43.45703125,-37.59765625,-132.32421875
-94.7265625,-51.26953125,-44.43359375,-140.625
-153.80859375,-92.7734375,-44.43359375,-144.53125
-139.6484375,-113.28125,-41.015625,-124.0234375
-106.4453125,-59.08203125,-38.57421875,-129.39453125
-90.33203125,-34.1796875,-37.59765625,-116.69921875
-80.078125,-68.84765625,-37.109375,-105.46875
-115.72265625,-93.26171875,-35.64453125,-112.79296875
-122.0703125,-80.56640625,-38.57421875,-109.375
-95.21484375,-43.9453125,-37.109375,-104.4921875
-102.5390625,-32.71484375,-35.15625,-100.5859375
-85.9375,-62.01171875,-33.69140625,-107.421875
-96.6796875,-102.5390625,-34.66796875,-105.95703125
-105.95703125,-71.77734375,-39.55078125,-98.14453125
-84.47265625,-37.59765625,-44.43359375,-98.6328125
-102.5390625,-31.25,-49.8046875,-119.140625
-65.4296875,-40.52734375,-46.875,-118.1640625
-59.5703125,-93.75,-41.9921875,-116.2109375
-115.72265625,-90.33203125,-45.8984375,-107.91015625
-92.7734375,-45.41015625,-43.9453125,-96.6796875
-41.015625,-15.625,-41.50390625,-107.91015625
-41.50390625,-40.0390625,-39.0625,-112.79296875
-71.2890625,-79.58984375,-39.55078125,-103.515625
-91.30859375,-73.73046875,-42.48046875,-102.05078125
-90.33203125,-46.875,-36.62109375,-85.9375
-48.828125,1.46484375,-39.55078125,-72.265625
-12.20703125,-18.5546875,-43.9453125,-96.19140625
-62.98828125,-102.05078125,-40.52734375,-101.5625
-96.19140625,-98.14453125,-33.69140625,-82.51953125
-64.94140625,-50.29296875,-32.2265625,-66.89453125
-47.36328125,-19.53125,-37.59765625,-82.03125
-44.921875,-25.87890625,-42.96875,-95.21484375
-75.1953125,-75.68359375,-43.9453125,-95.703125
-88.37890625,-98.6328125,-41.015625,-96.19140625
-86.9140625,-73.2421875,-45.41015625,-101.5625
-75.1953125,-29.78515625,-46.38671875,-83.984375
-51.26953125,-27.34375,-41.50390625,-66.89453125
-40.0390625,-46.38671875,-43.9453125,-97.65625
-49.31640625,-87.890625,-46.38671875,-98.14453125
-73.2421875,-87.40234375,-44.921875,-79.58984375
-64.94140625,-24.4140625,-41.9921875,-75.68359375
-47.36328125,-15.13671875,-41.9921875,-72.265625
-54.19921875,-44.43359375,-42.48046875,-73.2421875
-77.63671875,-64.94140625,-42.96875,-62.01171875
-59.08203125,-67.3828125,-36.1328125,-57.12890625
-37.109375,-20.5078125,-37.59765625,-89.84375
-42.48046875,-4.39453125,-41.50390625,-77.63671875
-48.828125,-56.15234375,-35.64453125,-67.3828125
-73.2421875,-76.66015625,-38.0859375,-88.37890625
-83.984375,-63.4765625,-42.48046875,-93.26171875
-58.59375,-56.640625,-42.48046875,-91.30859375
-45.41015625,-32.71484375,-43.45703125,-82.03125
-51.7578125,-39.55078125,-39.55078125,-84.9609375
-86.42578125,-75.68359375,-35.15625,-89.84375
-79.58984375,-72.265625,-33.69140625,-79.58984375
-62.98828125,-30.2734375,-38.0859375,-92.28515625
-44.43359375,-10.7421875,-42.48046875,-103.02734375
-47.8515625,-45.8984375,-45.41015625,-93.26171875
-60.546875,-76.66015625,-55.17578125,-74.70703125
-51.7578125,-81.54296875,-48.33984375,-74.21875
-107.91015625,-43.9453125,-42.96875,-98.6328125
-87.40234375,0.9765625,-46.875,-88.8671875
-50.78125,-36.62109375,-42.48046875,-67.3828125
-64.94140625,-94.23828125,-41.9921875,-61.5234375
-64.94140625,-101.5625,-41.9921875,-47.8515625
-65.91796875,-58.59375,-42.96875,-49.8046875
-64.453125,-25.390625,-41.015625,-68.359375
-49.31640625,-30.76171875,-36.62109375,-79.58984375
-55.17578125,-64.453125,-36.62109375,-71.2890625
-92.7734375,-90.33203125,-37.59765625,-57.12890625
-86.42578125,-68.84765625,-39.55078125,-54.19921875
-60.05859375,-21.97265625,-43.45703125,-60.05859375
-31.73828125,-19.53125,-41.015625,-60.546875
-40.52734375,-45.41015625,-41.015625,-58.59375
-69.82421875,-95.703125,-45.41015625,-66.89453125
-78.61328125,-81.0546875,-44.921875,-74.21875
-77.1484375,-4.8828125,-41.9921875,-80.078125
-53.7109375,-32.2265625,-44.921875,-78.61328125
-58.10546875,-85.44921875,-46.875,-83.49609375
-79.58984375,-85.9375,-46.875,-91.796875
-69.82421875,-58.59375,-47.8515625,-73.73046875
-50.78125,-24.4140625,-51.26953125,-64.94140625
-61.5234375,-12.20703125,-47.8515625,-55.6640625
-66.89453125,-51.7578125,-41.9921875,-57.6171875
-58.59375,-81.54296875,-43.45703125,-56.15234375
-54.6875,-47.8515625,-48.828125,-59.5703125
-51.7578125,-20.99609375,-54.19921875,-79.1015625
-51.7578125,-29.296875,-55.6640625,-83.0078125
-49.31640625,-53.7109375,-47.8515625,-65.91796875
-40.52734375,-75.1953125,-45.41015625,-56.640625
-58.10546875,-55.17578125,-44.43359375,-70.80078125
-60.05859375,-6.8359375,-43.9453125,-88.8671875
-39.55078125,-7.32421875,-52.734375,-82.03125
-44.43359375,-48.828125,-49.31640625,-66.40625
-63.4765625,-83.984375,-45.8984375,-88.8671875
-46.38671875,-60.546875,-46.875,-81.0546875
-49.31640625,-19.53125,-45.41015625,-79.1015625
-35.64453125,12.6953125,-41.50390625,-86.9140625
-29.296875,-29.78515625,-38.57421875,-69.3359375
-47.8515625,-93.75,-39.0625,-75.68359375
-44.43359375,-67.87109375,-41.9921875,-83.984375
-38.0859375,-3.41796875,-46.875,-72.265625
-26.85546875,-4.8828125,-45.41015625,-58.59375
-31.25,-42.48046875,-41.9921875,-63.96484375
-59.08203125,-70.3125,-44.43359375,-61.5234375
-44.921875,-67.3828125,-45.41015625,-66.40625
-25.87890625,-17.578125,-46.38671875,-87.40234375
-60.05859375,-21.97265625,-43.45703125,-77.1484375
-41.9921875,-40.0390625,-36.1328125,-58.59375
-26.85546875,-47.8515625,-39.0625,-72.75390625
-72.265625,-84.9609375,-48.33984375,-100.09765625
-91.796875,-62.5,-48.828125,-104.98046875
-64.453125,-10.7421875,-50.29296875,-104.4921875
-36.1328125,-15.625,-54.6875,-133.30078125
-56.15234375,-62.98828125,-54.6875,-138.671875
-81.0546875,-81.0546875,-51.26953125,-117.67578125
-72.265625,-53.22265625,-48.828125,-122.0703125
-50.29296875,-13.671875,-47.36328125,-136.23046875
-58.10546875,-17.08984375,-47.8515625,-135.7421875
-55.17578125,-60.05859375,-51.7578125,-148.4375
-44.43359375,-71.2890625,-49.8046875,-143.06640625
-90.33203125,-36.1328125,-41.9921875,-122.55859375
-79.58984375,-30.2734375,-41.9921875,-128.41796875
-47.8515625,-50.29296875,-47.8515625,-143.5546875
-54.19921875,-59.5703125,-53.22265625,-137.20703125
-56.640625,-76.171875,-56.640625,-128.41796875
-78.61328125,-65.4296875,-49.8046875,-136.23046875
-86.9140625,-6.34765625,-47.36328125,-141.11328125
-69.3359375,-16.11328125,-45.41015625,-145.99609375
-55.17578125,-72.265625,-49.31640625,-145.99609375
-63.4765625,-76.171875,-53.22265625,-150.390625
-80.56640625,-65.4296875,-49.8046875,-150.87890625
-70.3125,-30.2734375,-49.31640625,-150.390625
-70.3125,12.20703125,-46.38671875,-138.18359375
-60.05859375,-52.24609375,-50.29296875,-150.87890625
-62.5,-99.609375,-57.12890625,-164.55078125
-69.3359375,-67.87109375,-56.15234375,-159.1796875
-71.2890625,-41.015625,-50.78125,-152.83203125
-55.17578125,-14.6484375,-46.875,-136.23046875
-37.109375,-37.109375,-43.9453125,-138.18359375
-72.75390625,-77.1484375,-46.875,-151.85546875
-85.44921875,-70.3125,-52.24609375,-143.06640625
-61.5234375,-19.53125,-49.8046875,-139.6484375
-54.6875,-13.671875,-41.9921875,-125.48828125
-55.17578125,-38.0859375,-43.45703125,-124.0234375
-60.546875,-49.8046875,-48.33984375,-138.671875
-46.875,-85.44921875,-50.78125,-137.20703125
-82.03125,-46.875,-48.828125,-126.46484375
-69.82421875,-13.18359375,-41.50390625,-116.69921875
-29.296875,-43.45703125,-43.9453125,-132.8125
-62.5,-68.359375,-46.38671875,-128.90625
-81.54296875,-75.68359375,-43.9453125,-120.60546875
-68.84765625,-54.19921875,-44.43359375,-123.53515625
-75.1953125,-13.671875,-42.48046875,-124.51171875
-50.29296875,-19.04296875,-43.9453125,-130.859375
-70.80078125,-66.40625,-47.8515625,-129.8828125
-97.65625,-79.58984375,-46.875,-118.1640625
-74.21875,-30.76171875,-48.828125,-138.18359375
-69.82421875,-16.6015625,-50.29296875,-151.85546875
-50.78125,-36.1328125,-52.24609375,-151.3671875
-61.03515625,-53.7109375,-51.7578125,-146.97265625
-74.21875,-70.3125,-55.17578125,-157.71484375
-71.2890625,-46.875,-52.734375,-155.76171875
-53.22265625,-4.39453125,-41.015625,-141.11328125
-30.76171875,-14.16015625,-41.015625,-142.08984375
-56.640625,-54.19921875,-46.38671875,-139.16015625
-57.12890625,-63.96484375,-47.8515625,-138.671875
-83.984375,-58.59375,-47.8515625,-142.08984375
-105.46875,-11.71875,-48.828125,-155.76171875
-32.2265625,25.87890625,-45.41015625,-146.484375
-22.4609375,-52.24609375,-42.48046875,-141.11328125
-59.5703125,-107.421875,-47.36328125,-173.828125
-64.453125,-62.5,-46.38671875,-168.45703125
-52.734375,-22.94921875,-48.828125,-158.69140625
-46.38671875,-10.25390625,-51.26953125,-166.9921875
-51.7578125,-35.15625,-52.24609375,-173.828125
-48.33984375,-79.58984375,-56.640625,-188.96484375
-69.82421875,-65.91796875,-48.828125,-191.40625
-77.1484375,-21.97265625,-43.9453125,-173.33984375
-47.36328125,-11.23046875,-48.33984375,-173.33984375
-49.8046875,-44.43359375,-47.8515625,-186.03515625
-75.1953125,-68.84765625,-49.31640625,-186.5234375
-81.0546875,-59.08203125,-52.24609375,-191.40625
-65.91796875,-42.96875,-47.36328125,-194.3359375
-47.8515625,-24.90234375,-43.9453125,-188.4765625
-57.6171875,-38.0859375,-46.875,-195.80078125
-54.19921875,-68.84765625,-46.38671875,-210.44921875
-63.96484375,-71.2890625,-48.828125,-208.984375
-81.0546875,-30.2734375,-50.78125,-201.171875
-54.6875,-4.8828125,-48.33984375,-204.58984375
-55.6640625,-27.83203125,-47.8515625,-207.03125
-75.68359375,-84.47265625,-44.43359375,-208.984375
-79.58984375,-84.47265625,-45.8984375,-212.890625
-83.0078125,-14.6484375,-47.8515625,-213.8671875
-76.66015625,-15.13671875,-52.734375,-220.703125
-54.19921875,-31.25,-54.6875,-238.28125
-49.8046875,-69.3359375,-51.26953125,-220.703125
-89.84375,-95.21484375,-51.7578125,-219.7265625
-86.42578125,-43.9453125,-52.734375,-251.46484375
-47.8515625,-13.18359375,-54.19921875,-248.046875
-50.78125,-27.83203125,-50.78125,-240.234375
-68.359375,-69.82421875,-44.43359375,-227.5390625
-94.7265625,-88.37890625,-42.96875,-222.65625
-78.61328125,-68.359375,-44.921875,-227.5390625
-60.546875,-9.765625,-40.52734375,-203.125
-56.15234375,-4.8828125,-36.1328125,-178.7109375
-59.5703125,-77.1484375,-41.50390625,-192.87109375
-78.61328125,-109.375,-48.33984375,-198.73046875
-82.51953125,-62.01171875,-47.36328125,-191.89453125
-73.2421875,-16.11328125,-46.875,-183.10546875
-43.45703125,-5.859375,-44.43359375,-171.38671875
-42.96875,-47.36328125,-46.875,-178.7109375
-90.8203125,-100.5859375,-48.828125,-194.3359375
-86.42578125,-69.3359375,-44.921875,-172.8515625
-78.125,-21.97265625,-53.7109375,-165.0390625
-69.3359375,-15.13671875,-53.22265625,-179.6875
-52.734375,-49.31640625,-43.9453125,-167.48046875
-77.1484375,-55.17578125,-40.0390625,-165.52734375
-85.9375,-81.54296875,-45.8984375,-171.38671875
-67.3828125,-49.31640625,-50.78125,-159.66796875
-56.15234375,-4.39453125,-49.31640625,-151.85546875
-71.77734375,-30.76171875,-47.36328125,-147.94921875
-76.171875,-65.4296875,-49.31640625,-140.625
-67.87109375,-65.4296875,-54.6875,-139.6484375
-78.61328125,-21.97265625,-51.7578125,-152.83203125
-61.5234375,-3.41796875,-45.41015625,-163.57421875
-53.22265625,-36.1328125,-43.45703125,-161.62109375
-61.03515625,-86.9140625,-45.41015625,-167.96875
-82.03125,-81.54296875,-42.96875,-148.4375
-100.09765625,-8.7890625,-44.43359375,-137.6953125
-75.68359375,-7.32421875,-54.6875,-158.69140625
-62.5,-52.24609375,-47.36328125,-158.69140625
-66.89453125,-62.5,-42.96875,-159.66796875
-75.68359375,-77.63671875,-49.31640625,-151.85546875
-78.125,-41.015625,-47.8515625,-124.51171875
-60.05859375,-5.37109375,-43.9453125,-116.2109375
-64.453125,-36.1328125,-39.0625,-128.90625
-69.82421875,-68.359375,-43.45703125,-149.90234375
-71.2890625,-74.21875,-47.8515625,-150.390625
-74.70703125,-40.0390625,-51.7578125,-135.25390625
-68.359375,-9.765625,-54.19921875,-124.51171875
-77.63671875,-5.859375,-50.29296875,-132.8125
-81.0546875,-52.734375,-52.24609375,-142.578125
-80.56640625,-93.26171875,-57.12890625,-144.04296875
-106.4453125,-50.78125,-61.03515625,-146.484375
-86.9140625,-10.25390625,-53.7109375,-136.23046875
-66.40625,-19.53125,-49.8046875,-127.9296875
-75.1953125,-54.19921875,-53.22265625,-140.13671875
-83.0078125,-65.91796875,-54.6875,-151.3671875
-83.49609375,-49.31640625,-53.7109375,-130.859375
-62.5,-7.32421875,-49.8046875,-117.67578125
-67.87109375,-3.90625,-47.8515625,-126.953125
-79.58984375,-39.55078125,-48.33984375,-130.37109375
-83.984375,-61.5234375,-51.26953125,-127.44140625
-88.8671875,-76.66015625,-49.8046875,-141.11328125
-66.40625,-21.97265625,-50.29296875,-131.34765625
-39.55078125,4.8828125,-51.26953125,-111.328125
-81.0546875,-62.01171875,-48.828125,-125.48828125
-98.14453125,-89.35546875,-48.33984375,-135.25390625
-88.8671875,-74.21875,-46.38671875,-121.58203125
-68.84765625,-25.87890625,-44.43359375,-105.95703125
-47.8515625,-2.9296875,-41.9921875,-112.79296875
-59.08203125,-36.1328125,-41.015625,-99.609375
-71.2890625,-82.51953125,-45.41015625,-100.09765625
-78.61328125,-68.359375,-48.828125,-109.375
-76.171875,4.39453125,-48.828125,-113.76953125
-39.55078125,-16.11328125,-41.50390625,-107.91015625
-43.9453125,-39.55078125,-40.0390625,-104.98046875
-62.98828125,-59.5703125,-40.52734375,-119.140625
-66.40625,-79.1015625,-41.015625,-112.3046875
-70.3125,-30.2734375,-44.921875,-110.3515625
-62.98828125,2.44140625,-48.828125,-118.65234375
-69.82421875,-33.69140625,-54.19921875,-121.09375
-79.1015625,-69.82421875,-53.7109375,-134.765625
-79.1015625,-77.63671875,-49.31640625,-136.23046875
-79.1015625,-53.22265625,-51.26953125,-141.11328125
-74.21875,-14.16015625,-49.31640625,-142.578125
-45.41015625,-7.32421875,-41.9921875,-121.58203125
-77.1484375,-76.66015625,-43.9453125,-119.62890625
-94.23828125,-104.98046875,-43.45703125,-119.62890625
-87.890625,-51.26953125,-45.41015625,-112.79296875
-74.70703125,-13.18359375,-47.8515625,-107.91015625
-45.8984375,-26.85546875,-42.48046875,-107.421875
-61.03515625,-67.3828125,-44.921875,-114.2578125
-80.56640625,-81.54296875,-52.24609375,-113.76953125
-67.3828125,-44.43359375,-52.24609375,-109.86328125
-61.5234375,-5.37109375,-44.43359375,-112.3046875
-70.80078125,-42.48046875,-41.9921875,-104.00390625
-73.73046875,-81.0546875,-44.921875,-112.79296875
-41.50390625,-53.7109375,-44.921875,-124.51171875
-64.94140625,-62.5,-49.31640625,-121.58203125
-106.93359375,-51.7578125,-51.7578125,-109.86328125
-61.03515625,-25.390625,-54.6875,-123.53515625
-59.08203125,-59.5703125,-56.15234375,-135.7421875
-84.9609375,-79.58984375,-49.31640625,-120.1171875
-88.37890625,-59.5703125,-50.78125,-118.1640625
-64.453125,-28.3203125,-53.22265625,-122.0703125
-60.05859375,-19.04296875,-54.6875,-119.140625
-57.12890625,-49.31640625,-54.19921875,-105.95703125
-61.5234375,-86.42578125,-49.31640625,-109.86328125
-67.87109375,-62.01171875,-48.828125,-112.3046875
-69.82421875,0.9765625,-50.78125,-109.86328125
-55.6640625,-14.6484375,-46.875,-119.62890625
-82.51953125,-76.171875,-44.43359375,-106.93359375
-98.6328125,-93.26171875,-47.36328125,-111.328125
-73.2421875,-68.84765625,-48.33984375,-116.69921875
-70.80078125,-23.4375,-47.8515625,-109.375
-50.29296875,-0.9765625,-45.8984375,-112.79296875
-37.59765625,-36.1328125,-48.33984375,-112.3046875
-67.3828125,-73.73046875,-50.29296875,-125.48828125
-86.9140625,-67.87109375,-47.36328125,-128.90625
-79.1015625,-30.76171875,-43.45703125,-106.4453125
-37.109375,-12.20703125,-40.0390625,-70.80078125
-27.34375,-14.6484375,-39.55078125,-80.078125
-79.1015625,-66.40625,-45.8984375,-120.1171875
-96.6796875,-83.984375,-51.7578125,-139.16015625
-82.51953125,-7.32421875,-50.29296875,-139.6484375
-85.44921875,-8.7890625,-55.17578125,-145.5078125
-90.33203125,-47.36328125,-63.96484375,-165.52734375
-102.5390625,-65.91796875,-69.3359375,-186.5234375
-126.953125,-66.89453125,-69.82421875,-191.89453125
-117.67578125,-27.34375,-64.94140625,-169.921875
-113.28125,-16.6015625,-64.94140625,-160.64453125
-103.02734375,-35.15625,-65.91796875,-153.3203125
-71.2890625,-50.78125,-62.98828125,-139.16015625
-90.8203125,-53.7109375,-57.6171875,-137.6953125
-120.1171875,-57.12890625,-52.734375,-145.01953125
-93.75,-30.76171875,-50.29296875,-123.046875
-78.61328125,-14.6484375,-44.43359375,-104.00390625
-75.1953125,-55.6640625,-45.8984375,-124.51171875
-100.5859375,-72.265625,-51.26953125,-126.46484375
-115.234375,-49.8046875,-50.78125,-124.51171875
-72.75390625,-14.16015625,-50.29296875,-121.09375
-58.59375,-21.97265625,-49.31640625,-114.2578125
-78.125,-66.40625,-46.38671875,-121.58203125
-88.8671875,-77.1484375,-42.96875,-125.48828125
-108.88671875,-54.19921875,-41.015625,-128.90625
-92.28515625,-6.8359375,-41.9921875,-117.1875
-57.6171875,-23.4375,-41.015625,-103.02734375
-65.91796875,-70.3125,-38.0859375,-104.4921875
-96.6796875,-81.54296875,-38.0859375,-97.65625
-83.0078125,-59.08203125,-41.9921875,-105.46875
-60.05859375,-18.06640625,-45.8984375,-109.86328125
-68.84765625,-10.25390625,-44.43359375,-100.5859375
-64.94140625,-55.6640625,-45.8984375,-97.65625
-65.4296875,-79.1015625,-49.8046875,-103.515625
-90.33203125,-57.12890625,-51.7578125,-111.81640625
-82.03125,-40.0390625,-50.29296875,-101.5625
-48.33984375,-13.18359375,-48.828125,-83.49609375
-44.43359375,-19.53125,-47.36328125,-93.26171875
-62.98828125,-89.84375,-44.43359375,-97.65625
-77.63671875,-84.9609375,-41.015625,-84.9609375
-68.84765625,-24.4140625,-47.36328125,-95.703125
-63.4765625,-8.7890625,-46.875,-101.07421875
-58.59375,-36.62109375,-41.9921875,-96.6796875
-68.84765625,-65.4296875,-42.96875,-81.54296875
-85.44921875,-62.98828125,-41.50390625,-81.0546875
-67.3828125,-35.15625,-39.0625,-95.21484375
-62.01171875,-8.30078125,-40.0390625,-81.54296875
-52.734375,-33.69140625,-45.41015625,-87.890625
-78.61328125,-72.265625,-46.875,-110.83984375
-107.91015625,-57.12890625,-45.8984375,-115.234375
-100.5859375,-27.34375,-47.8515625,-116.69921875
-83.0078125,-31.73828125,-45.41015625,-106.93359375
-79.58984375,-47.36328125,-37.59765625,-111.328125
-82.03125,-68.84765625,-41.015625,-122.55859375
-79.58984375,-78.125,-45.41015625,-107.421875
-94.7265625,-35.15625,-46.38671875,-101.07421875
-94.23828125,-2.44140625,-47.8515625,-104.98046875
-71.77734375,-17.08984375,-44.43359375,-101.07421875
-83.984375,-52.24609375,-47.36328125,-95.21484375
-97.16796875,-72.265625,-44.921875,-95.21484375
-99.12109375,-53.7109375,-43.9453125,-112.3046875
-85.9375,9.765625,-50.78125,-120.1171875
-79.58984375,-34.66796875,-56.15234375,-113.28125
-74.21875,-79.1015625,-55.17578125,-109.86328125
-87.890625,-62.5,-49.8046875,-104.4921875
-91.30859375,-62.5,-50.29296875,-97.16796875
-77.1484375,-6.8359375,-49.31640625,-85.44921875
-75.1953125,-7.8125,-47.36328125,-102.05078125
-85.44921875,-56.15234375,-47.8515625,-118.65234375
-102.5390625,-69.82421875,-50.78125,-110.3515625
-87.40234375,-52.24609375,-54.19921875,-106.93359375
-69.3359375,-19.53125,-53.22265625,-98.14453125
-85.44921875,-9.27734375,-49.31640625,-95.21484375
-85.9375,-24.4140625,-44.921875,-101.07421875
-83.49609375,-71.2890625,-47.8515625,-105.95703125
-86.9140625,-76.66015625,-49.8046875,-111.81640625
-79.1015625,-6.34765625,-48.33984375,-100.5859375
-83.49609375,7.8125,-49.8046875,-93.75
-65.4296875,-42.96875,-53.7109375,-91.796875
-53.7109375,-56.15234375,-50.78125,-87.40234375
-85.44921875,-73.2421875,-56.15234375,-97.65625
-105.46875,-35.64453125,-53.22265625,-94.23828125
-65.4296875,-2.44140625,-40.52734375,-89.35546875
-51.7578125,-35.64453125,-44.43359375,-92.7734375
-69.3359375,-65.4296875,-47.8515625,-95.703125
-87.40234375,-47.36328125,-41.9921875,-95.21484375
-82.51953125,-30.2734375,-44.921875,-104.4921875
-54.6875,-32.2265625,-51.26953125,-103.515625
-48.828125,-30.76171875,-46.875,-96.6796875
-82.03125,-64.94140625,-43.9453125,-96.6796875
-105.95703125,-74.70703125,-43.9453125,-97.16796875
-98.14453125,-29.296875,-40.0390625,-100.09765625
-72.75390625,-7.8125,-43.45703125,-99.609375
-72.75390625,-16.6015625,-44.43359375,-96.19140625
-89.35546875,-50.29296875,-39.0625,-100.5859375
-108.3984375,-83.0078125,-44.921875,-115.234375
-120.60546875,-52.734375,-50.29296875,-111.328125
-97.16796875,9.27734375,-48.33984375,-99.12109375
-71.77734375,-25.87890625,-47.36328125,-99.609375
-77.1484375,-84.9609375,-48.828125,-113.76953125
-87.890625,-68.359375,-47.36328125,-110.3515625
-85.44921875,-49.31640625,-48.828125,-96.19140625
-80.078125,-3.90625,-44.921875,-93.75
-54.19921875,-0.9765625,-41.50390625,-96.19140625
-68.359375,-72.75390625,-43.45703125,-109.375
-97.65625,-83.984375,-44.921875,-102.5390625
-99.12109375,-51.26953125,-44.921875,-86.42578125
-94.23828125,-19.04296875,-41.9921875,-98.6328125
-84.9609375,-8.7890625,-42.96875,-119.140625
-74.70703125,-21.97265625,-46.875,-121.09375
-83.49609375,-73.73046875,-50.78125,-105.46875
-122.55859375,-95.21484375,-53.22265625,-93.75
-104.4921875,-20.01953125,-48.828125,-104.4921875
-77.1484375,0.0,-43.45703125,-110.3515625
-80.56640625,-60.05859375,-43.9453125,-112.79296875
-90.33203125,-84.47265625,-44.921875,-116.69921875
-96.6796875,-77.1484375,-43.9453125,-121.58203125
-92.28515625,-26.3671875,-47.36328125,-120.60546875
-98.14453125,-9.765625,-52.24609375,-106.93359375
-101.07421875,-59.5703125,-49.31640625,-110.83984375
-82.03125,-74.21875,-43.9453125,-105.95703125
-91.30859375,-56.15234375,-48.33984375,-106.4453125
-101.07421875,-44.921875,-53.22265625,-119.140625
-74.21875,-23.92578125,-49.31640625,-107.421875
-60.05859375,-40.0390625,-45.41015625,-99.609375
-80.078125,-91.796875,-46.875,-109.375
-95.703125,-81.54296875,-49.31640625,-111.328125
-89.84375,-34.1796875,-46.38671875,-102.5390625
-82.03125,-6.8359375,-43.45703125,-93.26171875
-73.2421875,-36.1328125,-44.921875,-93.75
-80.56640625,-85.44921875,-52.24609375,-106.93359375
-89.84375,-79.1015625,-53.22265625,-97.65625
-72.75390625,-27.83203125,-49.8046875,-79.1015625
-71.77734375,0.0,-49.31640625,-89.84375
-73.73046875,-56.640625,-50.29296875,-102.05078125
-94.23828125,-95.703125,-50.78125,-109.375
-111.328125,-80.56640625,-49.8046875,-106.93359375
-107.421875,-60.546875,-50.78125,-108.88671875
-94.23828125,-28.80859375,-54.19921875,-104.00390625
-93.26171875,-25.87890625,-52.24609375,-104.00390625
-109.86328125,-83.984375,-52.24609375,-103.02734375
-89.35546875,-105.95703125,-56.640625,-95.703125
-85.44921875,-57.6171875,-57.6171875,-93.26171875
-86.9140625,-23.92578125,-54.6875,-102.05078125
-57.12890625,-17.578125,-49.8046875,-109.86328125
-65.4296875,-33.69140625,-47.36328125,-108.3984375
-91.796875,-92.7734375,-49.8046875,-113.76953125
-89.84375,-67.87109375,-46.875,-107.91015625
-79.58984375,-15.625,-41.9921875,-103.515625
-77.63671875,-21.484375,-40.0390625,-97.65625
-85.9375,-57.6171875,-39.55078125,-99.609375
-96.19140625,-83.984375,-40.52734375,-99.609375
-91.30859375,-65.4296875,-41.9921875,-94.23828125
-76.171875,-22.94921875,-45.8984375,-97.65625
-71.2890625,-2.44140625,-47.36328125,-88.37890625
-88.37890625,-66.89453125,-50.29296875,-92.28515625
-93.75,-91.796875,-54.19921875,-101.5625
-103.02734375,-47.8515625,-53.22265625,-99.12109375
-81.0546875,-24.4140625,-47.36328125,-101.5625
-53.7109375,-25.87890625,-48.828125,-99.609375
-73.73046875,-55.6640625,-49.8046875,-96.19140625
-91.796875,-80.56640625,-48.828125,-101.07421875
-105.46875,-81.0546875,-50.29296875,-108.3984375
-112.3046875,-38.0859375,-49.8046875,-99.609375
-67.87109375,-2.44140625,-50.29296875,-97.16796875
-68.359375,-39.0625,-53.22265625,-99.609375
-101.5625,-77.63671875,-56.640625,-99.12109375
-95.703125,-76.171875,-54.19921875,-114.74609375
-102.05078125,-42.96875,-53.7109375,-112.3046875
-82.51953125,-4.39453125,-53.7109375,-102.05078125
-65.91796875,-37.59765625,-50.29296875,-106.93359375
-106.4453125,-89.35546875,-51.26953125,-114.2578125
-96.6796875,-90.8203125,-53.22265625,-117.1875
-81.54296875,-41.50390625,-54.6875,-108.88671875
-96.6796875,-13.18359375,-51.7578125,-110.83984375
-69.82421875,-27.34375,-51.7578125,-113.28125
-64.453125,-59.5703125,-57.6171875,-107.421875
-87.890625,-78.125,-56.15234375,-108.3984375
-93.26171875,-33.69140625,-49.31640625,-98.6328125
-63.4765625,-7.32421875,-44.921875,-83.984375
-67.3828125,-17.08984375,-48.33984375,-83.49609375
-91.796875,-42.48046875,-49.31640625,-88.8671875
-96.19140625,-87.40234375,-46.875,-98.6328125
-97.65625,-59.5703125,-48.828125,-101.5625
-72.75390625,-3.90625,-49.8046875,-92.7734375
-65.91796875,-36.62109375,-49.8046875,-89.35546875
-59.5703125,-69.82421875,-47.8515625,-93.75
-83.49609375,-74.21875,-48.828125,-98.14453125
-93.26171875,-54.6875,-43.9453125,-97.16796875
-50.29296875,-20.99609375,-41.9921875,-91.796875
-50.29296875,-23.92578125,-43.9453125,-76.66015625
-50.29296875,-72.75390625,-43.9453125,-73.2421875
-64.453125,-77.1484375,-44.921875,-92.28515625
-77.63671875,-38.0859375,-47.36328125,-87.890625
-45.8984375,-22.94921875,-43.9453125,-79.58984375
-41.9921875,-27.83203125,-36.1328125,-90.8203125
-67.87109375,-59.08203125,-35.15625,-95.21484375
-74.70703125,-84.9609375,-43.45703125,-95.21484375
-87.40234375,-58.10546875,-42.48046875,-95.703125
-85.9375,-12.20703125,-37.59765625,-96.6796875
-63.96484375,-18.5546875,-41.50390625,-98.14453125
-66.89453125,-57.6171875,-46.38671875,-105.46875
-64.94140625,-83.0078125,-51.26953125,-110.83984375
-69.82421875,-68.359375,-52.24609375,-108.3984375
-72.75390625,-15.13671875,-48.828125,-97.65625
-51.26953125,14.16015625,-45.41015625,-92.28515625
-53.22265625,-43.9453125,-45.8984375,-89.35546875
-79.1015625,-91.796875,-45.41015625,-88.8671875
-90.33203125,-72.265625,-48.828125,-94.23828125
-79.58984375,-21.484375,-50.78125,-86.9140625
-55.6640625,0.48828125,-50.78125,-82.03125
-60.546875,-37.109375,-49.8046875,-83.49609375
-80.56640625,-88.8671875,-50.29296875,-80.56640625
-80.56640625,-72.265625,-50.29296875,-66.89453125
-75.1953125,-24.90234375,-53.7109375,-76.66015625
-62.01171875,-40.0390625,-55.17578125,-68.359375
-62.98828125,-34.66796875,-49.8046875,-67.3828125
-80.56640625,-44.921875,-48.33984375,-85.44921875
-88.37890625,-86.42578125,-52.24609375,-75.68359375
-88.8671875,-50.78125,-52.734375,-82.51953125
-81.0546875,-7.8125,-50.29296875,-90.33203125
-61.03515625,-29.78515625,-53.22265625,-86.9140625
-62.5,-75.68359375,-56.640625,-94.7265625
-89.35546875,-75.68359375,-61.03515625,-99.609375
-79.58984375,-39.55078125,-59.08203125,-94.23828125
-65.4296875,-15.625,-50.29296875,-88.37890625
-63.96484375,-29.296875,-47.36328125,-85.44921875
-60.546875,-71.77734375,-49.31640625,-91.30859375
-50.78125,-73.73046875,-50.29296875,-59.5703125
-61.03515625,-27.83203125,-48.33984375,-47.36328125
-62.01171875,-16.11328125,-43.9453125,-74.70703125
-45.41015625,-50.29296875,-42.96875,-59.5703125
-41.50390625,-66.89453125,-43.9453125,-45.8984375
-48.828125,-76.171875,-47.8515625,-58.10546875
-41.50390625,-52.24609375,-51.7578125,-60.05859375
-25.390625,-12.6953125,-45.41015625,-43.45703125
-28.80859375,-12.6953125,-38.57421875,-48.33984375
-31.25,-47.8515625,-40.0390625,-67.3828125
-53.7109375,-82.03125,-39.0625,-72.265625
-74.70703125,-56.15234375,-41.015625,-72.75390625
-46.875,10.7421875,-43.9453125,-70.3125
-17.08984375,25.87890625,-39.0625,-72.265625
-37.109375,-55.17578125,-41.015625,-80.56640625
-57.6171875,-95.703125,-43.45703125,-86.42578125
-54.6875,-65.4296875,-49.8046875,-82.51953125
-60.05859375,-26.3671875,-51.26953125,-64.94140625
-52.734375,-10.25390625,-46.875,-68.359375
-23.92578125,-42.48046875,-46.38671875,-77.1484375
-45.8984375,-81.0546875,-41.9921875,-76.171875
-67.3828125,-74.21875,-39.55078125,-64.94140625
-56.15234375,-20.99609375,-41.9921875,-59.5703125
-58.10546875,-5.859375,-41.015625,-70.3125
-49.31640625,-38.0859375,-44.921875,-76.66015625
-64.94140625,-56.640625,-44.921875,-72.75390625
-75.68359375,-75.68359375,-43.45703125,-76.66015625
-69.82421875,-42.96875,-41.9921875,-77.63671875
-47.36328125,-7.8125,-42.48046875,-68.84765625
-34.1796875,-42.48046875,-48.828125,-66.89453125
-72.265625,-51.7578125,-47.8515625,-74.70703125
-92.28515625,-69.3359375,-50.78125,-81.54296875
-78.61328125,-58.10546875,-55.17578125,-87.40234375
-64.453125,-15.13671875,-53.7109375,-80.56640625
-43.9453125,-31.25,-54.19921875,-71.77734375
-52.734375,-68.359375,-52.24609375,-67.3828125
-69.82421875,-86.42578125,-47.36328125,-79.58984375
-79.58984375,-27.83203125,-39.55078125,-88.8671875
-51.26953125,-6.34765625,-39.0625,-62.01171875
-19.53125,-45.8984375,-46.38671875,-47.36328125
-32.2265625,-71.2890625,-49.8046875,-54.6875
-44.921875,-77.63671875,-45.8984375,-50.29296875
-52.734375,-42.96875,-47.36328125,-53.7109375
-38.57421875,-5.859375,-46.38671875,-46.875
-21.97265625,-20.99609375,-42.96875,-51.26953125
-17.08984375,-57.6171875,-44.921875,-60.546875
-41.50390625,-59.08203125,-42.96875,-53.22265625
-53.7109375,-54.19921875,-46.38671875,-51.7578125
-45.8984375,-20.5078125,-47.36328125,-54.6875
-35.15625,0.9765625,-42.48046875,-56.640625
-51.26953125,-72.75390625,-48.33984375,-61.5234375
-89.35546875,-102.05078125,-52.24609375,-69.82421875
-85.9375,-67.3828125,-47.36328125,-74.70703125
-59.5703125,-20.01953125,-44.43359375,-72.265625
-36.1328125,-8.7890625,-44.43359375,-66.89453125
-41.50390625,-54.19921875,-47.8515625,-54.6875
-80.56640625,-78.125,-43.9453125,-62.5
-62.5,-64.94140625,-41.9921875,-63.96484375
-57.6171875,-22.94921875,-41.015625,-58.59375
-60.546875,-6.34765625,-35.64453125,-58.10546875
-31.73828125,-32.71484375,-41.50390625,-53.22265625
-47.8515625,-56.15234375,-51.26953125,-63.4765625
-64.453125,-60.546875,-57.12890625,-75.68359375
-69.3359375,-45.8984375,-62.01171875,-77.63671875
-40.52734375,-20.5078125,-57.12890625,-76.171875
-17.578125,-40.52734375,-48.33984375,-78.125
-48.828125,-74.21875,-52.24609375,-80.078125
-77.63671875,-73.2421875,-48.828125,-69.82421875
-62.01171875,-19.53125,-44.43359375,-46.38671875
-41.50390625,11.23046875,-47.36328125,-44.921875
-36.1328125,-28.3203125,-43.45703125,-63.4765625
-39.0625,-71.2890625,-44.921875,-72.265625
-62.5,-67.3828125,-49.31640625,-64.94140625
-83.49609375,-9.765625,-46.875,-64.453125
-51.26953125,-19.04296875,-48.33984375,-69.82421875
-35.64453125,-42.48046875,-49.8046875,-74.21875
-42.96875,-62.01171875,-50.78125,-73.73046875
-51.7578125,-85.44921875,-53.22265625,-72.75390625
-47.8515625,-55.6640625,-56.15234375,-62.98828125
-28.80859375,-20.01953125,-54.6875,-54.19921875
-14.16015625,-28.3203125,-51.26953125,-59.08203125
-29.296875,-57.12890625,-49.31640625,-57.12890625
-50.29296875,-63.4765625,-46.875,-65.91796875
-58.10546875,-59.5703125,-48.828125,-75.1953125
-52.24609375,-14.16015625,-48.33984375,-63.4765625
-33.69140625,-0.48828125,-43.9453125,-61.5234375
-39.55078125,-60.05859375,-47.36328125,-69.82421875
-47.36328125,-91.796875,-52.734375,-74.21875
-62.01171875,-60.05859375,-49.8046875,-83.0078125
-57.6171875,-11.71875,-42.48046875,-70.80078125
-34.1796875,-11.23046875,-42.48046875,-58.59375
-29.296875,-51.7578125,-50.29296875,-75.68359375
-61.5234375,-86.9140625,-50.29296875,-90.33203125
-78.61328125,-62.01171875,-47.8515625,-83.984375
-69.3359375,-16.11328125,-45.8984375,-75.1953125
-69.82421875,-15.13671875,-43.9453125,-74.70703125
-55.17578125,-41.50390625,-41.9921875,-84.47265625
-61.5234375,-54.19921875,-44.43359375,-76.66015625
-63.96484375,-69.3359375,-45.8984375,-65.4296875
-45.8984375,-43.9453125,-46.875,-67.87109375
-14.6484375,1.953125,-47.8515625,-72.265625
-26.3671875,-37.109375,-43.9453125,-61.03515625
-62.98828125,-92.28515625,-44.43359375,-62.98828125
-67.3828125,-65.91796875,-48.33984375,-72.265625
-70.80078125,-19.53125,-49.8046875,-60.05859375
-51.7578125,-7.8125,-56.640625,-66.40625
-29.296875,-38.0859375,-56.640625,-77.63671875
-61.5234375,-89.84375,-47.8515625,-74.21875
-55.17578125,-77.1484375,-52.24609375,-58.10546875
-48.828125,-1.953125,-56.640625,-50.29296875
-64.453125,-3.90625,-53.7109375,-66.40625
-42.96875,-60.05859375,-52.734375,-84.9609375
-52.734375,-83.0078125,-53.22265625,-90.8203125
-77.1484375,-57.12890625,-57.6171875,-83.984375
-72.75390625,-0.48828125,-53.7109375,-82.03125
-37.59765625,3.90625,-51.7578125,-73.73046875
-33.69140625,-15.13671875,-55.6640625,-83.984375
-66.40625,-43.9453125,-55.17578125,-84.47265625
-49.8046875,-56.640625,-49.31640625,-75.68359375
-39.55078125,-19.53125,-52.734375,-80.56640625
-43.9453125,13.18359375,-54.19921875,-65.91796875
-40.0390625,9.765625,-50.29296875,-43.45703125
-58.10546875,-51.26953125,-52.24609375,-72.75390625
-68.359375,-87.40234375,-51.7578125,-90.33203125
-72.75390625,-42.96875,-57.6171875,-69.3359375
-59.5703125,-2.9296875,-56.640625,-59.08203125
-30.76171875,-2.44140625,-50.78125,-62.98828125
-45.41015625,-51.26953125,-52.24609375,-73.2421875
-75.68359375,-78.61328125,-54.6875,-78.125
-89.35546875,-34.66796875,-54.19921875,-65.4296875
-69.3359375,18.5546875,-55.6640625,-83.49609375
-48.33984375,2.44140625,-56.640625,-87.890625
-51.7578125,-44.43359375,-56.640625,-84.47265625
-68.359375,-43.45703125,-58.10546875,-84.9609375
-82.51953125,-59.08203125,-60.05859375,-83.49609375
-64.453125,-25.390625,-62.01171875,-87.40234375
-69.82421875,-3.90625,-60.546875,-85.9375
-41.015625,-67.87109375,-62.98828125,-89.35546875
-53.22265625,-84.47265625,-55.6640625,-83.0078125
-97.16796875,-48.828125,-53.7109375,-71.2890625
-67.3828125,-10.7421875,-51.7578125,-72.75390625
-33.203125,-6.8359375,-47.8515625,-69.3359375
-51.7578125,-40.0390625,-55.17578125,-60.546875
-80.078125,-77.63671875,-56.640625,-82.03125
-87.40234375,-73.2421875,-50.29296875,-73.2421875
-71.2890625,-7.8125,-46.38671875,-57.6171875
-39.55078125,1.953125,-46.875,-87.40234375
-64.94140625,-51.7578125,-51.7578125,-86.42578125
-68.84765625,-81.0546875,-50.29296875,-58.59375
-62.98828125,-71.2890625,-56.15234375,-76.66015625
-71.77734375,-14.16015625,-56.640625,-80.56640625
-66.40625,-1.46484375,-52.734375,-63.4765625
-58.10546875,-56.640625,-61.5234375,-78.125
-61.5234375,-90.33203125,-57.12890625,-88.37890625
-72.265625,-60.546875,-50.78125,-83.0078125
-56.15234375,-18.5546875,-54.19921875,-87.40234375
-72.75390625,-11.71875,-50.78125,-82.03125
-96.6796875,-5.859375,-46.875,-82.51953125
-97.65625,-85.9375,-48.828125,-93.75
-98.14453125,-109.375,-54.19921875,-72.75390625
-72.265625,-32.71484375,-51.26953125,-62.98828125
-64.453125,-9.27734375,-50.78125,-67.87109375
-55.17578125,-31.73828125,-51.26953125,-62.01171875
-69.3359375,-67.3828125,-46.38671875,-57.6171875
-83.0078125,-69.3359375,-50.29296875,-66.40625
-51.26953125,-20.01953125,-53.7109375,-74.70703125
-51.26953125,3.90625,-51.26953125,-61.03515625
-58.10546875,-35.15625,-46.875,-64.453125
-60.546875,-87.890625,-43.9453125,-68.84765625
-79.1015625,-76.171875,-43.9453125,-73.73046875
-89.35546875,-42.48046875,-50.78125,-72.265625
-63.96484375,-24.4140625,-53.7109375,-65.91796875
-56.640625,-20.5078125,-45.8984375,-65.4296875
-77.1484375,-57.12890625,-41.015625,-69.82421875
-73.2421875,-82.03125,-41.50390625,-66.40625
-74.21875,-46.38671875,-45.8984375,-66.89453125
-64.453125,2.9296875,-47.36328125,-67.87109375
-52.24609375,-13.671875,-45.41015625,-62.01171875
-34.1796875,-49.31640625,-50.29296875,-68.359375
-70.3125,-74.70703125,-50.78125,-76.171875
-98.6328125,-49.31640625,-48.33984375,-82.03125
-65.91796875,20.99609375,-49.8046875,-45.8984375
-49.8046875,0.48828125,-50.29296875,-35.64453125
-54.6875,-88.8671875,-49.8046875,-65.4296875
-54.6875,-107.91015625,-51.26953125,-78.125
-65.4296875,-58.10546875,-49.8046875,-63.4765625
-71.2890625,-15.625,-48.33984375,-53.22265625
-50.29296875,-9.27734375,-55.6640625,-71.2890625
-37.109375,-42.96875,-52.734375,-68.84765625
-77.63671875,-89.84375,-46.38671875,-63.96484375
-106.93359375,-72.265625,-47.36328125,-83.0078125
-85.44921875,-24.90234375,-46.38671875,-79.1015625
-72.265625,5.859375,-47.8515625,-70.80078125
-64.94140625,-15.625,-44.921875,-60.05859375
-39.0625,-85.9375,-42.96875,-60.546875
-52.734375,-83.0078125,-44.43359375,-63.96484375
-60.546875,-22.4609375,-37.59765625,-45.41015625
-41.015625,-21.97265625,-39.0625,-38.57421875
-41.015625,-47.8515625,-41.015625,-47.8515625
-54.6875,-78.61328125,-41.9921875,-44.921875
-68.359375,-75.1953125,-48.33984375,-60.05859375
-63.96484375,-18.06640625,-45.41015625,-65.91796875
-54.6875,6.34765625,-50.29296875,-53.22265625
-32.71484375,-39.55078125,-51.7578125,-42.48046875
-33.203125,-54.6875,-46.38671875,-39.0625
-67.3828125,-49.31640625,-52.734375,-61.03515625
-74.70703125,-57.6171875,-50.29296875,-55.17578125
-52.734375,-35.15625,-49.8046875,-45.41015625
-45.41015625,-19.53125,-47.8515625,-69.3359375
-50.78125,-60.05859375,-46.875,-71.77734375
-69.82421875,-78.61328125,-51.26953125,-49.31640625
-65.91796875,-17.08984375,-51.26953125,-46.38671875
-45.41015625,-7.32421875,-50.29296875,-71.77734375
-43.45703125,-43.9453125,-45.8984375,-64.94140625
-60.05859375,-68.359375,-42.48046875,-41.50390625
-69.3359375,-86.42578125,-51.26953125,-61.5234375
-78.125,-50.78125,-55.6640625,-58.59375
-64.453125,8.7890625,-49.8046875,-53.22265625
-59.08203125,-26.85546875,-47.36328125,-65.4296875
-83.49609375,-86.42578125,-47.8515625,-64.453125
-75.1953125,-88.8671875,-51.7578125,-55.17578125
-75.1953125,-63.96484375,-51.7578125,-57.12890625
-47.36328125,-19.53125,-45.8984375,-55.17578125
-29.78515625,-15.13671875,-42.48046875,-36.1328125
-42.48046875,-65.91796875,-41.015625,-33.203125
-47.8515625,-74.70703125,-44.43359375,-55.6640625
-62.01171875,-58.59375,-47.36328125,-46.38671875
-52.24609375,-34.1796875,-47.8515625,-28.3203125
-33.69140625,-12.20703125,-45.41015625,-42.96875
-56.15234375,-36.1328125,-39.55078125,-45.8984375
-53.7109375,-71.77734375,-43.45703125,-55.17578125
-46.38671875,-84.47265625,-47.36328125,-67.3828125
-62.01171875,-35.64453125,-44.43359375,-61.5234375
-60.05859375,-13.18359375,-45.8984375,-51.7578125
-53.22265625,-56.640625,-47.36328125,-62.01171875
-65.91796875,-85.9375,-43.45703125,-67.3828125
-79.1015625,-68.84765625,-41.015625,-59.5703125
-70.80078125,-12.20703125,-49.8046875,-55.17578125
-64.94140625,-1.953125,-51.7578125,-63.4765625
-69.3359375,-41.50390625,-49.31640625,-80.56640625
-74.21875,-88.37890625,-50.78125,-83.984375
-76.171875,-77.63671875,-46.38671875,-68.359375
-68.84765625,-24.90234375,-42.96875,-50.78125
-62.98828125,-21.97265625,-44.921875,-50.29296875
-64.453125,-45.8984375,-44.921875,-50.29296875
-53.7109375,-79.58984375,-38.57421875,-46.875
-77.1484375,-79.58984375,-37.59765625,-47.36328125
-83.0078125,-27.34375,-43.9453125,-41.015625
-45.41015625,-1.953125,-47.8515625,-47.36328125
-18.5546875,-24.4140625,-48.828125,-51.7578125
-53.7109375,-67.87109375,-50.29296875,-48.828125
-83.0078125,-93.75,-45.8984375,-50.29296875
-79.1015625,-41.015625,-43.9453125,-45.8984375
-46.38671875,24.4140625,-50.29296875,-44.921875
-41.50390625,-29.296875,-54.19921875,-66.40625
-79.58984375,-83.984375,-53.7109375,-87.40234375
-65.91796875,-77.1484375,-49.31640625,-78.125
-71.2890625,-55.17578125,-41.9921875,-62.98828125
-73.73046875,-10.25390625,-40.0390625,-68.84765625
-55.6640625,-20.01953125,-44.921875,-80.078125
-36.62109375,-56.15234375,-44.921875,-73.2421875
-62.98828125,-66.40625,-47.36328125,-76.66015625
-103.515625,-43.9453125,-51.26953125,-99.12109375
-79.58984375,4.39453125,-47.8515625,-85.44921875
-54.6875,0.9765625,-48.828125,-81.54296875
-52.24609375,-50.29296875,-48.828125,-78.125
-38.57421875,-99.12109375,-46.38671875,-64.94140625
-56.15234375,-82.03125,-48.33984375,-68.359375
-58.59375,-3.90625,-44.921875,-61.03515625
-44.43359375,1.46484375,-40.0390625,-51.26953125
-44.921875,-43.9453125,-43.45703125,-54.6875
-66.40625,-72.265625,-45.8984375,-64.94140625
-78.125,-71.2890625,-47.8515625,-70.3125
-53.7109375,-28.3203125,-45.41015625,-69.82421875
-39.0625,-9.27734375,-40.0390625,-55.6640625
-65.4296875,-46.875,-38.57421875,-77.1484375
-98.6328125,-68.84765625,-43.9453125,-108.3984375
-94.23828125,-42.96875,-45.8984375,-103.515625
-90.8203125,-18.5546875,-42.96875,-105.95703125
-117.1875,-15.625,-42.96875,-121.58203125
-124.0234375,-30.2734375,-41.9921875,-143.06640625
-143.5546875,-53.7109375,-40.0390625,-143.5546875
-152.34375,-62.5,-48.33984375,-138.18359375
-145.5078125,-16.6015625,-47.8515625,-149.4140625
-171.875,16.11328125,-41.9921875,-162.59765625
-149.90234375,3.41796875,-43.45703125,-172.8515625
-163.57421875,-27.83203125,-49.8046875,-187.98828125
-190.91796875,-67.3828125,-49.8046875,-197.265625
-171.875,-0.48828125,-51.26953125,-201.171875
-165.0390625,44.921875,-55.6640625,-205.56640625
-179.6875,-20.99609375,-54.6875,-206.54296875
-174.31640625,-68.359375,-51.26953125,-211.9140625
-147.4609375,-55.17578125,-47.8515625,-186.03515625
-181.15234375,-0.9765625,-51.7578125,-191.89453125
-187.5,26.3671875,-47.8515625,-194.3359375
-152.34375,4.39453125,-45.41015625,-180.6640625
-166.50390625,-30.76171875,-57.12890625,-187.01171875
-173.33984375,-47.8515625,-60.546875,-177.734375
-159.1796875,-18.5546875,-55.6640625,-160.15625
-133.30078125,16.6015625,-51.26953125,-144.53125
-113.28125,6.34765625,-56.15234375,-151.3671875
-108.3984375,-22.4609375,-61.03515625,-164.0625
-128.41796875,-65.4296875,-55.17578125,-146.97265625
-121.09375,-63.96484375,-54.19921875,-133.7890625
-104.98046875,-13.18359375,-57.12890625,-134.765625
-104.4921875,-12.6953125,-56.15234375,-121.58203125
-88.8671875,-49.8046875,-51.26953125,-119.140625
-97.16796875,-83.49609375,-51.26953125,-104.98046875
-102.05078125,-59.08203125,-53.7109375,-97.16796875
-63.96484375,1.953125,-52.24609375,-88.8671875
-45.41015625,-9.27734375,-52.24609375,-80.078125
-46.875,-66.40625,-51.26953125,-84.47265625
-68.359375,-77.63671875,-45.41015625,-82.03125
-92.7734375,-41.50390625,-44.921875,-65.4296875
-59.08203125,-36.1328125,-53.22265625,-66.40625
-29.296875,-34.66796875,-50.78125,-72.265625
-13.18359375,-34.1796875,-44.43359375,-58.59375
-43.9453125,-101.07421875,-51.7578125,-62.5
-78.61328125,-102.05078125,-53.22265625,-66.89453125
-63.4765625,-29.296875,-51.26953125,-59.5703125
-48.33984375,-28.80859375,-53.22265625,-59.08203125
-32.71484375,-59.08203125,-50.78125,-58.10546875
-46.38671875,-90.33203125,-48.828125,-59.5703125
-51.7578125,-97.65625,-45.8984375,-42.96875
-37.59765625,-37.109375,-39.55078125,-25.87890625
-46.875,-6.34765625,-41.50390625,-34.66796875
-44.921875,-64.94140625,-43.9453125,-41.50390625
-37.59765625,-116.69921875,-44.921875,-45.41015625
-46.38671875,-95.703125,-44.43359375,-42.96875
-38.0859375,-50.78125,-38.0859375,-36.1328125
-14.6484375,-17.578125,-35.15625,-29.78515625
2.9296875,-42.96875,-40.52734375,-28.80859375
-0.9765625,-104.00390625,-43.9453125,-32.71484375
-26.85546875,-101.07421875,-41.50390625,-24.4140625
-34.1796875,-54.6875,-45.41015625,-18.5546875
-12.20703125,-20.01953125,-47.36328125,-14.6484375
-4.8828125,-35.15625,-44.43359375,-31.73828125
-6.8359375,-53.7109375,-42.96875,-47.8515625
-10.25390625,-93.26171875,-45.41015625,-23.92578125
-28.3203125,-90.33203125,-49.8046875,-23.4375
-29.78515625,-27.34375,-49.8046875,-35.64453125
-10.7421875,-25.87890625,-48.828125,-30.76171875
-24.4140625,-61.03515625,-48.33984375,-27.83203125
-41.50390625,-88.8671875,-46.875,-33.203125
-20.99609375,-74.70703125,-46.38671875,-27.34375
-15.625,-14.16015625,-46.875,-11.71875
-10.25390625,-16.11328125,-48.33984375,-13.671875
-9.27734375,-82.03125,-51.26953125,-9.765625
-37.109375,-94.7265625,-51.7578125,-24.4140625
-29.296875,-49.31640625,-49.31640625,-41.015625
-8.7890625,-28.3203125,-49.8046875,-32.71484375
-2.44140625,-32.2265625,-46.875,-26.85546875
10.7421875,-41.9921875,-38.57421875,-34.1796875
-10.7421875,-80.56640625,-38.57421875,-35.15625
-40.52734375,-67.87109375,-41.50390625,-22.94921875
-32.71484375,-8.30078125,-42.48046875,-21.97265625
-15.625,-7.8125,-42.96875,-28.3203125
-12.20703125,-57.12890625,-43.9453125,-34.66796875
-23.92578125,-78.61328125,-46.875,-35.64453125
-30.76171875,-67.87109375,-46.38671875,-35.15625
-21.97265625,-32.2265625,-41.015625,-30.76171875
-26.85546875,9.27734375,-39.0625,-32.71484375
-19.04296875,-39.55078125,-43.45703125,-34.66796875
-26.85546875,-114.2578125,-52.24609375,-30.76171875
-41.015625,-80.078125,-51.7578125,-37.59765625
-34.66796875,-11.71875,-43.45703125,-33.69140625
-26.85546875,-6.34765625,-39.55078125,-32.2265625
-13.18359375,-43.9453125,-41.015625,-45.41015625
-23.4375,-65.4296875,-42.96875,-49.8046875
-51.7578125,-69.3359375,-41.015625,-41.50390625
-40.52734375,-25.87890625,-44.43359375,-42.96875
-19.53125,-3.90625,-45.8984375,-50.29296875
-17.578125,-39.55078125,-41.9921875,-42.48046875
-32.2265625,-52.24609375,-44.921875,-45.8984375
-51.7578125,-87.890625,-56.640625,-57.12890625
-24.90234375,-55.17578125,-52.24609375,-11.71875
-11.23046875,-5.859375,-35.64453125,-0.9765625
-48.828125,-44.921875,-38.0859375,-71.77734375
-56.15234375,-86.9140625,-37.109375,-89.84375
-80.56640625,-92.7734375,-37.59765625,-89.84375
-92.28515625,-58.59375,-36.1328125,-88.8671875
-77.63671875,-34.1796875,-30.2734375,-76.66015625
-94.23828125,-57.6171875,-32.2265625,-78.125
-107.91015625,-106.93359375,-30.76171875,-81.54296875
-112.79296875,-108.3984375,-28.3203125,-81.0546875
-105.46875,-60.546875,-30.2734375,-75.68359375
-84.47265625,-52.734375,-34.1796875,-69.82421875
-59.08203125,-59.08203125,-35.64453125,-71.77734375
-69.82421875,-86.9140625,-35.15625,-81.0546875
-92.28515625,-113.28125,-37.59765625,-82.51953125
-91.796875,-80.56640625,-39.0625,-82.03125
-72.75390625,-26.85546875,-38.57421875,-75.68359375
-53.22265625,-40.52734375,-46.38671875,-60.546875
-55.17578125,-80.56640625,-49.31640625,-63.96484375
-65.91796875,-83.49609375,-45.8984375,-78.125
-58.59375,-80.56640625,-44.43359375,-76.66015625
-59.5703125,-15.13671875,-39.0625,-67.3828125
-44.921875,12.6953125,-35.15625,-61.03515625
-39.55078125,-71.2890625,-35.15625,-46.38671875
-66.40625,-92.28515625,-32.2265625,-56.15234375
-67.3828125,-68.359375,-32.71484375,-70.3125
-75.1953125,-42.96875,-41.9921875,-66.40625
-59.08203125,-8.30078125,-44.921875,-68.359375
-55.17578125,-36.1328125,-45.41015625,-68.359375
-62.01171875,-91.30859375,-46.38671875,-83.984375
-59.08203125,-78.125,-46.38671875,-72.75390625
-65.4296875,-16.6015625,-44.921875,-65.91796875
-40.0390625,-24.4140625,-43.45703125,-78.61328125
-30.76171875,-48.33984375,-41.015625,-70.3125
-62.5,-58.10546875,-43.45703125,-79.1015625
-96.19140625,-84.47265625,-46.38671875,-80.078125
-72.265625,-48.33984375,-42.96875,-69.3359375
-41.015625,-10.7421875,-38.57421875,-64.94140625
-41.9921875,-39.0625,-39.0625,-68.359375
-40.52734375,-77.63671875,-41.9921875,-83.0078125
-67.87109375,-81.0546875,-43.45703125,-91.796875
-74.70703125,-34.1796875,-46.38671875,-78.125
-35.64453125,-10.7421875,-47.36328125,-70.3125
-33.69140625,-44.921875,-44.921875,-69.82421875
-51.7578125,-78.61328125,-47.8515625,-76.171875
-69.82421875,-75.1953125,-51.26953125,-76.171875
-63.4765625,-40.52734375,-50.78125,-67.87109375
-48.33984375,-4.39453125,-50.29296875,-72.265625
-52.24609375,-35.64453125,-46.38671875,-78.125
-43.9453125,-78.61328125,-51.7578125,-62.01171875
-51.7578125,-83.0078125,-57.12890625,-71.2890625
-68.84765625,-56.15234375,-51.7578125,-86.42578125
-53.22265625,-14.16015625,-43.45703125,-70.80078125
-40.52734375,-20.5078125,-45.8984375,-71.77734375
-46.875,-61.03515625,-45.8984375,-79.58984375
-59.08203125,-73.2421875,-40.52734375,-79.58984375
-60.546875,-51.26953125,-42.96875,-72.265625
-34.66796875,-8.7890625,-42.48046875,-62.5
-37.109375,5.859375,-41.9921875,-62.98828125
-45.8984375,-70.3125,-46.875,-64.94140625
-45.41015625,-95.21484375,-50.29296875,-68.359375
-59.5703125,-57.6171875,-51.26953125,-64.453125
-41.9921875,-26.3671875,-44.921875,-61.03515625
-26.85546875,-19.53125,-39.55078125,-59.08203125
-42.48046875,-59.5703125,-41.015625,-58.10546875
-53.22265625,-79.1015625,-40.0390625,-69.3359375
-67.3828125,-61.03515625,-41.015625,-72.75390625
-62.5,-20.99609375,-39.0625,-62.01171875
-43.9453125,-21.484375,-39.55078125,-54.19921875
-46.38671875,-50.29296875,-41.50390625,-63.4765625
-28.80859375,-58.59375,-41.50390625,-82.51953125
-41.9921875,-68.84765625,-41.9921875,-83.984375
-74.21875,-45.41015625,-43.9453125,-74.70703125
-47.8515625,-24.90234375,-44.43359375,-63.96484375
-45.41015625,-50.78125,-44.921875,-70.3125
-64.453125,-75.68359375,-46.38671875,-90.8203125
-78.61328125,-62.98828125,-48.33984375,-88.8671875
-58.10546875,-40.0390625,-50.78125,-75.1953125
-18.5546875,-10.7421875,-45.8984375,-82.03125
-46.38671875,-17.578125,-42.96875,-72.75390625
-52.734375,-69.82421875,-45.41015625,-64.94140625
-57.12890625,-72.75390625,-44.43359375,-75.68359375
-51.26953125,-3.41796875,-41.9921875,-58.10546875
-28.80859375,-17.08984375,-44.43359375,-67.3828125
-42.96875,-41.50390625,-45.41015625,-81.54296875
-50.29296875,-56.15234375,-41.015625,-70.3125
-57.12890625,-81.54296875,-43.45703125,-72.75390625
-60.546875,-29.296875,-44.43359375,-71.77734375
-42.96875,8.7890625,-46.875,-62.98828125
-32.2265625,-19.04296875,-44.43359375,-69.3359375
-36.1328125,-50.29296875,-40.52734375,-50.78125
-61.5234375,-66.40625,-46.38671875,-61.5234375
-77.1484375,-67.87109375,-47.36328125,-75.68359375
-48.828125,-17.08984375,-42.96875,-81.54296875
-44.43359375,-0.48828125,-41.015625,-78.125
-48.33984375,-73.73046875,-36.62109375,-62.98828125
-67.3828125,-108.88671875,-38.57421875,-66.89453125
-66.89453125,-46.875,-44.921875,-68.359375
-51.7578125,-4.8828125,-42.48046875,-62.5
-48.828125,-20.01953125,-37.59765625,-69.82421875
-13.18359375,-60.05859375,-38.0859375,-60.05859375
-35.64453125,-76.171875,-39.55078125,-59.08203125
-83.49609375,-52.24609375,-46.875,-71.77734375
-48.828125,-8.30078125,-49.31640625,-62.01171875
-26.3671875,-11.71875,-47.8515625,-61.5234375
-38.0859375,-62.01171875,-44.921875,-68.84765625
-57.6171875,-62.98828125,-41.015625,-63.4765625
-62.01171875,-57.12890625,-42.96875,-58.59375
-61.03515625,-46.875,-46.38671875,-58.59375
-53.22265625,-29.78515625,-43.9453125,-58.59375
-34.66796875,-61.03515625,-42.48046875,-57.6171875
-31.25,-82.03125,-45.8984375,-54.6875
-55.17578125,-66.89453125,-45.8984375,-47.36328125
-55.17578125,-19.53125,-48.828125,-45.41015625
-36.62109375,-2.44140625,-48.33984375,-65.91796875
-41.9921875,-49.8046875,-40.52734375,-59.5703125
-43.45703125,-84.47265625,-41.50390625,-52.24609375
-71.77734375,-69.3359375,-43.9453125,-62.5
-65.4296875,-3.41796875,-41.50390625,-54.19921875
-31.73828125,-14.16015625,-45.8984375,-49.31640625
-43.9453125,-53.22265625,-46.38671875,-53.22265625
-35.15625,-70.80078125,-43.9453125,-54.6875
-48.33984375,-97.65625,-50.29296875,-62.01171875
-93.75,-41.015625,-49.31640625,-55.6640625
-55.17578125,-13.671875,-43.9453125,-48.33984375
-29.296875,-38.57421875,-40.52734375,-51.26953125
-64.453125,-78.61328125,-40.0390625,-75.1953125
-71.2890625,-78.61328125,-41.9921875,-70.80078125
-52.24609375,-30.2734375,-38.57421875,-47.8515625
-55.17578125,-2.44140625,-39.0625,-57.12890625
-38.57421875,-2.44140625,-40.52734375,-38.0859375
-41.9921875,-64.453125,-38.57421875,-44.43359375
-66.89453125,-96.6796875,-41.9921875,-65.91796875
-56.640625,-45.8984375,-50.29296875,-53.7109375
-44.921875,-10.7421875,-50.78125,-56.640625
-50.78125,-21.484375,-45.8984375,-60.05859375
-47.36328125,-58.59375,-39.0625,-64.453125
-63.96484375,-93.26171875,-46.875,-74.70703125
-82.51953125,-62.01171875,-48.828125,-71.77734375
-46.875,-6.34765625,-46.38671875,-45.41015625
-35.15625,-19.04296875,-51.7578125,-49.31640625
-41.9921875,-51.7578125,-47.8515625,-60.546875
-55.6640625,-54.19921875,-43.9453125,-52.24609375
-63.4765625,-58.10546875,-42.48046875,-50.29296875
-51.26953125,-29.78515625,-43.9453125,-48.828125
-57.6171875,-26.85546875,-47.36328125,-54.19921875
-55.6640625,-66.89453125,-43.9453125,-57.12890625
-69.3359375,-94.7265625,-35.64453125,-46.875
-72.75390625,-57.12890625,-40.0390625,-42.48046875
-57.6171875,-13.671875,-48.828125,-45.41015625
-41.015625,-16.11328125,-46.875,-36.1328125
-37.109375,-54.6875,-49.8046875,-36.62109375
-46.875,-105.46875,-52.24609375,-63.96484375
-67.3828125,-71.77734375,-49.8046875,-66.89453125
-65.91796875,11.71875,-49.8046875,-45.41015625
-41.50390625,-10.25390625,-51.26953125,-45.8984375
-61.5234375,-73.2421875,-49.31640625,-53.7109375
-87.40234375,-69.3359375,-50.78125,-62.01171875
-86.9140625,-62.98828125,-48.828125,-54.6875
-71.77734375,-37.109375,-41.9921875,-38.57421875
-43.45703125,-5.37109375,-43.9453125,-37.109375
-42.48046875,-40.0390625,-47.8515625,-42.48046875
-40.52734375,-80.56640625,-45.41015625,-46.38671875
-61.03515625,-69.3359375,-45.8984375,-60.05859375
-72.265625,-41.015625,-48.828125,-71.2890625
-46.875,-16.6015625,-49.31640625,-58.59375
-36.62109375,-3.90625,-49.8046875,-39.55078125
-59.08203125,-62.5,-51.7578125,-46.875
-85.44921875,-112.79296875,-53.22265625,-58.59375
-63.4765625,-56.15234375,-54.6875,-50.29296875
-41.9921875,-5.37109375,-49.31640625,-43.45703125
-32.71484375,-19.04296875,-47.36328125,-56.15234375
-40.0390625,-49.8046875,-47.8515625,-43.9453125
-57.6171875,-77.1484375,-44.43359375,-34.1796875
-63.4765625,-34.66796875,-45.8984375,-57.6171875
-49.31640625,2.9296875,-41.015625,-45.8984375
-33.203125,-23.4375,-37.59765625,-35.15625
-58.59375,-61.03515625,-47.36328125,-48.828125
-69.3359375,-62.98828125,-48.828125,-48.828125
-63.96484375,-51.26953125,-51.7578125,-46.38671875
-61.03515625,-31.73828125,-54.6875,-45.41015625
-43.45703125,-21.484375,-48.828125,-40.0390625
-48.33984375,-80.56640625,-53.7109375,-52.24609375
-72.75390625,-81.54296875,-59.08203125,-55.6640625
-69.3359375,-49.31640625,-57.12890625,-55.17578125
-56.15234375,-10.25390625,-49.8046875,-56.640625
-36.62109375,-17.578125,-44.43359375,-55.17578125
-41.015625,-62.98828125,-47.36328125,-68.84765625
-82.03125,-88.37890625,-48.828125,-55.6640625
-79.1015625,-69.3359375,-43.9453125,-51.26953125
-52.24609375,-5.37109375,-47.8515625,-48.33984375
-55.17578125,-23.92578125,-51.7578125,-42.96875
-44.43359375,-67.87109375,-50.78125,-57.6171875
-60.05859375,-75.68359375,-51.7578125,-43.45703125
-78.61328125,-80.078125,-51.26953125,-37.59765625
-74.70703125,-36.62109375,-49.31640625,-41.50390625
-57.12890625,-4.39453125,-49.8046875,-45.41015625
-56.640625,-60.05859375,-47.8515625,-41.015625
-42.96875,-86.9140625,-50.78125,-34.1796875
-48.828125,-83.49609375,-49.8046875,-46.38671875
-69.3359375,-34.1796875,-41.9921875,-41.9921875
-45.41015625,6.8359375,-44.43359375,-29.78515625
-45.41015625,-33.203125,-49.31640625,-47.8515625
-63.4765625,-84.47265625,-50.29296875,-59.08203125
-83.0078125,-94.7265625,-50.29296875,-46.38671875
-69.82421875,-52.24609375,-47.8515625,-56.640625
-50.29296875,-21.97265625,-45.41015625,-62.01171875
-58.10546875,-44.43359375,-44.43359375,-51.26953125
-61.03515625,-79.1015625,-43.45703125,-48.33984375
-51.26953125,-88.37890625,-45.8984375,-49.8046875
-54.6875,-47.36328125,-47.36328125,-59.08203125
-56.640625,8.30078125,-49.31640625,-61.5234375
-39.55078125,-23.92578125,-52.734375,-45.8984375
-56.640625,-82.03125,-50.78125,-43.45703125
-60.546875,-74.21875,-48.33984375,-39.55078125
-54.6875,-44.921875,-43.9453125,-39.55078125
-49.31640625,-23.92578125,-45.41015625,-46.875
-46.38671875,-32.2265625,-43.9453125,-32.71484375
-41.50390625,-63.4765625,-40.52734375,-34.1796875
-56.15234375,-80.078125,-44.921875,-43.9453125
-80.56640625,-45.41015625,-41.9921875,-23.92578125
-55.6640625,-7.32421875,-37.109375,-30.76171875
-43.9453125,-27.83203125,-39.55078125,-61.03515625
-43.45703125,-61.03515625,-43.9453125,-49.8046875
-57.6171875,-78.61328125,-48.33984375,-51.7578125
-62.5,-52.24609375,-46.875,-56.640625
-44.921875,-0.48828125,-43.9453125,-37.59765625
-36.1328125,-12.6953125,-41.50390625,-33.203125
-47.36328125,-72.75390625,-39.55078125,-36.1328125
-73.2421875,-111.81640625,-50.78125,-44.921875
-73.73046875,-74.70703125,-60.546875,-44.921875
-52.24609375,-12.20703125,-53.22265625,-39.55078125
-33.203125,-18.5546875,-47.36328125,-30.2734375
-46.875,-60.546875,-50.29296875,-31.25
-64.94140625,-72.75390625,-50.78125,-51.26953125
-60.05859375,-57.6171875,-45.8984375,-53.7109375
-52.24609375,-19.53125,-44.921875,-40.52734375
-49.31640625,-6.8359375,-46.38671875,-47.8515625
-42.96875,-22.94921875,-47.36328125,-55.6640625
-51.7578125,-82.03125,-50.78125,-54.6875
-77.63671875,-78.125,-53.7109375,-61.03515625
-67.87109375,-18.06640625,-57.12890625,-57.6171875
-35.15625,-27.83203125,-53.7109375,-44.921875
-43.9453125,-47.8515625,-49.31640625,-51.26953125
-62.01171875,-72.75390625,-51.7578125,-67.3828125
-62.5,-70.80078125,-53.7109375,-61.5234375
-57.12890625,-35.64453125,-48.828125,-47.36328125
-39.0625,-16.11328125,-42.96875,-49.31640625
-35.64453125,-37.109375,-41.50390625,-44.921875
-52.734375,-56.15234375,-41.9921875,-55.6640625
-59.5703125,-53.22265625,-49.31640625,-62.98828125
-58.10546875,-48.33984375,-52.734375,-48.33984375
-40.0390625,-34.66796875,-51.26953125,-45.41015625
-38.0859375,-35.15625,-53.7109375,-50.29296875
-60.546875,-62.98828125,-52.734375,-62.98828125
-61.03515625,-70.80078125,-50.78125,-69.3359375
-41.9921875,-34.66796875,-49.8046875,-52.24609375
-28.80859375,-31.25,-48.33984375,-47.8515625
-29.296875,-32.2265625,-42.96875,-45.41015625
-34.1796875,-56.640625,-39.55078125,-35.15625
-58.59375,-79.58984375,-40.0390625,-35.15625
-70.80078125,-43.9453125,-40.52734375,-37.59765625
-47.36328125,10.25390625,-41.9921875,-41.015625
-33.203125,-23.92578125,-44.921875,-43.45703125
-47.8515625,-89.84375,-48.33984375,-56.640625
-63.96484375,-79.1015625,-50.29296875,-68.84765625
-56.640625,-41.9921875,-45.8984375,-60.05859375
-36.62109375,-10.25390625,-41.015625,-41.015625
-22.94921875,-12.20703125,-45.8984375,-39.0625
-5.859375,-60.05859375,-44.921875,-46.38671875
-29.78515625,-67.3828125,-41.50390625,-34.66796875
-75.68359375,-44.43359375,-49.31640625,-34.66796875
-59.5703125,-37.59765625,-51.7578125,-41.9921875
-44.921875,-21.484375,-46.38671875,-53.22265625
-47.8515625,-29.78515625,-46.38671875,-53.7109375
-42.96875,-94.23828125,-46.38671875,-51.7578125
-61.03515625,-90.8203125,-52.734375,-53.22265625
-54.19921875,-10.25390625,-52.24609375,-52.24609375
-36.62109375,-6.8359375,-47.8515625,-54.6875
-31.25,-38.0859375,-48.828125,-55.17578125
-52.24609375,-65.91796875,-44.921875,-52.734375
-56.15234375,-75.1953125,-47.36328125,-50.29296875
-35.15625,-20.99609375,-46.875,-44.921875
-42.48046875,-0.48828125,-41.50390625,-31.25
-37.59765625,-46.875,-38.0859375,-39.55078125
-50.78125,-81.54296875,-42.48046875,-70.80078125
-66.89453125,-54.19921875,-44.921875,-50.29296875
-54.19921875,-8.30078125,-42.48046875,-25.87890625
-38.57421875,-16.6015625,-41.015625,-41.50390625
-38.57421875,-36.1328125,-42.96875,-45.41015625
-48.33984375,-63.96484375,-38.57421875,-39.55078125
-48.33984375,-73.73046875,-34.66796875,-33.203125
-52.24609375,-24.4140625,-40.0390625,-44.921875
-41.9921875,6.34765625,-38.0859375,-53.22265625
-40.52734375,-41.50390625,-40.0390625,-46.875
-58.10546875,-86.42578125,-49.31640625,-52.734375
-62.01171875,-65.91796875,-46.38671875,-54.6875
-58.10546875,-25.87890625,-47.36328125,-49.31640625
-38.0859375,14.6484375,-51.26953125,-48.828125
-36.1328125,-29.78515625,-54.6875,-55.6640625
-43.9453125,-75.1953125,-53.7109375,-53.7109375
-67.87109375,-67.87109375,-51.7578125,-47.8515625
-64.94140625,-53.22265625,-49.8046875,-46.875
-49.8046875,-11.23046875,-46.875,-48.33984375
-53.22265625,-26.85546875,-48.33984375,-54.6875
-48.828125,-59.5703125,-49.8046875,-57.12890625
-59.08203125,-70.3125,-51.26953125,-57.12890625
-70.80078125,-55.17578125,-50.78125,-62.01171875
-57.6171875,-10.7421875,-46.38671875,-53.7109375
-33.203125,-0.9765625,-45.41015625,-43.45703125
-26.3671875,-34.1796875,-42.96875,-48.828125
-52.24609375,-86.9140625,-43.9453125,-55.17578125
-88.37890625,-70.3125,-46.875,-68.84765625
-47.8515625,-0.48828125,-49.31640625,-68.359375
-31.25,-7.32421875,-51.7578125,-69.82421875
-53.7109375,-47.36328125,-48.33984375,-65.4296875
-62.98828125,-60.05859375,-45.8984375,-53.7109375
-68.359375,-73.2421875,-45.41015625,-63.96484375
-44.43359375,-26.3671875,-46.875,-62.98828125
-35.64453125,1.953125,-44.43359375,-56.640625
-45.8984375,-60.05859375,-47.36328125,-65.4296875
-54.19921875,-81.0546875,-45.8984375,-70.80078125
-60.546875,-32.2265625,-39.55078125,-50.78125
-56.15234375,-26.3671875,-43.9453125,-52.24609375
-39.0625,-23.4375,-41.015625,-64.453125
-46.875,-41.50390625,-38.57421875,-65.4296875
-58.10546875,-78.61328125,-38.57421875,-65.91796875
-53.7109375,-73.73046875,-35.64453125,-51.26953125
-72.265625,-25.87890625,-40.52734375,-49.31640625
-66.40625,-17.08984375,-41.015625,-58.59375
-42.96875,-47.8515625,-37.109375,-69.82421875
-54.19921875,-50.29296875,-36.62109375,-66.40625
-62.5,-68.359375,-41.015625,-55.6640625
-47.8515625,-24.4140625,-43.45703125,-59.08203125
-41.9921875,17.08984375,-42.48046875,-58.59375
-39.0625,-56.15234375,-42.96875,-49.31640625
-43.45703125,-98.14453125,-46.875,-54.6875
-52.734375,-77.63671875,-44.43359375,-60.05859375
-53.7109375,-30.2734375,-42.48046875,-48.828125
-17.08984375,2.44140625,-46.875,-47.8515625
-23.4375,-29.296875,-48.33984375,-57.12890625
-45.8984375,-74.21875,-47.36328125,-55.6640625
-66.89453125,-74.21875,-45.41015625,-61.5234375
-84.9609375,-39.55078125,-48.33984375,-63.96484375
-42.96875,-17.08984375,-48.828125,-50.29296875
-34.66796875,-25.87890625,-44.43359375,-53.22265625
-32.71484375,-43.45703125,-43.45703125,-61.5234375
-48.828125,-74.21875,-45.8984375,-56.15234375
-71.77734375,-66.40625,-51.7578125,-46.38671875
-57.12890625,-21.97265625,-54.6875,-56.640625
-49.31640625,-19.04296875,-54.6875,-69.82421875
-49.8046875,-67.87109375,-57.6171875,-65.4296875
-49.31640625,-96.19140625,-56.640625,-64.94140625
-65.4296875,-60.05859375,-51.26953125,-64.453125
-61.03515625,-15.13671875,-48.33984375,-52.734375
-31.73828125,-25.87890625,-45.8984375,-42.96875
-31.25,-65.91796875,-44.43359375,-53.7109375
-41.9921875,-68.84765625,-41.50390625,-41.9921875
-62.01171875,-29.296875,-40.0390625,-26.85546875
-50.78125,-24.4140625,-43.45703125,-38.0859375
-43.9453125,-37.59765625,-48.33984375,-42.48046875
-48.33984375,-50.29296875,-48.33984375,-49.8046875
-45.41015625,-92.28515625,-49.31640625,-54.6875
-51.7578125,-70.3125,-49.31640625,-61.03515625
-58.10546875,-15.13671875,-47.36328125,-57.6171875
-40.0390625,-11.23046875,-45.41015625,-53.7109375
-41.015625,-56.15234375,-38.57421875,-49.8046875
-61.03515625,-83.49609375,-35.15625,-41.9921875
-59.5703125,-62.5,-36.62109375,-60.05859375
-80.078125,-18.5546875,-38.57421875,-64.94140625
-69.82421875,5.859375,-35.15625,-55.6640625
-53.22265625,-41.50390625,-42.48046875,-63.4765625
-67.3828125,-94.7265625,-49.31640625,-67.3828125
-69.3359375,-67.87109375,-47.8515625,-62.5
-50.29296875,-11.23046875,-50.78125,-61.5234375
-12.6953125,0.9765625,-48.828125,-48.828125
-18.06640625,-21.97265625,-42.48046875,-41.50390625
-48.828125,-70.80078125,-41.9921875,-62.5
-66.89453125,-80.56640625,-44.43359375,-57.12890625
-60.546875,-31.73828125,-43.45703125,-43.9453125
-26.85546875,-4.39453125,-48.33984375,-46.38671875
-44.921875,-13.671875,-44.43359375,-40.52734375
-59.5703125,-53.7109375,-38.0859375,-62.5
-62.5,-93.75,-41.9921875,-66.89453125
-65.4296875,-51.26953125,-40.52734375,-44.43359375
-41.9921875,-2.9296875,-40.52734375,-46.875
-33.69140625,-22.4609375,-48.33984375,-56.15234375
-47.36328125,-69.3359375,-43.9453125,-62.98828125
-59.08203125,-72.265625,-35.64453125,-55.17578125
-55.6640625,-31.25,-39.55078125,-43.45703125
-54.19921875,6.34765625,-43.45703125,-40.52734375
-34.1796875,-8.30078125,-49.31640625,-44.921875
-60.05859375,-76.171875,-45.8984375,-59.5703125
-75.1953125,-85.9375,-42.48046875,-58.59375
-75.68359375,-34.1796875,-44.921875,-55.6640625
-80.078125,-23.92578125,-42.48046875,-53.7109375
-58.59375,-29.78515625,-42.96875,-56.15234375
-43.45703125,-56.15234375,-48.33984375,-58.59375
-51.7578125,-82.03125,-47.8515625,-49.31640625
-59.5703125,-50.78125,-41.50390625,-51.26953125
-46.875,-5.859375,-38.57421875,-49.31640625
-23.4375,-10.7421875,-43.45703125,-39.55078125
-32.2265625,-56.640625,-45.8984375,-44.43359375
-54.6875,-69.3359375,-43.45703125,-45.41015625
-52.734375,-51.26953125,-42.96875,-38.57421875
-40.52734375,-8.7890625,-44.43359375,-26.85546875
-30.2734375,9.765625,-44.921875,-45.41015625
-41.50390625,-53.7109375,-48.828125,-58.59375
-71.77734375,-111.328125,-49.8046875,-44.921875
-75.1953125,-80.56640625,-46.38671875,-41.015625
-60.546875,-26.85546875,-44.921875,-55.17578125
-44.921875,-6.34765625,-45.8984375,-65.91796875
-31.25,-27.34375,-43.45703125,-58.59375
-45.41015625,-76.66015625,-44.921875,-53.22265625
-69.3359375,-81.54296875,-49.8046875,-61.5234375
-71.77734375,-32.2265625,-45.41015625,-65.91796875
-35.64453125,-8.7890625,-44.921875,-58.59375
-33.203125,-25.87890625,-45.8984375,-62.01171875
-68.359375,-51.7578125,-46.38671875,-69.3359375
-57.6171875,-79.58984375,-53.22265625,-60.546875
-46.875,-35.15625,-53.22265625,-51.26953125
-38.57421875,-5.859375,-52.734375,-51.26953125
-35.64453125,-53.7109375,-51.7578125,-50.78125
-39.55078125,-91.796875,-45.41015625,-52.734375
-43.9453125,-78.61328125,-49.31640625,-54.19921875
-43.9453125,-28.3203125,-52.24609375,-55.6640625
-33.69140625,-14.16015625,-45.8984375,-45.41015625
-35.15625,-17.578125,-45.8984375,-34.1796875
-49.31640625,-63.4765625,-49.8046875,-46.38671875
-69.3359375,-88.37890625,-45.8984375,-50.78125
-61.5234375,-32.71484375,-43.45703125,-45.41015625
-40.52734375,-23.4375,-47.36328125,-36.1328125
-39.55078125,-36.1328125,-45.41015625,-45.41015625
-40.52734375,-64.453125,-46.38671875,-56.15234375
-49.31640625,-83.984375,-46.38671875,-58.59375
-58.10546875,-30.2734375,-46.38671875,-61.03515625
-41.015625,-3.41796875,-41.9921875,-55.6640625
-24.4140625,-49.8046875,-40.0390625,-53.7109375
-42.48046875,-72.75390625,-41.9921875,-61.03515625
-56.15234375,-74.21875,-41.015625,-60.546875
-51.26953125,-53.22265625,-43.45703125,-39.55078125
-52.24609375,-11.23046875,-43.45703125,-47.36328125
-42.48046875,2.44140625,-46.875,-63.96484375
-44.921875,-60.546875,-46.38671875,-50.78125
-52.24609375,-104.98046875,-47.36328125,-51.7578125
-41.9921875,-61.5234375,-52.24609375,-51.26953125
-41.50390625,-17.578125,-47.36328125,-47.36328125
-54.6875,-24.4140625,-46.38671875,-57.6171875
-40.52734375,-51.26953125,-52.734375,-61.5234375
-51.7578125,-80.078125,-49.31640625,-58.59375
-65.4296875,-65.91796875,-44.921875,-59.5703125
-51.26953125,-19.04296875,-48.33984375,-51.26953125
-34.66796875,-27.83203125,-50.29296875,-61.03515625
-46.875,-48.828125,-48.828125,-65.4296875
-58.59375,-58.10546875,-50.29296875,-60.05859375
-47.8515625,-76.66015625,-51.7578125,-59.08203125
-40.52734375,-46.875,-47.8515625,-52.734375
-38.57421875,-8.7890625,-42.48046875,-58.59375
-42.48046875,-39.55078125,-43.9453125,-66.89453125
-44.43359375,-77.1484375,-48.33984375,-69.82421875
-67.3828125,-72.265625,-46.38671875,-71.77734375
-60.546875,-31.25,-44.43359375,-65.91796875
-50.78125,-18.06640625,-45.41015625,-59.08203125
-41.50390625,-49.31640625,-44.43359375,-52.24609375
-45.8984375,-89.84375,-47.8515625,-51.26953125
-66.89453125,-79.1015625,-47.8515625,-47.8515625
-54.6875,-12.20703125,-45.41015625,-45.8984375
-35.64453125,-14.16015625,-51.26953125,-60.05859375
-52.24609375,-57.12890625,-47.8515625,-51.26953125
-87.890625,-83.49609375,-38.57421875,-56.640625
-66.89453125,-98.14453125,-41.50390625,-67.87109375
-61.5234375,-48.33984375,-44.921875,-69.3359375
-69.82421875,-10.25390625,-42.48046875,-63.4765625
-45.8984375,-27.83203125,-42.48046875,-55.6640625
-48.33984375,-69.82421875,-41.9921875,-42.96875
-56.640625,-72.75390625,-40.52734375,-34.1796875
-50.29296875,-40.0390625,-46.38671875,-55.6640625
-37.59765625,-10.7421875,-52.24609375,-63.96484375
-36.1328125,-5.859375,-46.38671875,-49.8046875
-40.52734375,-69.82421875,-42.96875,-44.43359375
-59.08203125,-95.703125,-48.33984375,-53.22265625
-56.640625,-37.59765625,-50.78125,-47.8515625
-33.69140625,-13.18359375,-52.734375,-51.26953125
-30.2734375,-34.66796875,-50.29296875,-51.7578125
-41.9921875,-60.05859375,-39.55078125,-44.43359375
-72.75390625,-72.75390625,-43.45703125,-45.41015625
-72.75390625,-45.41015625,-47.36328125,-46.38671875
-40.0390625,-11.23046875,-44.921875,-41.015625
-37.109375,-22.4609375,-50.29296875,-53.22265625
-49.31640625,-44.43359375,-49.8046875,-60.05859375
-57.12890625,-57.12890625,-48.33984375,-57.12890625
-65.91796875,-73.2421875,-53.22265625,-56.15234375
-48.33984375,-33.203125,-51.26953125,-53.7109375
-33.203125,-14.16015625,-52.734375,-54.19921875
-31.25,-51.26953125,-50.29296875,-60.546875
-50.78125,-80.078125,-42.96875,-60.05859375
-64.453125,-67.3828125,-46.875,-45.8984375
-59.08203125,-33.69140625,-47.8515625,-30.76171875
-44.921875,-22.94921875,-42.48046875,-34.66796875
-38.57421875,-53.7109375,-38.0859375,-53.7109375
-57.6171875,-81.54296875,-36.1328125,-62.98828125
-90.8203125,-70.3125,-39.0625,-57.6171875
-82.51953125,-16.6015625,-41.9921875,-57.12890625
-34.1796875,-17.578125,-37.109375,-56.15234375
-25.390625,-57.6171875,-36.62109375,-41.9921875
-54.19921875,-93.26171875,-46.875,-54.19921875
-79.1015625,-79.58984375,-53.22265625,-67.3828125
-59.5703125,-23.92578125,-52.24609375,-53.7109375
-36.62109375,-9.27734375,-48.33984375,-46.875
-35.15625,-40.0390625,-48.828125,-53.7109375
-47.8515625,-73.2421875,-47.36328125,-50.78125
-70.80078125,-74.70703125,-44.921875,-48.33984375
-75.68359375,-48.33984375,-47.8515625,-47.36328125
-26.85546875,-11.71875,-47.8515625,-31.73828125
-6.8359375,-4.39453125,-46.875,-36.1328125
-49.31640625,-78.61328125,-47.8515625,-51.7578125
-57.6171875,-106.4453125,-47.36328125,-45.41015625
-60.546875,-41.50390625,-43.9453125,-40.0390625
-45.8984375,-16.6015625,-44.921875,-32.2265625
-30.76171875,-24.4140625,-46.875,-30.2734375
-46.875,-54.6875,-48.828125,-41.50390625
-54.6875,-78.125,-51.26953125,-52.24609375
-46.38671875,-53.22265625,-52.734375,-59.08203125
-47.36328125,-6.8359375,-51.7578125,-46.875
-43.9453125,-23.4375,-48.828125,-30.2734375
-33.69140625,-69.3359375,-48.33984375,-41.9921875
-53.22265625,-50.78125,-47.36328125,-53.7109375
-61.03515625,-32.71484375,-49.31640625,-41.9921875
-32.71484375,-25.390625,-45.8984375,-31.25
-47.8515625,-36.62109375,-40.0390625,-33.69140625
-59.08203125,-59.08203125,-40.52734375,-40.52734375
-59.5703125,-65.91796875,-44.921875,-50.78125
-96.19140625,-67.3828125,-43.9453125,-44.43359375
-74.70703125,-17.578125,-41.9921875,-31.73828125
-48.828125,-10.7421875,-47.36328125,-41.50390625
-56.15234375,-56.15234375,-48.828125,-46.38671875
-64.94140625,-72.265625,-51.26953125,-51.26953125
-62.5,-59.5703125,-54.6875,-60.546875
-62.98828125,-3.41796875,-55.6640625,-42.48046875
-51.26953125,-23.92578125,-52.734375,-30.2734375
-31.73828125,-55.6640625,-47.8515625,-41.50390625
-53.22265625,-59.08203125,-49.8046875,-54.19921875
-76.66015625,-78.61328125,-55.6640625,-59.08203125
-57.6171875,-37.109375,-55.17578125,-56.640625
-40.0390625,-11.71875,-58.10546875,-56.640625
-55.17578125,-39.0625,-58.59375,-56.640625
-56.15234375,-73.2421875,-55.17578125,-53.22265625
-68.359375,-74.21875,-51.7578125,-45.8984375
-70.80078125,-41.015625,-47.36328125,-59.08203125
-51.7578125,-14.6484375,-46.875,-64.94140625
-47.8515625,-16.6015625,-42.48046875,-45.8984375
-81.0546875,-77.1484375,-44.921875,-50.78125
-69.3359375,-91.30859375,-53.22265625,-55.17578125
-47.36328125,-34.1796875,-51.26953125,-46.875
-40.0390625,-13.18359375,-46.875,-42.96875
-40.0390625,-13.18359375,-45.8984375,-46.38671875
-57.6171875,-46.38671875,-44.43359375,-53.22265625
-70.3125,-88.8671875,-44.43359375,-42.96875
-82.51953125,-41.50390625,-48.33984375,-32.2265625
-49.8046875,-3.41796875,-47.8515625,-43.45703125
-25.87890625,-28.80859375,-42.96875,-44.43359375
-45.41015625,-58.59375,-46.875,-45.41015625
-64.94140625,-58.59375,-51.7578125,-45.41015625
-66.89453125,-62.01171875,-58.10546875,-53.7109375
-47.8515625,-28.80859375,-59.08203125,-65.4296875
-48.33984375,-14.6484375,-51.7578125,-62.01171875
-49.31640625,-56.15234375,-42.48046875,-50.29296875
-52.734375,-79.58984375,-40.0390625,-50.29296875
-72.265625,-59.08203125,-44.43359375,-52.24609375
-61.03515625,-22.94921875,-41.015625,-49.8046875
-47.8515625,-5.37109375,-39.55078125,-52.24609375
-34.66796875,-44.43359375,-42.48046875,-44.921875
-41.015625,-92.28515625,-41.50390625,-41.50390625
-68.84765625,-62.5,-41.015625,-45.8984375
-63.96484375,0.9765625,-41.50390625,-44.43359375
-52.24609375,-21.97265625,-44.43359375,-45.8984375
-45.8984375,-79.58984375,-48.828125,-55.17578125
-35.15625,-78.125,-50.29296875,-45.41015625
-40.52734375,-67.87109375,-50.29296875,-40.0390625
-50.78125,-26.3671875,-43.9453125,-45.8984375
-36.1328125,-16.11328125,-39.0625,-47.36328125
-26.85546875,-60.05859375,-37.59765625,-50.29296875
-64.453125,-84.9609375,-44.43359375,-62.98828125
-68.359375,-64.94140625,-50.78125,-58.10546875
-64.94140625,-27.34375,-47.36328125,-48.828125
-39.55078125,-10.7421875,-42.96875,-54.6875
-38.0859375,-22.4609375,-40.52734375,-53.7109375
-67.87109375,-74.70703125,-45.41015625,-54.19921875
-68.359375,-105.46875,-49.31640625,-66.40625
-59.08203125,-37.109375,-48.33984375,-56.640625
-41.50390625,-7.32421875,-51.7578125,-62.5
-51.26953125,-57.6171875,-51.7578125,-70.3125
-41.015625,-79.1015625,-45.41015625,-56.15234375
-46.875,-74.21875,-42.48046875,-55.6640625
-89.84375,-27.34375,-42.96875,-55.17578125
-43.45703125,-1.46484375,-43.9453125,-36.1328125
-37.109375,-31.73828125,-44.921875,-31.73828125
-60.546875,-60.546875,-41.9921875,-47.8515625
-56.640625,-51.26953125,-40.52734375,-64.453125
-53.7109375,-34.66796875,-39.55078125,-64.94140625
-30.76171875,-8.7890625,-43.45703125,-56.15234375
-30.2734375,-24.4140625,-46.875,-59.5703125
-42.48046875,-84.47265625,-50.78125,-54.6875
-49.31640625,-72.75390625,-52.734375,-46.38671875
-48.828125,-28.80859375,-47.36328125,-44.921875
-34.1796875,5.859375,-50.29296875,-41.9921875
-20.5078125,-8.30078125,-56.15234375,-46.38671875
-31.73828125,-60.546875,-45.41015625,-49.8046875
-54.6875,-74.70703125,-37.59765625,-50.78125
-55.6640625,-51.26953125,-43.45703125,-62.5
-54.19921875,-6.34765625,-40.52734375,-58.10546875
-36.62109375,-1.46484375,-40.52734375,-44.921875
-41.015625,-66.89453125,-44.43359375,-57.6171875
-70.3125,-83.984375,-46.38671875,-62.5
-59.5703125,-48.33984375,-47.36328125,-51.26953125
-44.921875,-8.7890625,-46.38671875,-40.0390625
-27.83203125,-4.8828125,-46.875,-39.55078125
-29.78515625,-57.12890625,-51.7578125,-63.96484375
-51.26953125,-88.37890625,-55.6640625,-75.68359375
-71.77734375,-68.359375,-52.24609375,-53.22265625
-77.1484375,-21.97265625,-51.26953125,-41.015625
-52.734375,-6.8359375,-45.8984375,-44.43359375
-44.43359375,-34.66796875,-44.43359375,-58.10546875
-65.91796875,-74.70703125,-49.31640625,-67.87109375
-72.265625,-71.77734375,-52.734375,-60.546875
-50.78125,-27.34375,-53.22265625,-58.10546875
-37.109375,-21.484375,-49.31640625,-62.01171875
-47.36328125,-51.26953125,-45.8984375,-49.8046875
-56.15234375,-71.77734375,-48.828125,-60.05859375
-65.91796875,-72.75390625,-46.875,-72.265625
-54.19921875,-27.83203125,-42.96875,-53.22265625
-37.109375,8.30078125,-45.8984375,-39.55078125
-26.85546875,-45.8984375,-48.33984375,-33.203125
-56.15234375,-85.44921875,-48.33984375,-47.36328125
-68.359375,-52.734375,-45.8984375,-59.5703125
-59.08203125,-37.109375,-45.41015625,-45.41015625
-47.36328125,-29.296875,-42.96875,-38.0859375
-29.296875,-39.55078125,-36.1328125,-33.203125
-29.296875,-68.84765625,-33.203125,-31.73828125
-68.359375,-63.4765625,-37.59765625,-40.52734375
-83.49609375,-25.390625,-36.62109375,-41.50390625
-49.31640625,-0.48828125,-33.69140625,-46.875
-31.25,-22.94921875,-36.62109375,-37.59765625
-43.9453125,-59.08203125,-40.0390625,-40.0390625
-70.80078125,-77.63671875,-43.9453125,-42.48046875
-62.01171875,-43.9453125,-41.9921875,-54.19921875
-54.19921875,10.25390625,-41.9921875,-65.4296875
-42.48046875,-15.13671875,-43.45703125,-62.98828125
-43.45703125,-76.66015625,-41.9921875,-66.89453125
-63.96484375,-83.984375,-47.36328125,-66.89453125
-65.91796875,-38.57421875,-52.24609375,-62.98828125
-58.59375,-11.71875,-50.29296875,-43.9453125
-42.48046875,-19.53125,-48.33984375,-39.0625
-45.8984375,-52.734375,-49.8046875,-43.9453125
-59.5703125,-84.47265625,-49.8046875,-53.22265625
-60.05859375,-48.828125,-49.8046875,-45.8984375
-56.15234375,-9.765625,-48.828125,-27.34375
-58.59375,-22.94921875,-50.78125,-40.52734375
-60.05859375,-41.9921875,-52.24609375,-58.10546875
-62.98828125,-87.40234375,-51.26953125,-54.19921875
-58.10546875,-65.91796875,-49.31640625,-43.45703125
-51.7578125,-3.41796875,-48.828125,-47.8515625
-51.26953125,-15.625,-48.33984375,-48.33984375
-13.671875,-51.26953125,-46.38671875,-42.96875
-41.50390625,-77.63671875,-43.9453125,-34.66796875
-74.21875,-61.5234375,-39.0625,-37.59765625
-49.31640625,-19.04296875,-38.57421875,-46.38671875
-18.06640625,-10.7421875,-40.52734375,-39.0625
-50.29296875,-51.7578125,-44.921875,-49.31640625
-73.2421875,-70.3125,-46.38671875,-61.03515625
-55.17578125,-62.01171875,-49.8046875,-48.33984375
-62.98828125,-42.48046875,-49.31640625,-53.7109375
-15.13671875,-23.92578125,-43.9453125,-61.03515625
-38.57421875,-40.0390625,-43.45703125,-54.6875
-75.1953125,-81.54296875,-43.45703125,-53.7109375
-55.17578125,-78.61328125,-46.38671875,-48.33984375
-63.96484375,-16.6015625,-50.29296875,-38.57421875
-51.26953125,-5.859375,-51.26953125,-52.734375
-51.7578125,-46.875,-47.8515625,-62.98828125
-58.10546875,-76.66015625,-45.41015625,-62.01171875
-41.50390625,-79.1015625,-47.8515625,-55.6640625
-50.29296875,-38.57421875,-43.9453125,-48.33984375
-42.48046875,6.8359375,-43.45703125,-48.33984375
-41.50390625,-41.9921875,-47.8515625,-41.9921875
-54.6875,-94.23828125,-47.36328125,-38.0859375
-58.59375,-76.171875,-40.52734375,-24.90234375
-48.828125,-44.921875,-39.55078125,-25.390625
-41.9921875,-18.06640625,-43.9453125,-33.203125
-47.36328125,-27.83203125,-43.45703125,-29.78515625
-23.92578125,-64.453125,-42.48046875,-46.38671875
-40.52734375,-71.77734375,-45.8984375,-54.6875
-60.05859375,-50.78125,-46.38671875,-41.50390625
-38.57421875,-37.59765625,-46.38671875,-54.19921875
-41.015625,-21.97265625,-49.8046875,-57.12890625
-13.18359375,-39.0625,-50.78125,-47.36328125
-41.50390625,-88.8671875,-51.7578125,-49.31640625
-90.33203125,-66.89453125,-52.24609375,-50.78125
-44.921875,-9.27734375,-50.78125,-49.8046875
-28.80859375,-14.16015625,-50.29296875,-65.91796875
-50.78125,-62.98828125,-48.33984375,-76.66015625
-59.08203125,-82.03125,-50.29296875,-69.3359375
-71.77734375,-71.77734375,-53.7109375,-58.59375
-62.98828125,-25.87890625,-50.78125,-58.10546875
-38.57421875,-15.625,-48.828125,-62.5
-46.875,-52.24609375,-49.31640625,-49.31640625
-52.24609375,-68.84765625,-49.31640625,-55.17578125
-56.15234375,-50.78125,-50.29296875,-43.9453125
-53.22265625,-29.296875,-46.875,-33.203125
-38.57421875,-44.921875,-40.0390625,-56.15234375
-52.24609375,-77.63671875,-41.50390625,-58.10546875
-50.29296875,-82.03125,-43.45703125,-55.6640625
-41.50390625,-71.2890625,-40.52734375,-55.17578125
-42.48046875,-24.4140625,-41.015625,-43.9453125
-46.38671875,-7.8125,-36.62109375,-37.109375
-23.92578125,-43.45703125,-37.109375,-35.64453125
-29.78515625,-70.3125,-45.8984375,-49.31640625
-47.8515625,-73.2421875,-49.31640625,-57.12890625
-40.0390625,-17.08984375,-48.828125,-54.19921875
-37.109375,19.53125,-47.36328125,-44.43359375
-43.9453125,-55.6640625,-46.38671875,-32.71484375
-48.33984375,-80.56640625,-43.9453125,-45.41015625
-54.19921875,-58.10546875,-41.50390625,-72.75390625
-59.08203125,-50.29296875,-43.9453125,-60.05859375
-22.94921875,-10.25390625,-45.41015625,-24.90234375
-0.9765625,-20.01953125,-45.8984375,-37.59765625
-51.26953125,-61.5234375,-44.43359375,-62.01171875
-87.40234375,-66.40625,-45.41015625,-60.546875
-43.9453125,-19.53125,-52.24609375,-53.22265625
-28.3203125,20.99609375,-54.6875,-57.6171875
-28.80859375,3.41796875,-54.6875,-62.98828125
-37.109375,-37.59765625,-60.05859375,-76.171875
-75.1953125,-69.3359375,-59.08203125,-78.61328125
-72.265625,-34.1796875,-55.17578125,-58.10546875
-36.1328125,20.99609375,-55.6640625,-53.7109375
-48.828125,3.41796875,-60.05859375,-49.8046875
-42.48046875,-33.203125,-61.5234375,-45.8984375
-36.62109375,-43.45703125,-62.01171875,-68.84765625
-52.734375,-35.64453125,-63.96484375,-68.84765625
-55.6640625,0.0,-60.546875,-53.22265625
-32.2265625,9.765625,-57.6171875,-54.19921875
-17.578125,-32.71484375,-59.08203125,-55.17578125
-44.921875,-55.17578125,-61.03515625,-48.828125
-52.24609375,-7.32421875,-67.87109375,-55.6640625
-36.1328125,-3.41796875,-66.40625,-42.96875
-25.390625,-26.3671875,-62.98828125,-42.96875
-25.87890625,-41.015625,-59.08203125,-61.5234375
-40.52734375,-62.01171875,-48.828125,-61.03515625
-48.33984375,-41.50390625,-50.29296875,-58.10546875
-37.59765625,-4.8828125,-50.29296875,-50.78125
-28.3203125,-8.30078125,-44.43359375,-44.921875
-22.4609375,-35.64453125,-46.875,-43.45703125
-38.57421875,-45.8984375,-49.8046875,-48.33984375
-58.59375,-62.5,-49.31640625,-40.52734375
-42.96875,-23.92578125,-50.29296875,-32.71484375
-33.69140625,14.6484375,-51.7578125,-44.921875
-32.2265625,-43.45703125,-51.26953125,-40.52734375
-22.94921875,-85.44921875,-54.19921875,-55.6640625
-52.734375,-60.546875,-56.15234375,-67.87109375
-38.57421875,-11.71875,-53.7109375,-50.29296875
-20.01953125,5.859375,-56.15234375,-48.828125
-36.1328125,-33.203125,-53.7109375,-51.26953125
-47.8515625,-62.01171875,-48.828125,-42.48046875
-35.64453125,-63.4765625,-58.10546875,-36.62109375
-45.8984375,-20.5078125,-62.98828125,-52.24609375
-46.38671875,-4.8828125,-56.15234375,-58.59375
-23.92578125,-33.203125,-53.7109375,-43.9453125
-31.73828125,-49.31640625,-55.17578125,-44.43359375
-41.015625,-83.0078125,-57.12890625,-43.9453125
-59.08203125,-65.91796875,-52.734375,-28.80859375
-65.4296875,-10.25390625,-48.828125,-35.15625
-40.0390625,-29.78515625,-51.7578125,-38.57421875
-38.0859375,-79.1015625,-53.22265625,-33.203125
-46.38671875,-80.56640625,-48.828125,-36.62109375
-39.0625,-32.2265625,-46.38671875,-30.2734375
-15.625,-11.71875,-43.9453125,-19.53125
-47.8515625,-30.2734375,-43.45703125,-30.2734375
-54.19921875,-58.10546875,-47.8515625,-41.9921875
-30.76171875,-69.3359375,-48.828125,-37.109375
-36.1328125,-36.1328125,-49.8046875,-34.1796875
-37.109375,-20.5078125,-52.24609375,-45.8984375
-40.0390625,-39.0625,-56.15234375,-33.203125
-37.109375,-62.01171875,-52.24609375,-31.25
-40.0390625,-83.0078125,-43.9453125,-38.57421875
-56.640625,-58.10546875,-44.43359375,-37.109375
-50.78125,-8.30078125,-44.921875,-46.875
-46.38671875,-12.20703125,-46.875,-47.8515625
-61.5234375,-61.03515625,-50.29296875,-50.29296875
-52.734375,-73.73046875,-51.26953125,-50.78125
-46.38671875,-57.12890625,-52.734375,-52.24609375
-56.640625,-12.20703125,-51.7578125,-49.8046875
-56.15234375,-0.48828125,-52.734375,-46.38671875
-49.8046875,-69.3359375,-50.29296875,-34.1796875
-63.96484375,-101.5625,-48.828125,-26.3671875
-61.03515625,-74.21875,-52.734375,-35.15625
-58.10546875,-28.3203125,-50.29296875,-35.15625
-42.48046875,-15.625,-46.875,-34.1796875
-40.0390625,-41.9921875,-46.875,-37.109375
-54.6875,-86.42578125,-46.875,-44.43359375
-68.84765625,-67.3828125,-50.29296875,-68.359375
-66.89453125,-5.37109375,-55.17578125,-56.640625
-55.6640625,-15.625,-56.15234375,-40.0390625
-48.828125,-42.96875,-55.6640625,-51.7578125
-58.59375,-55.6640625,-58.10546875,-55.6640625
-62.98828125,-74.70703125,-62.01171875,-46.38671875
-62.5,-43.9453125,-61.5234375,-39.55078125
-41.015625,-11.71875,-51.7578125,-46.38671875
-35.15625,-27.34375,-41.015625,-48.828125
-84.47265625,-74.21875,-46.38671875,-62.01171875
-86.9140625,-75.68359375,-47.8515625,-55.6640625
-56.15234375,-30.76171875,-41.015625,-45.41015625
-46.38671875,2.9296875,-39.55078125,-52.734375
-47.8515625,-10.25390625,-40.52734375,-47.8515625
-52.24609375,-75.68359375,-41.50390625,-45.41015625
-56.640625,-75.68359375,-40.0390625,-43.9453125
-62.01171875,-15.625,-38.57421875,-42.48046875
-50.29296875,-15.625,-37.59765625,-47.36328125
-25.87890625,-37.109375,-40.52734375,-52.24609375
-31.73828125,-54.19921875,-45.41015625,-56.15234375
-62.01171875,-64.453125,-45.8984375,-54.19921875
-84.47265625,-40.0390625,-48.828125,-38.0859375
-48.33984375,-6.34765625,-48.828125,-35.15625
-28.80859375,-8.7890625,-49.31640625,-50.29296875
-37.109375,-53.7109375,-57.6171875,-68.359375
-60.546875,-75.1953125,-52.734375,-68.359375
-83.49609375,-51.7578125,-47.36328125,-57.6171875
-56.15234375,-10.25390625,-48.33984375,-53.7109375
-50.29296875,-4.39453125,-49.8046875,-54.19921875
-55.17578125,-61.5234375,-50.78125,-52.24609375
-60.05859375,-106.4453125,-50.78125,-47.8515625
-54.19921875,-72.75390625,-52.734375,-53.22265625
-31.25,-10.25390625,-48.33984375,-43.9453125
-35.15625,-18.5546875,-45.8984375,-41.50390625
-52.734375,-69.82421875,-49.8046875,-52.24609375
-62.01171875,-87.40234375,-47.36328125,-54.19921875
-66.40625,-73.73046875,-46.38671875,-39.55078125
-54.19921875,-38.0859375,-45.41015625,-34.1796875
-37.59765625,-21.484375,-46.875,-48.828125
-40.0390625,-48.33984375,-48.828125,-46.38671875
-48.33984375,-61.5234375,-48.33984375,-39.0625
-45.41015625,-76.66015625,-51.26953125,-52.24609375
-57.6171875,-41.50390625,-50.78125,-52.734375
-74.21875,-6.8359375,-48.828125,-42.96875
-65.91796875,-62.98828125,-49.31640625,-42.96875
-58.10546875,-96.6796875,-51.7578125,-46.875
-57.12890625,-75.68359375,-49.31640625,-41.50390625
-49.31640625,-30.76171875,-44.921875,-44.921875
-40.52734375,-20.99609375,-48.33984375,-56.640625
-41.50390625,-44.921875,-45.8984375,-53.7109375
-45.41015625,-68.359375,-38.0859375,-56.640625
-60.546875,-74.70703125,-39.55078125,-37.59765625
-72.75390625,-24.90234375,-43.45703125,-29.78515625
-27.34375,-16.11328125,-45.41015625,-54.19921875
-22.94921875,-59.08203125,-44.43359375,-37.59765625
-49.8046875,-79.58984375,-44.921875,-32.71484375
-47.36328125,-75.68359375,-47.8515625,-36.62109375
-57.6171875,-36.1328125,-42.96875,-32.2265625
-44.921875,-1.46484375,-41.015625,-46.875
-21.484375,-29.78515625,-47.36328125,-59.08203125
-42.96875,-74.21875,-45.8984375,-56.640625
-50.29296875,-75.1953125,-43.9453125,-52.734375
-57.6171875,-37.59765625,-49.8046875,-49.8046875
-50.78125,-4.8828125,-48.33984375,-49.31640625
-36.1328125,0.9765625,-45.41015625,-46.875
-43.45703125,-69.3359375,-45.41015625,-45.8984375
-48.828125,-94.23828125,-42.96875,-35.64453125
-47.36328125,-48.828125,-41.50390625,-28.3203125
-43.9453125,-2.9296875,-38.57421875,-30.2734375
-39.0625,-12.6953125,-40.0390625,-40.0390625
-14.6484375,-63.4765625,-46.875,-58.10546875
-48.828125,-85.9375,-53.22265625,-61.03515625
-88.37890625,-53.22265625,-48.828125,-52.24609375
-41.50390625,-2.9296875,-43.9453125,-45.41015625
-39.55078125,-30.76171875,-46.875,-48.33984375
-46.875,-54.19921875,-45.8984375,-40.52734375
-43.45703125,-56.15234375,-43.9453125,-40.52734375
-61.03515625,-73.2421875,-52.24609375,-42.96875
-51.26953125,-33.69140625,-58.59375,-38.0859375
-40.52734375,-18.5546875,-60.05859375,-51.7578125
-42.48046875,-55.17578125,-57.6171875,-61.03515625
-47.8515625,-81.54296875,-50.78125,-65.91796875
-58.10546875,-68.359375,-48.33984375,-64.94140625
-57.6171875,-24.4140625,-45.41015625,-52.734375
-18.5546875,-7.8125,-43.9453125,-40.52734375
-17.578125,-33.69140625,-43.9453125,-40.52734375
-38.0859375,-73.2421875,-43.9453125,-41.9921875
-59.08203125,-68.359375,-45.41015625,-37.59765625
-68.359375,-11.71875,-47.36328125,-35.64453125
-41.50390625,-6.34765625,-49.8046875,-38.0859375
-32.71484375,-52.24609375,-52.734375,-27.34375
-51.26953125,-79.1015625,-51.26953125,-34.1796875
-56.640625,-82.51953125,-51.26953125,-54.19921875
-52.24609375,-39.0625,-48.33984375,-46.875
-37.109375,-11.71875,-44.43359375,-41.015625
-24.4140625,-30.76171875,-44.921875,-40.0390625
-30.76171875,-65.4296875,-43.9453125,-45.8984375
-50.78125,-86.9140625,-38.0859375,-42.48046875
-65.91796875,-57.12890625,-41.015625,-27.34375
-41.015625,-9.27734375,-44.921875,-23.92578125
-35.64453125,-18.06640625,-38.57421875,-39.0625
-36.62109375,-85.9375,-43.45703125,-37.59765625
-57.12890625,-96.6796875,-48.33984375,-45.8984375
-59.5703125,-50.29296875,-42.48046875,-46.38671875
-41.50390625,-23.92578125,-43.45703125,-31.25
-25.87890625,-25.87890625,-41.9921875,-47.36328125
-39.55078125,-65.4296875,-39.55078125,-44.43359375
-64.453125,-88.37890625,-42.96875,-36.1328125
-73.2421875,-58.10546875,-38.57421875,-53.22265625
-48.828125,-4.39453125,-38.57421875,-40.52734375
-15.13671875,-10.25390625,-45.8984375,-24.90234375
-51.26953125,-56.15234375,-44.43359375,-49.31640625
-74.21875,-58.10546875,-41.50390625,-41.50390625
-80.078125,-52.24609375,-47.36328125,-41.015625
-59.5703125,-32.2265625,-48.828125,-45.41015625
-20.99609375,-9.27734375,-44.921875,-41.50390625
-39.55078125,-38.57421875,-43.45703125,-49.31640625
-50.78125,-64.94140625,-45.8984375,-45.41015625
-53.22265625,-43.9453125,-46.875,-40.52734375
-41.015625,-18.06640625,-43.9453125,-45.41015625
-19.04296875,-5.859375,-40.0390625,-41.015625
-22.4609375,-42.48046875,-43.45703125,-40.0390625
-33.203125,-77.1484375,-44.921875,-65.91796875
-62.98828125,-65.91796875,-49.31640625,-58.10546875
-62.5,-5.859375,-53.22265625,-48.828125
-39.55078125,-6.34765625,-51.26953125,-61.5234375
-51.7578125,-55.6640625,-48.33984375,-34.66796875
-48.33984375,-79.58984375,-45.41015625,-36.62109375
-44.43359375,-74.70703125,-45.8984375,-52.734375
-49.8046875,-27.83203125,-46.875,-38.0859375
-33.69140625,4.39453125,-46.875,-33.69140625
-33.203125,-26.3671875,-41.015625,-42.96875
-47.8515625,-78.61328125,-40.52734375,-45.8984375
-53.22265625,-63.96484375,-43.45703125,-33.203125
-55.17578125,-30.76171875,-42.96875,-28.3203125
-44.921875,-14.6484375,-41.9921875,-36.62109375
-37.109375,-20.99609375,-39.55078125,-50.29296875
-36.1328125,-73.73046875,-41.015625,-49.31640625
-59.08203125,-91.796875,-46.38671875,-54.19921875
-73.73046875,-32.71484375,-44.921875,-57.6171875
-41.9921875,0.0,-45.8984375,-56.640625
-39.0625,-27.34375,-45.8984375,-57.6171875
-54.19921875,-66.40625,-43.45703125,-50.29296875
-65.4296875,-77.1484375,-48.828125,-53.7109375
-76.66015625,-45.8984375,-51.7578125,-55.6640625
-54.19921875,-22.4609375,-43.9453125,-49.31640625
-50.78125,-22.94921875,-41.9921875,-33.69140625
-44.921875,-66.89453125,-43.9453125,-50.29296875
-56.640625,-63.96484375,-43.9453125,-66.40625
-81.54296875,-40.0390625,-49.31640625,-48.828125
-64.94140625,-49.31640625,-51.7578125,-50.78125
-65.4296875,-41.50390625,-48.828125,-59.08203125
-64.94140625,-60.05859375,-47.36328125,-40.52734375
-56.640625,-74.21875,-46.875,-29.78515625
-58.10546875,-50.29296875,-49.31640625,-42.96875
-37.109375,-16.11328125,-47.36328125,-38.0859375
-22.94921875,-12.20703125,-47.8515625,-26.3671875
-36.62109375,-45.41015625,-48.33984375,-48.33984375
-51.26953125,-76.171875,-52.24609375,-65.4296875
-78.125,-56.640625,-55.6640625,-54.6875
-81.54296875,-3.41796875,-50.78125,-61.03515625
-47.8515625,-21.97265625,-51.7578125,-54.19921875
-33.203125,-66.40625,-52.734375,-47.36328125
-54.6875,-62.01171875,-47.36328125,-47.8515625
-74.21875,-71.2890625,-47.8515625,-36.1328125
-62.98828125,-47.8515625,-50.78125,-49.8046875
-36.1328125,-21.97265625,-50.29296875,-63.96484375
-36.62109375,-42.48046875,-49.31640625,-46.875
-55.17578125,-83.0078125,-50.29296875,-42.48046875
-64.94140625,-61.5234375,-51.7578125,-56.15234375
-63.4765625,-4.39453125,-45.41015625,-41.015625
-42.96875,-11.23046875,-41.9921875,-32.2265625
-33.203125,-27.34375,-46.875,-54.19921875
-50.29296875,-81.0546875,-49.31640625,-57.12890625
-69.3359375,-86.42578125,-47.8515625,-49.8046875
-53.22265625,-24.90234375,-47.8515625,-42.48046875
-15.625,-8.30078125,-51.26953125,-31.73828125
-38.57421875,-28.80859375,-47.36328125,-30.2734375
-37.59765625,-57.6171875,-48.828125,-42.96875
-30.2734375,-77.1484375,-51.7578125,-50.78125
-49.8046875,-29.78515625,-51.7578125,-39.55078125
-30.2734375,4.8828125,-50.78125,-34.1796875
-27.34375,-15.13671875,-46.38671875,-47.36328125
