TP9,AF7,AF8,TP10
-46.875,-3.41796875,-47.8515625,-38.57421875
-39.0625,34.66796875,-43.45703125,-34.66796875
-41.9921875,-49.31640625,-41.9921875,-44.43359375
-47.8515625,-167.96875,-41.50390625,-47.36328125
-46.38671875,-117.67578125,-45.8984375,-36.62109375
-33.69140625,82.51953125,-44.43359375,-26.3671875
-24.90234375,-12.6953125,-37.59765625,-22.94921875
-27.83203125,-125.9765625,-36.62109375,-29.296875
-39.0625,-128.90625,-41.50390625,-34.1796875
-42.96875,-105.46875,-42.48046875,-24.4140625
-31.73828125,28.3203125,-32.2265625,-21.484375
-24.90234375,37.109375,-29.78515625,-25.390625
-21.97265625,-80.56640625,-35.15625,-23.4375
-31.73828125,-137.20703125,-38.0859375,-32.2265625
-44.921875,-103.515625,-38.57421875,-40.0390625
-45.41015625,-1.953125,-37.59765625,-38.57421875
-31.25,34.1796875,-36.62109375,-42.48046875
-34.66796875,-22.94921875,-41.015625,-45.8984375
-39.55078125,-110.3515625,-40.0390625,-41.9921875
-42.48046875,-154.78515625,-41.9921875,-47.8515625
-50.29296875,-57.6171875,-50.29296875,-47.36328125
-40.0390625,21.484375,-50.29296875,-36.62109375
-34.66796875,-32.71484375,-50.29296875,-40.52734375
-41.9921875,-89.35546875,-48.828125,-46.875
-45.8984375,-104.98046875,-42.48046875,-43.9453125
-42.96875,-45.41015625,-36.62109375,-36.62109375
-34.1796875,20.01953125,-32.2265625,-37.59765625
-34.1796875,-14.6484375,-37.59765625,-37.109375
-40.0390625,-100.5859375,-39.55078125,-41.015625
-45.41015625,-101.5625,-37.59765625,-52.24609375
-46.38671875,-83.49609375,-39.0625,-47.8515625
-35.15625,3.41796875,-37.109375,-33.69140625
-27.83203125,-6.34765625,-35.64453125,-35.64453125
-33.69140625,-97.16796875,-37.59765625,-45.41015625
-43.45703125,-149.4140625,-42.48046875,-41.015625
-41.9921875,-84.9609375,-47.8515625,-37.109375
-31.73828125,38.57421875,-48.828125,-43.45703125
-28.80859375,-12.6953125,-49.8046875,-50.29296875
-38.57421875,-101.07421875,-53.22265625,-54.19921875
-46.38671875,-139.16015625,-52.734375,-56.640625
-52.24609375,-90.8203125,-46.875,-50.78125
-50.29296875,114.74609375,-42.48046875,-38.57421875
-37.59765625,37.59765625,-42.96875,-36.62109375
-38.0859375,-157.2265625,-44.921875,-38.57421875
-46.38671875,-148.92578125,-40.52734375,-37.109375
-44.921875,-82.51953125,-38.0859375,-36.62109375
-44.921875,-19.04296875,-42.48046875,-34.1796875
-41.50390625,38.0859375,-44.43359375,-33.69140625
-33.203125,-33.203125,-37.109375,-32.2265625
-35.15625,-198.73046875,-34.66796875,-29.78515625
-44.43359375,-112.79296875,-40.52734375,-29.78515625
-43.9453125,31.73828125,-41.9921875,-29.296875
-28.3203125,41.015625,-38.0859375,-21.484375
-24.90234375,-5.859375,-32.71484375,-28.3203125
-35.64453125,-149.90234375,-35.15625,-34.66796875
-47.36328125,-184.5703125,-42.48046875,-28.3203125
-45.41015625,-4.39453125,-44.921875,-28.80859375
-34.1796875,36.1328125,-45.8984375,-35.64453125
-33.69140625,-46.875,-43.45703125,-41.50390625
-42.96875,-143.06640625,-41.9921875,-44.43359375
-48.828125,-114.74609375,-39.55078125,-37.109375
-48.33984375,-21.484375,-38.0859375,-33.69140625
-26.85546875,36.1328125,-39.0625,-25.87890625
-18.5546875,-27.34375,-39.55078125,-30.76171875
-49.31640625,-155.2734375,-48.828125,-65.91796875
-58.10546875,-81.54296875,-52.734375,-70.80078125
-54.19921875,-43.45703125,-55.6640625,-62.5
-59.5703125,-39.55078125,-50.29296875,-66.89453125
-64.453125,-34.66796875,-48.828125,-67.3828125
-61.5234375,-114.2578125,-55.17578125,-64.453125
-64.453125,-145.99609375,-52.734375,-60.546875
-63.4765625,-12.20703125,-48.33984375,-52.734375
-54.19921875,57.12890625,-44.921875,-48.828125
-58.10546875,-26.3671875,-44.43359375,-52.24609375
-54.6875,-116.69921875,-49.8046875,-49.8046875
-61.03515625,-126.953125,-52.734375,-51.26953125
-74.70703125,-4.39453125,-47.36328125,-58.59375
-67.87109375,107.421875,-48.33984375,-65.91796875
-72.265625,-6.8359375,-53.22265625,-78.61328125
-78.125,-156.73828125,-50.29296875,-87.890625
-82.03125,-136.71875,-43.9453125,-76.171875
-88.37890625,-52.24609375,-46.38671875,-71.77734375
-77.63671875,45.41015625,-51.26953125,-72.265625
-64.94140625,29.296875,-51.26953125,-72.75390625
-60.546875,-104.00390625,-45.8984375,-76.66015625
-62.01171875,-149.90234375,-46.875,-73.73046875
-63.96484375,-69.3359375,-48.828125,-64.453125
-56.15234375,22.4609375,-48.828125,-66.40625
-45.8984375,52.24609375,-47.8515625,-70.3125
-51.26953125,-36.1328125,-47.8515625,-62.01171875
-57.6171875,-176.26953125,-53.7109375,-64.94140625
-56.15234375,-131.8359375,-51.26953125,-55.17578125
-49.8046875,35.15625,-47.8515625,-40.52734375
-34.66796875,42.96875,-46.38671875,-38.57421875
-27.83203125,-76.66015625,-42.48046875,-35.15625
-29.78515625,-127.44140625,-45.8984375,-38.0859375
-39.0625,-106.93359375,-47.8515625,-35.64453125
-44.43359375,21.484375,-49.8046875,-38.0859375
-32.2265625,29.78515625,-48.33984375,-42.48046875
-28.3203125,-69.3359375,-41.9921875,-37.59765625
-33.69140625,-108.88671875,-46.38671875,-36.1328125
-36.62109375,-64.453125,-51.7578125,-36.62109375
-39.0625,-7.8125,-49.8046875,-36.62109375
-22.4609375,-3.90625,-45.8984375,-28.80859375
-14.16015625,-58.59375,-44.921875,-30.76171875
-23.92578125,-103.515625,-44.921875,-33.203125
-31.25,-132.32421875,-50.78125,-30.2734375
-23.4375,-2.44140625,-48.828125,-23.92578125
-16.6015625,51.7578125,-50.29296875,-25.390625
-21.97265625,-70.80078125,-52.734375,-30.76171875
-19.53125,-113.28125,-51.26953125,-24.4140625
-26.85546875,-143.5546875,-53.7109375,-20.99609375
-23.4375,-16.11328125,-46.38671875,-20.99609375
2.44140625,98.14453125,-44.43359375,-10.25390625
7.32421875,-30.2734375,-43.45703125,-5.859375
-31.25,-161.62109375,-39.0625,-37.109375
-61.5234375,-143.06640625,-38.57421875,-62.98828125
-62.5,-53.7109375,-45.8984375,-60.546875
-61.03515625,41.015625,-49.31640625,-53.7109375
-75.1953125,-5.859375,-49.31640625,-73.73046875
-82.51953125,-118.65234375,-51.26953125,-91.30859375
-91.796875,-128.90625,-45.41015625,-91.30859375
-105.95703125,-67.87109375,-38.0859375,-92.28515625
-104.4921875,36.62109375,-37.59765625,-93.26171875
-93.26171875,-10.25390625,-34.1796875,-93.26171875
-96.6796875,-61.03515625,-34.66796875,-100.09765625
-108.88671875,-166.50390625,-43.45703125,-103.02734375
-107.91015625,-176.26953125,-47.8515625,-90.8203125
-94.7265625,16.6015625,-44.921875,-81.0546875
-73.73046875,25.87890625,-40.0390625,-71.2890625
-70.3125,-58.59375,-43.45703125,-72.265625
-76.66015625,-121.58203125,-41.50390625,-72.75390625
-72.75390625,-105.46875,-39.0625,-62.98828125
-65.4296875,18.06640625,-38.0859375,-60.546875
-50.78125,39.55078125,-36.62109375,-62.98828125
-46.38671875,-67.87109375,-42.48046875,-65.4296875
-58.10546875,-152.83203125,-44.921875,-58.10546875
-61.03515625,-74.70703125,-45.8984375,-48.33984375
-49.31640625,78.125,-41.015625,-37.109375
-32.71484375,8.30078125,-41.015625,-33.69140625
-30.2734375,-115.234375,-45.8984375,-39.55078125
-33.69140625,-141.11328125,-47.36328125,-39.55078125
-37.109375,-88.8671875,-45.8984375,-36.1328125
-35.64453125,5.859375,-48.828125,-30.76171875
-33.69140625,19.53125,-52.734375,-35.15625
-36.1328125,-46.875,-47.8515625,-31.73828125
-39.0625,-145.01953125,-48.828125,-29.296875
-46.38671875,-143.06640625,-53.7109375,-34.66796875
-41.50390625,3.90625,-51.7578125,-28.3203125
-30.76171875,87.890625,-48.33984375,-27.34375
-31.73828125,-65.91796875,-50.78125,-30.2734375
-37.59765625,-189.94140625,-53.22265625,-27.83203125
-44.43359375,-116.2109375,-55.6640625,-24.4140625
-46.38671875,39.0625,-52.24609375,-31.25
-40.0390625,17.08984375,-54.19921875,-39.0625
-44.43359375,-42.48046875,-57.12890625,-34.1796875
-39.0625,-99.609375,-51.7578125,-23.92578125
-41.50390625,-111.81640625,-50.29296875,-30.2734375
-50.29296875,-26.3671875,-53.22265625,-37.109375
-37.109375,-3.90625,-53.22265625,-35.64453125
-30.2734375,-0.9765625,-53.7109375,-41.9921875
-34.1796875,-31.25,-56.640625,-50.29296875
-48.33984375,-171.38671875,-53.7109375,-44.43359375
-53.22265625,-106.93359375,-53.22265625,-41.015625
-44.921875,47.36328125,-54.19921875,-38.0859375
-36.1328125,34.66796875,-47.36328125,-35.15625
-34.66796875,-103.02734375,-44.43359375,-33.69140625
-44.43359375,-153.3203125,-45.41015625,-26.3671875
-37.59765625,-24.4140625,-46.875,-23.4375
-33.69140625,26.85546875,-50.29296875,-23.92578125
-32.2265625,-8.30078125,-55.17578125,-27.83203125
-25.87890625,-78.125,-54.6875,-27.83203125
-35.15625,-110.3515625,-47.36328125,-24.4140625
-34.66796875,-28.3203125,-44.921875,-18.06640625
-31.73828125,-3.41796875,-52.734375,-20.99609375
-27.34375,-15.13671875,-51.7578125,-25.390625
-22.4609375,-78.61328125,-43.45703125,-22.4609375
-28.80859375,-152.34375,-45.8984375,-24.4140625
-31.73828125,-89.35546875,-52.734375,-25.390625
-28.3203125,30.76171875,-52.734375,-20.5078125
-25.390625,30.76171875,-49.8046875,-26.3671875
-28.80859375,-98.14453125,-42.96875,-43.45703125
-30.76171875,-123.53515625,-41.015625,-43.45703125
-33.203125,-48.33984375,-41.015625,-29.296875
-38.0859375,42.96875,-44.43359375,-33.203125
-29.296875,81.0546875,-42.96875,-34.66796875
-28.80859375,-66.40625,-42.48046875,-32.2265625
-36.62109375,-167.96875,-43.9453125,-37.109375
-38.57421875,-135.25390625,-45.41015625,-31.73828125
-39.55078125,-7.8125,-45.8984375,-30.2734375
-29.296875,30.76171875,-40.52734375,-31.73828125
-23.92578125,-57.12890625,-43.9453125,-33.69140625
-31.25,-125.48828125,-50.29296875,-35.64453125
-38.0859375,-116.2109375,-51.26953125,-32.2265625
-42.96875,-6.8359375,-49.8046875,-29.296875
-37.109375,22.4609375,-44.43359375,-31.25
-30.2734375,-12.20703125,-42.96875,-41.015625
-31.73828125,-55.6640625,-44.921875,-42.48046875
-35.15625,-140.625,-44.921875,-38.0859375
-38.0859375,-99.12109375,-43.45703125,-31.73828125
-33.69140625,6.8359375,-45.8984375,-26.3671875
-27.83203125,-4.8828125,-47.8515625,-32.2265625
-33.203125,-112.79296875,-45.41015625,-37.59765625
-45.41015625,-117.67578125,-45.41015625,-38.0859375
-49.8046875,-30.76171875,-45.41015625,-31.73828125
-41.9921875,34.66796875,-40.52734375,-27.83203125
-35.64453125,2.9296875,-38.57421875,-32.2265625
-29.296875,-91.30859375,-39.55078125,-27.83203125
-39.55078125,-122.0703125,-42.96875,-35.15625
-45.41015625,-11.71875,-46.875,-44.43359375
-29.78515625,24.4140625,-44.43359375,-36.62109375
-31.25,-54.19921875,-44.921875,-41.9921875
-38.57421875,-116.2109375,-43.9453125,-52.24609375
-44.921875,-128.41796875,-43.45703125,-50.29296875
-50.29296875,-99.12109375,-46.875,-44.43359375
-48.33984375,12.20703125,-49.8046875,-37.109375
-35.64453125,30.76171875,-48.33984375,-36.1328125
-24.90234375,-74.70703125,-47.8515625,-37.109375
-36.1328125,-139.16015625,-52.734375,-30.76171875
-44.921875,-98.6328125,-55.17578125,-31.25
-36.62109375,44.43359375,-53.22265625,-36.1328125
-26.85546875,104.00390625,-49.8046875,-24.90234375
-23.4375,-91.796875,-49.8046875,-25.390625
-41.015625,-224.609375,-53.22265625,-41.50390625
-54.6875,-102.5390625,-56.15234375,-41.9921875
-44.43359375,48.828125,-50.78125,-34.66796875
-31.73828125,19.53125,-46.875,-41.50390625
-33.203125,-57.6171875,-46.875,-40.0390625
-45.41015625,-91.30859375,-46.38671875,-36.1328125
-58.10546875,-131.8359375,-46.875,-37.109375
-55.17578125,-15.625,-49.31640625,-43.45703125
-37.59765625,33.203125,-51.26953125,-48.828125
-37.109375,-40.52734375,-44.921875,-41.9921875
-42.48046875,-75.1953125,-42.48046875,-44.43359375
-46.38671875,-135.7421875,-41.50390625,-46.38671875
-54.6875,-64.453125,-49.8046875,-44.921875
-32.71484375,49.31640625,-54.6875,-35.64453125
-22.4609375,-18.5546875,-41.9921875,-32.71484375
-43.9453125,-126.46484375,-44.43359375,-52.24609375
-42.48046875,-134.765625,-43.45703125,-39.0625
-33.203125,1.46484375,-35.64453125,-22.4609375
-24.90234375,46.875,-34.1796875,-23.4375
-23.92578125,-19.53125,-33.69140625,-21.97265625
-32.71484375,-112.3046875,-37.109375,-25.390625
-35.64453125,-128.90625,-39.0625,-24.4140625
-31.73828125,9.765625,-43.45703125,-17.08984375
-23.4375,-36.62109375,-43.9453125,-15.13671875
-16.11328125,-76.66015625,-38.0859375,-11.71875
-10.25390625,-123.53515625,-36.62109375,-8.30078125
-16.11328125,-130.37109375,-35.15625,-1.46484375
-8.30078125,-63.4765625,-31.25,9.765625
6.34765625,10.25390625,-30.76171875,12.20703125
13.671875,-6.8359375,-24.90234375,21.97265625
13.18359375,-114.2578125,-23.92578125,23.4375
9.765625,-110.3515625,-27.83203125,22.94921875
6.8359375,-100.09765625,-26.85546875,30.2734375
13.671875,14.16015625,-25.87890625,30.2734375
20.99609375,76.66015625,-21.97265625,25.390625
15.13671875,-71.2890625,-19.04296875,22.4609375
9.765625,-193.84765625,-22.4609375,27.83203125
4.8828125,-159.66796875,-25.390625,29.296875
3.90625,19.53125,-26.3671875,20.99609375
7.8125,4.8828125,-29.78515625,17.578125
14.6484375,-128.41796875,-30.76171875,13.671875
13.671875,-160.15625,-26.3671875,12.6953125
3.41796875,-132.8125,-28.80859375,15.625
2.9296875,-0.9765625,-38.57421875,16.11328125
11.71875,54.19921875,-34.1796875,15.625
4.8828125,-50.29296875,-30.2734375,9.27734375
-0.48828125,-80.078125,-31.73828125,8.7890625
-10.25390625,-147.94921875,-32.2265625,8.7890625
-15.13671875,-70.3125,-37.59765625,5.37109375
0.0,70.3125,-34.66796875,9.27734375
0.0,-15.13671875,-34.66796875,9.27734375
-9.27734375,-160.15625,-35.64453125,4.8828125
-8.7890625,-118.1640625,-30.76171875,4.39453125
-11.23046875,-6.34765625,-32.71484375,9.27734375
-16.11328125,6.34765625,-37.109375,8.30078125
-7.32421875,-27.34375,-39.55078125,-4.39453125
1.953125,-114.74609375,-40.52734375,-8.30078125
-7.8125,-114.74609375,-44.921875,-13.18359375
-18.06640625,19.04296875,-48.33984375,-16.11328125
-7.32421875,2.9296875,-46.38671875,-14.6484375
-2.44140625,-65.4296875,-43.9453125,-14.16015625
-7.32421875,-134.27734375,-43.9453125,-13.18359375
-15.625,-118.1640625,-45.41015625,-12.20703125
-24.90234375,-41.50390625,-43.9453125,-11.23046875
-18.5546875,38.0859375,-43.45703125,-14.6484375
-10.7421875,45.41015625,-43.45703125,-17.578125
-18.5546875,-106.4453125,-40.52734375,-19.04296875
-30.2734375,-145.5078125,-38.0859375,-19.53125
-31.73828125,-56.15234375,-35.64453125,-20.5078125
-22.94921875,38.0859375,-35.15625,-11.23046875
-17.08984375,54.19921875,-39.0625,-13.671875
-15.625,-101.5625,-41.50390625,-29.78515625
-26.85546875,-174.31640625,-39.55078125,-29.296875
-31.73828125,-62.5,-41.015625,-21.97265625
-20.99609375,54.19921875,-38.57421875,-22.4609375
-13.671875,35.15625,-31.73828125,-28.3203125
-18.5546875,-85.9375,-28.80859375,-33.69140625
-35.15625,-123.046875,-35.15625,-41.015625
-39.0625,-67.87109375,-40.0390625,-43.9453125
-33.203125,63.96484375,-36.1328125,-35.64453125
-21.97265625,36.1328125,-41.9921875,-28.80859375
-18.5546875,-96.19140625,-51.7578125,-24.90234375
-32.2265625,-88.8671875,-43.45703125,-27.83203125
-40.0390625,-108.3984375,-39.0625,-28.3203125
-33.69140625,-17.578125,-46.38671875,-23.4375
-15.625,60.05859375,-42.48046875,-26.3671875
-17.08984375,-67.87109375,-39.55078125,-32.2265625
-34.1796875,-154.78515625,-46.875,-43.9453125
-42.48046875,-94.23828125,-52.24609375,-42.48046875
-39.55078125,7.32421875,-48.828125,-39.0625
-28.80859375,10.25390625,-46.38671875,-51.7578125
-30.2734375,-39.55078125,-50.78125,-53.22265625
-30.2734375,-120.1171875,-53.7109375,-45.8984375
-29.78515625,-126.46484375,-53.22265625,-35.15625
-34.66796875,50.29296875,-48.828125,-28.3203125
-28.80859375,38.0859375,-44.921875,-36.62109375
-25.390625,-121.58203125,-42.48046875,-41.9921875
-32.2265625,-168.45703125,-38.57421875,-35.15625
-38.0859375,-123.53515625,-41.9921875,-25.390625
-42.48046875,-39.55078125,-48.33984375,-32.2265625
-33.203125,10.7421875,-46.875,-34.66796875
-24.4140625,-2.9296875,-43.45703125,-26.85546875
-29.78515625,-115.72265625,-46.38671875,-30.76171875
-36.1328125,-144.04296875,-46.38671875,-33.203125
-33.69140625,-40.52734375,-40.0390625,-29.78515625
-24.4140625,49.31640625,-41.50390625,-25.390625
-20.5078125,64.453125,-44.43359375,-28.80859375
-29.78515625,-160.15625,-47.36328125,-36.62109375
-34.66796875,-206.0546875,-48.33984375,-28.3203125
-33.69140625,-21.484375,-50.29296875,-22.4609375
-26.85546875,52.734375,-49.8046875,-21.484375
-22.94921875,-35.15625,-48.828125,-23.92578125
-31.25,-116.2109375,-57.12890625,-39.55078125
-40.52734375,-121.58203125,-56.640625,-44.43359375
-50.29296875,-93.26171875,-51.7578125,-36.62109375
-45.41015625,22.94921875,-51.26953125,-35.64453125
-35.64453125,27.83203125,-46.38671875,-33.203125
-27.83203125,-43.45703125,-47.36328125,-31.25
-33.203125,-60.546875,-52.24609375,-33.203125
-39.55078125,-119.140625,-53.22265625,-30.2734375
-36.62109375,-22.94921875,-52.24609375,-26.3671875
-30.2734375,44.921875,-51.26953125,-26.85546875
-25.87890625,-72.265625,-51.26953125,-33.203125
-29.296875,-151.85546875,-51.7578125,-36.62109375
-36.1328125,-73.73046875,-51.7578125,-38.0859375
-40.52734375,56.15234375,-50.29296875,-36.1328125
-36.62109375,12.6953125,-52.24609375,-36.1328125
-39.55078125,-82.03125,-45.41015625,-37.59765625
-40.0390625,-137.6953125,-43.45703125,-35.64453125
-43.45703125,-115.234375,-46.875,-38.0859375
-36.62109375,59.5703125,-43.9453125,-29.78515625
-30.76171875,8.7890625,-51.26953125,-32.71484375
-34.66796875,-111.328125,-49.31640625,-37.109375
-30.2734375,-102.05078125,-42.48046875,-36.1328125
-36.1328125,-101.07421875,-43.9453125,-37.59765625
-43.45703125,-7.8125,-43.9453125,-37.109375
-36.62109375,44.921875,-43.9453125,-40.52734375
-37.109375,-21.484375,-44.921875,-41.50390625
-49.8046875,-120.1171875,-43.45703125,-49.8046875
-58.59375,-117.1875,-43.9453125,-49.8046875
-57.6171875,-13.671875,-48.33984375,-39.55078125
-27.83203125,12.20703125,-50.78125,-31.25
-26.3671875,21.97265625,-52.734375,-43.9453125
-49.31640625,-101.5625,-55.6640625,-55.6640625
-53.22265625,-197.75390625,-57.6171875,-57.12890625
-53.7109375,-51.7578125,-56.640625,-51.7578125
-37.109375,43.9453125,-52.734375,-40.52734375
-28.3203125,-20.5078125,-48.33984375,-44.921875
-28.80859375,-98.14453125,-48.33984375,-46.875
-30.76171875,-88.37890625,-51.26953125,-39.55078125
-34.1796875,-11.23046875,-54.6875,-31.73828125
-24.90234375,48.828125,-51.26953125,-24.90234375
-22.4609375,6.34765625,-42.96875,-26.85546875
-26.85546875,-48.828125,-41.9921875,-35.64453125
-33.69140625,-39.0625,-43.45703125,-34.66796875
-34.66796875,-58.10546875,-45.41015625,-26.3671875
-29.78515625,-15.625,-47.36328125,-24.4140625
-21.97265625,-9.27734375,-50.29296875,-25.390625
-17.08984375,-63.96484375,-53.22265625,-29.78515625
-25.87890625,-102.5390625,-51.7578125,-34.66796875
-30.2734375,-41.015625,-51.26953125,-29.78515625
-25.390625,69.3359375,-45.41015625,-25.390625
-24.4140625,18.06640625,-41.50390625,-30.76171875
-28.80859375,-65.4296875,-47.36328125,-33.69140625
-30.76171875,-86.42578125,-50.78125,-36.1328125
-37.109375,-45.8984375,-52.24609375,-34.66796875
-36.1328125,80.56640625,-54.19921875,-35.15625
-31.73828125,9.765625,-60.546875,-43.9453125
-32.71484375,-121.58203125,-58.10546875,-47.36328125
-38.0859375,-107.91015625,-51.26953125,-48.33984375
-47.8515625,-61.5234375,-53.22265625,-47.36328125
-46.38671875,-13.18359375,-52.734375,-46.875
-34.1796875,33.203125,-50.78125,-40.52734375
-34.1796875,-53.7109375,-47.8515625,-33.203125
-40.0390625,-114.2578125,-47.36328125,-40.0390625
-44.43359375,-85.44921875,-47.36328125,-40.0390625
-49.31640625,-0.9765625,-50.78125,-46.875
-35.15625,82.03125,-51.7578125,-42.48046875
-25.390625,13.18359375,-47.36328125,-37.109375
-36.1328125,-178.22265625,-45.8984375,-44.921875
-46.875,-161.62109375,-46.875,-43.45703125
-47.36328125,-16.6015625,-45.8984375,-38.57421875
-34.1796875,67.3828125,-45.8984375,-33.203125
-23.92578125,-38.0859375,-47.36328125,-35.15625
-27.83203125,-150.87890625,-49.8046875,-36.62109375
-36.1328125,-82.03125,-51.7578125,-33.203125
-42.96875,-28.3203125,-51.26953125,-27.83203125
-36.62109375,27.83203125,-45.8984375,-21.97265625
-33.69140625,-22.94921875,-41.50390625,-20.01953125
-35.15625,-123.046875,-44.43359375,-24.4140625
-39.55078125,-51.7578125,-42.48046875,-27.34375
-45.41015625,-30.2734375,-39.55078125,-17.578125
-39.55078125,-14.6484375,-41.9921875,-19.04296875
-45.8984375,-9.27734375,-46.875,-29.78515625
-48.33984375,-85.9375,-44.921875,-33.203125
-49.8046875,-129.8828125,-40.0390625,-33.203125
-50.29296875,-81.54296875,-39.55078125,-28.3203125
-44.43359375,19.53125,-41.9921875,-25.390625
-36.62109375,1.953125,-41.015625,-28.3203125
-37.109375,-71.2890625,-41.9921875,-32.71484375
-39.55078125,-88.8671875,-45.8984375,-32.2265625
-42.96875,-117.1875,-47.36328125,-26.3671875
-38.57421875,56.640625,-47.8515625,-25.390625
-26.3671875,15.13671875,-48.828125,-27.83203125
-24.90234375,-139.16015625,-46.875,-26.3671875
-36.1328125,-132.32421875,-48.828125,-31.25
-39.55078125,-72.75390625,-51.7578125,-28.3203125
-32.71484375,45.8984375,-48.33984375,-25.87890625
-35.64453125,2.44140625,-49.31640625,-32.2265625
-40.0390625,-83.0078125,-51.26953125,-39.55078125
-43.9453125,-116.69921875,-49.8046875,-40.52734375
-53.22265625,-88.8671875,-48.828125,-36.62109375
-46.875,47.36328125,-47.36328125,-40.52734375
-30.76171875,38.0859375,-44.43359375,-38.57421875
-28.3203125,-31.25,-48.33984375,-44.43359375
-36.1328125,-117.1875,-52.24609375,-53.7109375
-41.50390625,-165.0390625,-47.8515625,-46.875
-29.78515625,-10.7421875,-49.31640625,-41.9921875
-18.06640625,68.84765625,-46.38671875,-35.15625
-21.484375,-51.26953125,-43.45703125,-31.73828125
-30.2734375,-147.4609375,-46.38671875,-40.0390625
-43.9453125,-100.5859375,-48.828125,-47.36328125
-50.78125,-21.484375,-50.29296875,-48.33984375
-35.64453125,18.5546875,-46.875,-40.0390625
-32.71484375,-28.3203125,-40.52734375,-38.57421875
-47.8515625,-106.93359375,-38.0859375,-45.41015625
-50.29296875,-54.6875,-38.57421875,-47.8515625
-51.7578125,-17.08984375,-44.921875,-48.33984375
-43.45703125,-22.94921875,-53.22265625,-43.45703125
-34.1796875,-5.37109375,-51.7578125,-40.52734375
-48.33984375,-99.12109375,-45.8984375,-46.875
-62.98828125,-169.921875,-45.41015625,-50.78125
-63.4765625,-15.13671875,-49.8046875,-47.36328125
-47.36328125,38.0859375,-50.29296875,-43.9453125
-43.9453125,-11.23046875,-49.8046875,-55.6640625
-39.0625,-68.359375,-55.6640625,-63.4765625
-24.4140625,-125.48828125,-55.17578125,-50.29296875
-29.296875,-19.04296875,-45.41015625,-35.15625
-42.48046875,112.79296875,-40.52734375,-45.8984375
-50.78125,-26.3671875,-41.9921875,-63.96484375
-48.33984375,-145.99609375,-40.52734375,-59.08203125
-53.7109375,-132.8125,-38.57421875,-55.17578125
-58.59375,-67.3828125,-33.203125,-54.19921875
-56.640625,20.99609375,-26.3671875,-52.24609375
-58.59375,23.92578125,-32.2265625,-53.22265625
-58.10546875,-98.14453125,-35.15625,-55.17578125
-73.2421875,-186.03515625,-36.62109375,-63.4765625
-75.68359375,-82.03125,-43.9453125,-63.4765625
-62.01171875,-4.39453125,-47.36328125,-61.5234375
-49.31640625,29.296875,-43.45703125,-58.59375
-42.96875,-14.6484375,-41.015625,-58.59375
-50.29296875,-150.87890625,-43.45703125,-58.59375
-53.22265625,-155.2734375,-45.8984375,-53.7109375
-47.8515625,-9.27734375,-44.43359375,-54.19921875
-46.38671875,72.75390625,-40.0390625,-53.22265625
-52.24609375,-65.4296875,-42.48046875,-56.15234375
-58.59375,-171.38671875,-45.41015625,-56.640625
-62.98828125,-126.953125,-40.52734375,-47.36328125
-54.6875,-28.80859375,-36.62109375,-39.55078125
-35.64453125,45.41015625,-35.64453125,-36.62109375
-37.109375,-41.015625,-38.0859375,-41.50390625
-54.6875,-147.4609375,-46.875,-47.36328125
-61.5234375,-64.94140625,-45.8984375,-40.52734375
-51.26953125,-41.9921875,-41.9921875,-37.59765625
-34.1796875,-26.3671875,-37.109375,-37.109375
-37.109375,-45.8984375,-33.69140625,-38.0859375
-43.45703125,-100.09765625,-37.109375,-37.109375
-41.9921875,-101.07421875,-33.69140625,-34.1796875
-42.96875,-23.92578125,-34.66796875,-32.71484375
-37.109375,37.59765625,-37.59765625,-32.71484375
-33.203125,-51.26953125,-35.64453125,-39.0625
-35.15625,-124.0234375,-34.66796875,-39.55078125
-48.828125,-88.37890625,-35.64453125,-41.50390625
-57.12890625,-0.48828125,-38.0859375,-41.015625
-43.9453125,55.6640625,-39.0625,-37.109375
-32.2265625,-29.78515625,-36.1328125,-36.1328125
-34.66796875,-150.87890625,-37.109375,-35.64453125
-43.9453125,-151.85546875,-39.0625,-35.64453125
-46.875,-31.73828125,-37.59765625,-39.0625
-36.62109375,47.36328125,-37.59765625,-37.109375
-34.66796875,-13.18359375,-37.59765625,-37.109375
-41.9921875,-133.30078125,-40.52734375,-43.9453125
-52.24609375,-134.27734375,-39.0625,-43.9453125
-54.19921875,-43.45703125,-40.52734375,-39.0625
-48.33984375,17.578125,-46.38671875,-36.1328125
-35.15625,48.33984375,-47.36328125,-38.57421875
-28.80859375,-22.94921875,-42.96875,-36.1328125
-45.41015625,-148.92578125,-44.921875,-33.69140625
-49.8046875,-118.65234375,-44.921875,-29.296875
-40.52734375,38.0859375,-45.41015625,-33.203125
-29.296875,62.98828125,-41.015625,-38.0859375
-32.71484375,-112.79296875,-40.52734375,-39.55078125
-40.0390625,-150.390625,-45.8984375,-42.48046875
-40.0390625,-75.68359375,-47.36328125,-39.55078125
-34.1796875,11.71875,-47.8515625,-34.1796875
-23.92578125,51.7578125,-42.96875,-32.2265625
-22.94921875,-77.1484375,-38.0859375,-35.15625
-30.2734375,-145.99609375,-39.55078125,-40.0390625
-32.2265625,-27.83203125,-41.50390625,-38.57421875
-35.15625,17.578125,-45.8984375,-35.15625
-21.484375,-18.5546875,-45.41015625,-34.66796875
-21.484375,-58.10546875,-42.48046875,-37.109375
-36.62109375,-136.71875,-44.43359375,-43.45703125
-46.875,-133.7890625,-50.29296875,-44.921875
-51.26953125,-9.27734375,-49.8046875,-40.52734375
-41.015625,43.45703125,-47.36328125,-36.62109375
-44.921875,-68.84765625,-48.33984375,-45.41015625
-59.08203125,-141.11328125,-46.38671875,-52.734375
-44.43359375,-104.4921875,-45.8984375,-23.4375
-38.57421875,-37.59765625,-45.8984375,-21.484375
-67.3828125,54.19921875,-46.875,-72.265625
-71.77734375,-30.2734375,-50.78125,-83.49609375
-78.125,-188.96484375,-53.7109375,-80.078125
-106.93359375,-125.48828125,-54.19921875,-115.234375
-126.46484375,4.8828125,-57.6171875,-138.671875
-118.1640625,47.36328125,-56.15234375,-131.8359375
-132.8125,-5.859375,-60.05859375,-161.1328125
-154.78515625,-41.50390625,-63.96484375,-180.17578125
-166.50390625,-89.35546875,-62.5,-185.546875
-187.01171875,3.90625,-63.4765625,-199.70703125
-187.5,99.12109375,-65.4296875,-204.58984375
-186.5234375,15.13671875,-67.87109375,-213.8671875
-199.70703125,-21.97265625,-62.5,-224.12109375
-212.890625,-85.9375,-63.96484375,-225.5859375
-214.35546875,-33.203125,-69.3359375,-222.16796875
-195.3125,104.98046875,-73.2421875,-224.609375
-178.7109375,30.2734375,-69.3359375,-223.14453125
-180.17578125,-63.4765625,-64.94140625,-216.30859375
-182.6171875,-35.64453125,-70.3125,-211.42578125
-184.08203125,16.11328125,-73.2421875,-200.68359375
-162.109375,95.21484375,-70.3125,-185.546875
-143.06640625,91.796875,-72.265625,-183.10546875
-148.4375,-43.45703125,-77.1484375,-185.05859375
-135.7421875,-47.8515625,-74.70703125,-160.15625
-118.1640625,23.4375,-67.3828125,-140.625
-118.65234375,55.17578125,-69.3359375,-141.6015625
-104.4921875,13.671875,-67.3828125,-126.46484375
-83.984375,-106.4453125,-58.59375,-117.1875
-83.0078125,-115.234375,-60.05859375,-115.72265625
-83.49609375,-46.38671875,-66.40625,-100.09765625
-78.125,38.57421875,-67.3828125,-90.8203125
-64.453125,32.71484375,-67.3828125,-87.890625
-51.7578125,-81.54296875,-67.87109375,-78.125
-52.734375,-133.7890625,-68.359375,-66.89453125
-54.19921875,-81.54296875,-65.4296875,-65.4296875
-45.8984375,40.0390625,-65.91796875,-57.12890625
-21.97265625,97.16796875,-62.5,-48.828125
-22.4609375,-80.078125,-61.03515625,-51.26953125
-31.73828125,-177.24609375,-65.4296875,-49.8046875
-27.34375,-86.9140625,-62.98828125,-36.1328125
-19.53125,19.53125,-61.03515625,-21.484375
-10.25390625,-14.16015625,-58.59375,-19.04296875
-7.32421875,-86.42578125,-57.6171875,-21.97265625
-6.34765625,-145.99609375,-58.10546875,-23.4375
-12.6953125,-133.7890625,-53.22265625,-13.18359375
-14.16015625,-28.3203125,-52.24609375,-5.37109375
-4.8828125,13.671875,-58.10546875,-10.25390625
1.46484375,-14.16015625,-58.59375,-14.16015625
-3.41796875,-60.546875,-59.5703125,-13.18359375
-11.71875,-157.71484375,-60.546875,-11.23046875
-14.16015625,-95.703125,-60.546875,-6.34765625
-0.9765625,-0.9765625,-58.59375,-0.9765625
14.6484375,-22.94921875,-53.22265625,1.46484375
15.13671875,-130.37109375,-53.7109375,-1.46484375
-4.8828125,-110.83984375,-53.7109375,-0.48828125
-4.39453125,-5.859375,-53.7109375,4.39453125
14.6484375,14.16015625,-50.78125,6.34765625
15.13671875,-3.41796875,-46.875,6.8359375
12.6953125,-122.0703125,-45.8984375,4.8828125
7.32421875,-136.23046875,-48.33984375,1.46484375
4.8828125,-18.06640625,-50.29296875,5.859375
8.7890625,37.59765625,-48.828125,3.41796875
15.13671875,-43.9453125,-48.33984375,-0.9765625
14.6484375,-95.703125,-52.24609375,-4.8828125
1.46484375,-113.76953125,-55.17578125,-5.37109375
-5.859375,-95.703125,-55.6640625,-4.39453125
-3.90625,15.13671875,-54.19921875,-8.30078125
0.0,22.4609375,-49.31640625,-5.37109375
-5.37109375,-110.3515625,-47.36328125,-8.7890625
-15.13671875,-135.25390625,-44.921875,-11.71875
-17.578125,-90.8203125,-41.9921875,-9.765625
-17.08984375,-31.73828125,-46.38671875,-13.671875
-3.41796875,89.35546875,-44.921875,-6.8359375
1.46484375,-64.453125,-43.9453125,-7.8125
-10.25390625,-183.59375,-47.8515625,-17.578125
-25.390625,-90.8203125,-51.7578125,-21.484375
-15.625,25.390625,-53.7109375,-15.625
-4.8828125,8.30078125,-45.8984375,-16.11328125
-20.01953125,-68.359375,-39.55078125,-30.2734375
-27.83203125,-115.72265625,-38.57421875,-28.3203125
-29.296875,-124.51171875,-40.52734375,-25.390625
-23.92578125,3.41796875,-42.48046875,-25.390625
-9.765625,44.43359375,-45.8984375,-22.94921875
-11.23046875,-27.83203125,-43.45703125,-31.25
-19.53125,-82.03125,-44.921875,-32.2265625
-26.85546875,-155.2734375,-49.31640625,-23.4375
-27.83203125,-81.54296875,-46.38671875,-13.671875
-15.13671875,18.06640625,-41.9921875,-15.625
-9.765625,-39.0625,-36.1328125,-18.5546875
-14.6484375,-123.046875,-37.59765625,-14.16015625
-30.76171875,-122.0703125,-37.109375,-8.30078125
-28.80859375,-0.48828125,-39.0625,-6.8359375
-17.578125,39.0625,-43.45703125,-15.13671875
-13.18359375,-1.953125,-41.9921875,-19.53125
-11.71875,-136.23046875,-42.48046875,-17.578125
-20.5078125,-117.1875,-45.8984375,-19.53125
-25.390625,41.015625,-41.50390625,-16.11328125
-19.53125,12.20703125,-42.96875,-17.08984375
-15.625,-63.96484375,-42.96875,-20.01953125
-19.53125,-91.796875,-40.0390625,-16.11328125
-23.92578125,-106.93359375,-42.96875,-13.671875
-32.71484375,-74.21875,-41.50390625,-19.53125
-33.203125,26.3671875,-40.52734375,-26.85546875
-29.296875,9.27734375,-37.59765625,-26.85546875
-32.71484375,-80.56640625,-38.0859375,-32.71484375
-33.69140625,-121.58203125,-40.52734375,-34.66796875
-36.62109375,-83.0078125,-34.66796875,-28.3203125
-28.3203125,51.26953125,-29.296875,-23.92578125
-17.08984375,84.9609375,-34.1796875,-23.4375
-26.3671875,-152.34375,-39.0625,-32.2265625
-35.64453125,-199.70703125,-40.0390625,-38.0859375
-34.1796875,-51.7578125,-40.52734375,-29.78515625
-29.296875,44.921875,-40.52734375,-31.73828125
-20.99609375,29.296875,-39.55078125,-35.64453125
-23.92578125,-76.66015625,-36.1328125,-37.59765625
-35.15625,-96.6796875,-34.1796875,-41.9921875
-38.0859375,-91.796875,-36.62109375,-32.71484375
-40.52734375,-6.34765625,-44.43359375,-28.3203125
-38.0859375,0.48828125,-47.36328125,-33.69140625
-34.1796875,-19.53125,-43.45703125,-33.203125
-33.69140625,-48.33984375,-37.109375,-25.87890625
-38.57421875,-154.296875,-38.0859375,-30.2734375
-41.015625,-38.57421875,-43.45703125,-34.66796875
-24.90234375,26.85546875,-39.0625,-25.87890625
-20.01953125,-65.91796875,-37.59765625,-24.4140625
-29.296875,-126.953125,-38.0859375,-27.83203125
-40.0390625,-121.58203125,-34.66796875,-29.296875
-38.0859375,-7.32421875,-34.66796875,-24.4140625
-34.1796875,32.71484375,-40.0390625,-31.73828125
-41.9921875,-12.6953125,-38.57421875,-46.875
-42.96875,-97.16796875,-37.109375,-47.36328125
-53.22265625,-119.62890625,-41.015625,-44.921875
-53.7109375,18.06640625,-41.015625,-41.9921875
-36.62109375,-5.37109375,-41.015625,-35.15625
-32.71484375,-59.08203125,-42.48046875,-32.71484375
-32.71484375,-86.42578125,-45.41015625,-38.57421875
-41.50390625,-135.7421875,-45.41015625,-38.0859375
-44.921875,-28.3203125,-44.43359375,-31.25
-29.78515625,56.15234375,-43.45703125,-33.69140625
-32.2265625,-21.484375,-44.43359375,-40.0390625
-41.015625,-102.05078125,-46.875,-39.55078125
-44.43359375,-98.14453125,-47.8515625,-38.0859375
-42.96875,-48.828125,-47.8515625,-28.80859375
-30.76171875,11.71875,-44.921875,-19.53125
-23.4375,8.30078125,-45.41015625,-24.90234375
-21.97265625,-96.19140625,-45.41015625,-34.66796875
-36.1328125,-158.69140625,-48.33984375,-32.2265625
-51.26953125,-99.609375,-51.26953125,-24.90234375
-47.36328125,11.23046875,-49.8046875,-30.76171875
-37.59765625,13.671875,-50.29296875,-34.1796875
-32.71484375,-70.3125,-43.45703125,-29.78515625
-43.45703125,-119.62890625,-40.52734375,-29.78515625
-47.8515625,-72.265625,-47.36328125,-33.203125
-41.9921875,44.43359375,-46.38671875,-36.62109375
-27.83203125,45.8984375,-42.48046875,-33.69140625
-33.203125,-93.75,-40.52734375,-39.55078125
-47.8515625,-84.47265625,-44.43359375,-50.78125
-47.36328125,-78.61328125,-45.8984375,-47.36328125
-50.29296875,-66.89453125,-45.41015625,-46.38671875
-44.921875,25.390625,-49.8046875,-55.6640625
-41.50390625,-13.671875,-51.26953125,-54.6875
-48.828125,-164.0625,-48.33984375,-49.31640625
-49.31640625,-146.484375,-44.43359375,-43.45703125
-38.57421875,15.625,-43.45703125,-32.71484375
-30.2734375,52.24609375,-47.36328125,-42.96875
-39.55078125,-31.73828125,-50.29296875,-49.8046875
-51.26953125,-139.6484375,-52.24609375,-42.96875
-59.5703125,-92.28515625,-51.7578125,-45.41015625
-58.10546875,69.3359375,-55.6640625,-50.78125
-43.9453125,20.99609375,-55.6640625,-58.10546875
-41.015625,-105.46875,-52.734375,-48.33984375
-47.8515625,-139.6484375,-57.12890625,-43.45703125
-54.19921875,-89.35546875,-54.6875,-50.78125
-51.7578125,-8.30078125,-48.828125,-43.9453125
-36.62109375,36.1328125,-45.41015625,-39.55078125
-36.1328125,2.9296875,-43.45703125,-43.45703125
-44.43359375,-148.4375,-42.48046875,-43.45703125
-54.6875,-127.9296875,-42.48046875,-44.43359375
-57.6171875,-13.671875,-43.45703125,-41.015625
-45.41015625,37.59765625,-42.48046875,-38.0859375
-35.64453125,63.96484375,-38.0859375,-33.203125
-42.48046875,-124.0234375,-40.0390625,-41.015625
-49.8046875,-170.8984375,-45.41015625,-45.8984375
-42.48046875,-9.27734375,-41.50390625,-39.0625
-35.64453125,33.203125,-36.1328125,-41.50390625
-36.1328125,2.44140625,-33.69140625,-42.96875
-42.48046875,-83.984375,-37.109375,-41.50390625
-51.7578125,-125.48828125,-42.48046875,-42.96875
-50.29296875,-48.33984375,-45.41015625,-42.48046875
-41.50390625,60.05859375,-45.41015625,-37.59765625
-41.9921875,0.9765625,-42.48046875,-39.0625
-38.0859375,-87.890625,-42.48046875,-40.52734375
-39.0625,-53.7109375,-39.0625,-36.1328125
-49.31640625,-135.25390625,-40.0390625,-34.1796875
-50.78125,-35.15625,-49.8046875,-41.015625
-41.015625,48.33984375,-47.8515625,-41.9921875
-29.78515625,-73.73046875,-40.52734375,-43.45703125
-40.0390625,-111.328125,-42.96875,-48.33984375
-53.22265625,-71.77734375,-46.875,-45.41015625
-49.8046875,19.53125,-46.38671875,-46.38671875
-45.8984375,52.24609375,-45.41015625,-52.24609375
-43.45703125,-43.45703125,-42.96875,-51.7578125
-42.96875,-126.46484375,-41.50390625,-45.8984375
-51.26953125,-87.890625,-46.38671875,-41.015625
-50.29296875,54.19921875,-49.31640625,-43.9453125
-34.1796875,25.390625,-45.8984375,-46.875
-31.25,-115.72265625,-44.921875,-49.8046875
-44.921875,-166.015625,-46.38671875,-52.24609375
-54.6875,-110.83984375,-49.31640625,-49.8046875
-55.6640625,-8.7890625,-52.734375,-46.875
-42.96875,22.4609375,-52.734375,-41.50390625
-32.2265625,-24.4140625,-48.33984375,-39.0625
-39.55078125,-90.33203125,-50.29296875,-40.0390625
-49.31640625,-125.48828125,-48.828125,-31.73828125
-47.8515625,0.9765625,-45.41015625,-31.73828125
-35.64453125,20.5078125,-49.8046875,-31.73828125
-34.1796875,-25.87890625,-48.33984375,-34.66796875
-40.0390625,-110.3515625,-43.9453125,-40.0390625
-46.38671875,-189.94140625,-47.36328125,-40.0390625
-54.19921875,6.34765625,-53.22265625,-40.52734375
-48.33984375,82.03125,-56.640625,-44.921875
-39.55078125,-81.0546875,-58.10546875,-45.41015625
-37.59765625,-133.30078125,-55.6640625,-36.62109375
-40.52734375,-90.33203125,-48.33984375,-40.0390625
-49.8046875,-9.765625,-51.7578125,-40.0390625
-44.921875,31.25,-55.17578125,-38.57421875
-35.64453125,-23.4375,-48.33984375,-39.55078125
-39.0625,-100.09765625,-50.78125,-39.55078125
-49.8046875,-55.6640625,-56.15234375,-42.96875
-49.8046875,-68.84765625,-55.6640625,-40.0390625
-36.1328125,-10.25390625,-53.7109375,-40.0390625
-29.296875,5.859375,-55.17578125,-41.015625
-27.83203125,-91.30859375,-52.24609375,-36.1328125
-35.15625,-114.2578125,-51.26953125,-30.76171875
-40.0390625,-53.7109375,-51.26953125,-26.3671875
-34.1796875,25.390625,-53.22265625,-32.71484375
-30.76171875,-21.97265625,-60.546875,-39.0625
-37.109375,-67.3828125,-62.01171875,-47.8515625
-46.875,-115.72265625,-61.03515625,-55.17578125
-51.26953125,-69.82421875,-58.59375,-49.31640625
-41.9921875,69.82421875,-53.7109375,-48.33984375
-35.64453125,1.953125,-54.6875,-46.38671875
-38.0859375,-123.046875,-50.29296875,-41.9921875
-47.8515625,-142.08984375,-51.26953125,-41.50390625
-49.31640625,-89.35546875,-52.734375,-38.0859375
-39.0625,5.859375,-44.921875,-33.203125
-27.83203125,38.0859375,-45.8984375,-28.3203125
-30.2734375,-42.48046875,-49.8046875,-28.80859375
-37.109375,-128.90625,-48.828125,-34.1796875
-45.8984375,-91.796875,-49.8046875,-34.1796875
-47.36328125,43.45703125,-51.26953125,-35.64453125
-32.71484375,56.15234375,-52.24609375,-39.0625
-30.76171875,6.34765625,-53.7109375,-43.45703125
-38.57421875,-143.5546875,-52.734375,-47.36328125
-49.31640625,-175.29296875,-52.24609375,-41.50390625
-59.08203125,-20.01953125,-55.17578125,-42.48046875
-44.43359375,55.17578125,-50.78125,-47.36328125
-36.62109375,-53.7109375,-42.48046875,-42.96875
-49.31640625,-142.578125,-45.8984375,-44.921875
-52.734375,-86.9140625,-45.8984375,-44.43359375
-49.8046875,0.9765625,-40.52734375,-35.64453125
-36.62109375,40.0390625,-36.1328125,-33.203125
-28.3203125,-12.6953125,-32.2265625,-34.1796875
-35.15625,-86.42578125,-38.57421875,-34.66796875
-41.015625,-85.44921875,-42.48046875,-32.2265625
-45.41015625,-19.04296875,-41.9921875,-34.1796875
-40.52734375,-16.6015625,-44.43359375,-38.0859375
-34.66796875,-83.49609375,-45.41015625,-41.9921875
-37.109375,-89.35546875,-45.41015625,-49.31640625
-45.8984375,-96.19140625,-48.33984375,-50.78125
-50.29296875,-43.45703125,-54.19921875,-50.78125
-46.38671875,10.7421875,-51.26953125,-43.9453125
-36.1328125,20.5078125,-44.921875,-35.64453125
-38.0859375,-86.42578125,-50.29296875,-44.43359375
-47.8515625,-148.92578125,-50.78125,-48.828125
-48.828125,-20.01953125,-47.8515625,-42.96875
-38.57421875,90.8203125,-48.33984375,-41.9921875
-32.71484375,-8.7890625,-50.78125,-47.36328125
-36.1328125,-160.15625,-50.29296875,-50.29296875
-41.015625,-117.67578125,-47.8515625,-45.41015625
-46.875,-35.15625,-47.36328125,-36.1328125
-48.828125,-4.39453125,-50.78125,-34.66796875
-39.0625,18.5546875,-46.875,-31.73828125
-35.64453125,-57.12890625,-42.96875,-29.296875
-38.0859375,-122.55859375,-43.45703125,-22.4609375
-35.15625,-76.66015625,-49.31640625,-23.4375
-35.64453125,15.625,-49.31640625,-36.62109375
-37.59765625,17.08984375,-47.8515625,-35.15625
-35.64453125,3.41796875,-49.8046875,-39.55078125
-41.9921875,-124.51171875,-46.875,-44.43359375
-55.6640625,-157.71484375,-51.26953125,-40.0390625
-49.8046875,20.5078125,-51.26953125,-33.203125
-35.15625,56.15234375,-43.45703125,-31.25
-34.1796875,-48.33984375,-44.43359375,-36.62109375
-34.66796875,-127.9296875,-47.8515625,-41.015625
-40.52734375,-75.1953125,-46.875,-46.38671875
-39.0625,0.0,-47.8515625,-43.9453125
-29.296875,17.08984375,-47.8515625,-38.0859375
-35.15625,-44.921875,-48.33984375,-43.45703125
-44.921875,-113.76953125,-50.78125,-41.50390625
-53.7109375,-52.734375,-50.29296875,-31.25
-60.05859375,-43.9453125,-48.828125,-41.015625
-61.5234375,-36.1328125,-52.734375,-50.29296875
-57.12890625,-11.23046875,-53.7109375,-54.6875
-62.5,-123.046875,-50.29296875,-58.10546875
-72.265625,-153.3203125,-54.6875,-54.6875
-74.21875,-28.80859375,-57.12890625,-54.19921875
-64.94140625,55.6640625,-46.875,-56.15234375
-55.17578125,-10.25390625,-39.0625,-60.05859375
-56.15234375,-104.00390625,-42.48046875,-68.84765625
-67.3828125,-117.1875,-47.36328125,-64.453125
-70.80078125,-78.125,-47.8515625,-48.33984375
-59.08203125,82.03125,-49.31640625,-41.9921875
-43.45703125,21.97265625,-47.8515625,-46.38671875
-43.9453125,-146.97265625,-50.78125,-50.29296875
-56.640625,-131.8359375,-54.19921875,-51.26953125
-62.01171875,-77.1484375,-57.12890625,-52.24609375
-54.6875,28.80859375,-57.6171875,-50.78125
-46.38671875,20.5078125,-54.6875,-49.8046875
-43.9453125,-96.19140625,-51.26953125,-48.33984375
-45.41015625,-98.14453125,-51.26953125,-51.7578125
-44.921875,-41.9921875,-51.7578125,-49.31640625
-36.62109375,52.734375,-54.6875,-47.8515625
-27.34375,54.19921875,-55.6640625,-46.38671875
-32.71484375,-58.10546875,-59.08203125,-49.31640625
-41.9921875,-141.11328125,-63.96484375,-57.12890625
-52.24609375,-146.484375,-61.03515625,-56.640625
-53.22265625,-1.46484375,-59.5703125,-55.6640625
-42.48046875,39.0625,-57.12890625,-51.26953125
-41.50390625,-87.40234375,-50.78125,-43.9453125
-51.26953125,-164.0625,-47.36328125,-45.41015625
-55.6640625,-95.21484375,-49.8046875,-56.15234375
-53.7109375,16.11328125,-50.78125,-53.7109375
-39.0625,25.87890625,-46.875,-50.29296875
-31.25,-80.56640625,-49.31640625,-50.78125
-36.62109375,-102.05078125,-51.26953125,-45.8984375
-43.45703125,-46.875,-48.33984375,-41.9921875
-42.96875,-40.52734375,-48.828125,-41.015625
-31.25,-14.16015625,-47.36328125,-47.36328125
-28.80859375,-15.625,-47.8515625,-45.41015625
-41.015625,-98.6328125,-53.22265625,-44.921875
-46.38671875,-166.9921875,-53.7109375,-39.55078125
-41.015625,-26.85546875,-54.6875,-35.15625
-33.69140625,33.69140625,-57.12890625,-39.55078125
-33.69140625,-26.3671875,-51.26953125,-42.48046875
-38.0859375,-114.74609375,-46.38671875,-44.43359375
-46.875,-117.1875,-51.7578125,-41.50390625
-48.33984375,16.6015625,-53.7109375,-33.69140625
-36.1328125,107.421875,-46.875,-37.59765625
-34.1796875,-30.2734375,-47.36328125,-38.0859375
-39.55078125,-161.1328125,-50.29296875,-40.0390625
-44.921875,-124.0234375,-49.31640625,-48.33984375
-52.734375,-22.4609375,-49.31640625,-48.828125
-44.921875,18.06640625,-44.43359375,-44.921875
-40.52734375,14.6484375,-41.9921875,-43.9453125
-44.921875,-52.24609375,-44.43359375,-43.9453125
-51.26953125,-156.73828125,-49.8046875,-39.55078125
-47.36328125,-60.05859375,-48.828125,-31.73828125
-39.55078125,33.69140625,-47.8515625,-26.3671875
-35.64453125,2.9296875,-49.8046875,-33.69140625
-30.76171875,-45.41015625,-48.828125,-36.62109375
-41.015625,-130.37109375,-47.8515625,-37.109375
-50.78125,-104.00390625,-52.24609375,-43.45703125
-42.96875,32.2265625,-53.7109375,-47.36328125
-36.1328125,16.11328125,-49.8046875,-45.8984375
-36.1328125,-68.359375,-47.36328125,-47.8515625
-41.015625,-114.2578125,-44.921875,-49.31640625
-41.015625,-82.03125,-42.48046875,-41.50390625
-36.62109375,14.6484375,-38.0859375,-39.0625
-30.2734375,62.98828125,-39.55078125,-37.59765625
-29.296875,-28.80859375,-39.0625,-31.25
-39.0625,-167.48046875,-43.9453125,-45.8984375
-47.8515625,-32.2265625,-51.7578125,-48.33984375
-43.45703125,44.43359375,-51.7578125,-34.66796875
-29.296875,-35.15625,-51.26953125,-35.64453125
-27.34375,-58.10546875,-49.8046875,-40.0390625
-37.109375,-134.27734375,-45.41015625,-42.96875
-41.9921875,-115.234375,-45.41015625,-40.0390625
-39.0625,24.90234375,-45.8984375,-35.64453125
-33.69140625,48.33984375,-47.36328125,-42.48046875
-31.25,-52.734375,-50.29296875,-41.9921875
-40.52734375,-144.04296875,-53.22265625,-41.9921875
-51.7578125,-112.3046875,-54.6875,-44.43359375
-48.828125,24.90234375,-53.7109375,-45.8984375
-35.15625,88.37890625,-47.36328125,-46.875
-38.57421875,-32.2265625,-45.8984375,-46.875
-49.8046875,-190.4296875,-50.78125,-48.33984375
-52.24609375,-153.3203125,-46.875,-41.015625
-49.8046875,-9.27734375,-44.43359375,-38.0859375
-39.0625,36.1328125,-40.0390625,-38.0859375
-28.80859375,-10.25390625,-40.52734375,-30.76171875
-32.2265625,-100.09765625,-45.41015625,-31.73828125
-41.9921875,-110.83984375,-43.45703125,-31.25
-45.41015625,0.9765625,-42.48046875,-27.83203125
-48.828125,25.390625,-45.41015625,-40.52734375
-41.9921875,19.04296875,-46.875,-43.45703125
-36.62109375,-54.19921875,-44.921875,-43.9453125
-50.78125,-177.24609375,-46.38671875,-47.36328125
-60.546875,-91.30859375,-46.38671875,-45.41015625
-51.7578125,60.05859375,-43.45703125,-46.38671875
-44.43359375,52.24609375,-46.875,-50.29296875
-53.22265625,-129.8828125,-49.8046875,-55.6640625
-65.91796875,-170.8984375,-50.29296875,-57.6171875
-62.5,-54.6875,-49.8046875,-52.734375
-45.8984375,61.5234375,-45.41015625,-46.875
-35.64453125,30.2734375,-42.48046875,-41.50390625
-42.48046875,-122.0703125,-41.50390625,-43.45703125
-48.33984375,-126.46484375,-42.96875,-47.36328125
-50.78125,-27.83203125,-43.45703125,-41.50390625
-45.41015625,-22.94921875,-43.9453125,-39.0625
-30.2734375,-2.9296875,-41.015625,-38.57421875
-36.1328125,-42.96875,-37.59765625,-45.41015625
-48.33984375,-133.30078125,-41.9921875,-51.7578125
-52.24609375,-108.88671875,-44.43359375,-47.8515625
-47.8515625,38.57421875,-42.96875,-42.96875
-37.59765625,32.2265625,-38.0859375,-39.0625
-35.15625,-118.1640625,-39.0625,-39.55078125
-37.59765625,-138.671875,-40.52734375,-44.43359375
-39.55078125,-102.5390625,-39.0625,-36.1328125
-41.9921875,52.734375,-41.015625,-32.71484375
-33.203125,108.88671875,-38.0859375,-40.0390625
-27.34375,-67.3828125,-35.64453125,-35.15625
-36.62109375,-145.99609375,-40.52734375,-31.73828125
-50.29296875,-105.46875,-48.828125,-35.64453125
-57.12890625,-30.2734375,-50.78125,-41.015625
-43.45703125,55.6640625,-44.43359375,-38.0859375
-41.9921875,-32.2265625,-42.96875,-37.59765625
-50.29296875,-140.13671875,-44.921875,-50.29296875
-53.22265625,-107.91015625,-46.875,-53.22265625
-54.6875,1.46484375,-46.38671875,-45.8984375
-39.55078125,100.09765625,-44.921875,-46.875
-35.64453125,6.34765625,-50.78125,-55.17578125
-47.36328125,-122.0703125,-56.640625,-58.10546875
-59.08203125,-180.17578125,-56.15234375,-57.6171875
-55.6640625,-59.08203125,-52.24609375,-55.17578125
-47.36328125,24.4140625,-47.8515625,-56.15234375
-49.8046875,-35.15625,-49.8046875,-55.6640625
-40.52734375,-98.14453125,-49.8046875,-47.8515625
-44.43359375,-150.87890625,-46.38671875,-41.9921875
-46.38671875,-54.6875,-49.31640625,-32.2265625
-34.1796875,63.96484375,-48.828125,-33.69140625
-33.203125,18.06640625,-42.48046875,-39.0625
-42.48046875,-101.5625,-42.96875,-35.15625
-54.6875,-106.93359375,-43.45703125,-32.71484375
-60.05859375,-16.6015625,-45.8984375,-31.73828125
-53.22265625,42.96875,-49.31640625,-36.1328125
-46.875,-19.04296875,-52.734375,-36.1328125
-50.78125,-111.328125,-59.08203125,-41.50390625
-57.6171875,-103.02734375,-60.05859375,-55.17578125
-51.7578125,-84.9609375,-55.6640625,-49.8046875
-38.57421875,6.8359375,-49.31640625,-41.9921875
-30.76171875,30.76171875,-49.31640625,-47.36328125
-32.2265625,-76.66015625,-50.78125,-54.19921875
-47.8515625,-132.32421875,-49.8046875,-55.6640625
-56.640625,-95.21484375,-53.22265625,-50.29296875
-44.43359375,40.52734375,-55.6640625,-43.9453125
-32.71484375,87.890625,-54.6875,-43.9453125
-33.69140625,-79.58984375,-48.828125,-42.96875
-38.0859375,-213.8671875,-49.31640625,-39.55078125
-49.8046875,-98.14453125,-53.22265625,-47.36328125
-48.828125,55.6640625,-48.33984375,-46.875
-33.69140625,9.765625,-47.8515625,-33.203125
-30.76171875,-71.2890625,-50.78125,-27.34375
-34.1796875,-111.81640625,-56.640625,-41.9921875
-37.59765625,-87.40234375,-61.03515625,-50.29296875
-41.50390625,20.5078125,-60.05859375,-41.9921875
-30.76171875,41.50390625,-53.7109375,-35.15625
-28.80859375,-49.8046875,-51.26953125,-41.50390625
-41.015625,-69.82421875,-54.6875,-46.875
-45.41015625,-123.046875,-51.26953125,-37.59765625
-47.8515625,-75.1953125,-54.19921875,-34.66796875
-34.1796875,56.15234375,-54.19921875,-32.71484375
-23.4375,6.8359375,-47.8515625,-26.85546875
-28.80859375,-143.06640625,-51.7578125,-23.4375
-39.0625,-136.71875,-55.6640625,-27.34375
-39.0625,0.48828125,-51.26953125,-32.71484375
-27.34375,16.11328125,-48.828125,-41.015625
-28.3203125,-22.4609375,-48.828125,-45.8984375
-35.15625,-118.65234375,-48.828125,-43.45703125
-44.43359375,-104.00390625,-46.875,-44.921875
-40.52734375,53.7109375,-47.36328125,-39.0625
-29.296875,26.85546875,-47.8515625,-32.2265625
-32.71484375,-68.84765625,-45.8984375,-37.59765625
-31.25,-110.3515625,-42.48046875,-36.62109375
-39.0625,-129.39453125,-41.9921875,-27.83203125
-43.9453125,-54.6875,-44.43359375,-24.90234375
-25.390625,26.85546875,-45.8984375,-22.4609375
-16.11328125,-14.6484375,-42.48046875,-26.85546875
-34.1796875,-86.9140625,-41.9921875,-41.9921875
-43.9453125,-80.56640625,-45.8984375,-39.55078125
-33.203125,-32.71484375,-49.31640625,-20.99609375
-21.484375,41.9921875,-52.24609375,-15.625
-11.71875,76.66015625,-55.6640625,-19.53125
-18.5546875,-101.5625,-54.19921875,-29.78515625
-29.296875,-170.8984375,-47.8515625,-35.64453125
-26.3671875,-62.98828125,-38.57421875,-25.87890625
-23.4375,54.6875,-43.45703125,-22.4609375
-18.5546875,50.29296875,-50.78125,-23.92578125
-15.625,-52.734375,-48.828125,-31.25
-25.390625,-139.6484375,-51.26953125,-40.52734375
-33.203125,-111.81640625,-51.26953125,-36.1328125
-31.25,45.41015625,-52.734375,-40.0390625
-24.4140625,46.38671875,-56.15234375,-35.15625
-25.87890625,-54.19921875,-59.08203125,-31.25
-36.1328125,-75.1953125,-56.640625,-41.9921875
-44.921875,-96.19140625,-48.828125,-37.59765625
-40.0390625,-65.91796875,-42.48046875,-31.25
-31.25,16.6015625,-42.96875,-38.57421875
-36.62109375,-15.625,-49.31640625,-48.828125
-36.62109375,-123.046875,-44.43359375,-43.45703125
-37.109375,-129.8828125,-40.0390625,-29.78515625
-41.015625,0.48828125,-44.43359375,-20.5078125
-27.83203125,37.109375,-42.48046875,-22.94921875
-16.11328125,-29.78515625,-39.0625,-32.2265625
-20.99609375,-104.4921875,-37.59765625,-33.69140625
-37.109375,-71.2890625,-39.0625,-26.3671875
-44.43359375,39.0625,-41.9921875,-26.85546875
-30.76171875,2.44140625,-44.43359375,-27.83203125
-27.34375,-59.5703125,-43.45703125,-27.34375
-35.15625,-84.9609375,-43.9453125,-36.1328125
-46.38671875,-111.81640625,-49.8046875,-41.9921875
-48.828125,-66.89453125,-49.8046875,-36.1328125
-38.57421875,62.5,-43.9453125,-34.1796875
-31.73828125,7.8125,-39.0625,-34.1796875
-36.1328125,-125.0,-40.52734375,-31.25
-47.36328125,-136.71875,-41.9921875,-39.0625
-52.24609375,-44.43359375,-41.50390625,-39.0625
-42.96875,55.6640625,-42.48046875,-32.71484375
-41.50390625,48.33984375,-43.45703125,-38.0859375
-37.109375,-108.88671875,-45.8984375,-35.15625
-23.4375,-168.9453125,-45.8984375,-25.390625
-46.38671875,-84.47265625,-43.9453125,-33.203125
-65.4296875,17.578125,-41.9921875,-51.26953125
-53.7109375,22.4609375,-41.50390625,-53.22265625
-48.33984375,-51.26953125,-41.50390625,-54.19921875
-56.15234375,-58.10546875,-38.0859375,-59.5703125
-64.94140625,-97.65625,-38.57421875,-53.7109375
-57.6171875,-16.11328125,-41.015625,-49.8046875
-37.109375,67.87109375,-37.59765625,-48.828125
-40.52734375,-47.8515625,-40.0390625,-53.22265625
-50.78125,-115.234375,-43.45703125,-58.10546875
-37.59765625,-99.609375,-41.9921875,-47.36328125
-31.73828125,-26.85546875,-44.43359375,-37.109375
-34.66796875,26.85546875,-44.921875,-41.015625
-35.64453125,-73.2421875,-41.50390625,-47.36328125
-44.43359375,-124.0234375,-39.0625,-46.38671875
-53.7109375,-66.40625,-35.64453125,-46.875
-52.24609375,31.25,-35.64453125,-48.828125
-41.015625,19.53125,-38.57421875,-49.31640625
-39.0625,-50.29296875,-42.48046875,-52.734375
-49.31640625,-104.98046875,-45.8984375,-50.78125
-50.29296875,-138.671875,-45.8984375,-48.828125
-43.9453125,39.55078125,-43.45703125,-43.45703125
-29.296875,58.59375,-42.96875,-38.57421875
-25.390625,-101.07421875,-49.31640625,-43.45703125
-25.87890625,-139.6484375,-50.78125,-42.48046875
-32.2265625,-120.60546875,-45.8984375,-40.52734375
-39.0625,7.8125,-41.50390625,-31.73828125
-25.390625,75.1953125,-40.0390625,-23.4375
-20.01953125,-8.30078125,-43.9453125,-27.83203125
-28.3203125,-107.421875,-41.015625,-33.69140625
-45.41015625,-91.796875,-42.48046875,-32.71484375
-55.17578125,-19.53125,-48.828125,-32.2265625
-45.41015625,25.390625,-49.8046875,-39.55078125
-42.96875,34.66796875,-48.33984375,-43.9453125
-48.33984375,-102.5390625,-47.36328125,-48.828125
-56.640625,-215.33203125,-60.546875,-55.17578125
-57.6171875,-73.73046875,-63.96484375,-48.828125
-48.828125,41.50390625,-50.78125,-42.48046875
-43.9453125,-11.23046875,-47.36328125,-50.78125
-42.48046875,-108.88671875,-47.8515625,-49.31640625
-48.828125,-134.27734375,-44.921875,-45.41015625
-44.43359375,-29.296875,-46.875,-34.66796875
-28.3203125,35.64453125,-47.36328125,-25.390625
-28.3203125,2.9296875,-44.921875,-44.43359375
-40.0390625,-74.21875,-45.8984375,-58.10546875
-47.8515625,-72.265625,-52.24609375,-54.19921875
-54.19921875,-83.984375,-59.5703125,-50.78125
-46.875,10.7421875,-57.6171875,-47.36328125
-29.296875,72.75390625,-54.19921875,-40.0390625
-24.90234375,-60.05859375,-58.10546875,-44.43359375
-32.71484375,-145.99609375,-62.5,-52.24609375
-30.2734375,-58.59375,-66.40625,-44.921875
-23.4375,71.77734375,-67.3828125,-43.9453125
-20.01953125,93.26171875,-68.84765625,-50.29296875
-14.16015625,-45.41015625,-64.453125,-47.8515625
-20.01953125,-140.13671875,-61.03515625,-42.48046875
-23.4375,-13.671875,-60.546875,-34.66796875
-21.97265625,103.515625,-60.546875,-44.43359375
-20.01953125,0.0,-60.05859375,-49.8046875
-25.390625,-78.61328125,-58.59375,-39.0625
-31.25,-116.2109375,-57.6171875,-39.55078125
-31.73828125,-83.0078125,-52.24609375,-37.109375
-32.2265625,7.8125,-51.26953125,-31.25
-23.4375,50.29296875,-59.5703125,-34.66796875
-18.06640625,12.6953125,-59.5703125,-37.59765625
-29.296875,-141.6015625,-56.640625,-40.52734375
-39.0625,-131.8359375,-60.05859375,-50.78125
-39.0625,13.671875,-60.05859375,-50.78125
-33.203125,54.19921875,-56.640625,-49.8046875
-25.87890625,28.3203125,-53.7109375,-50.78125
-29.78515625,-104.00390625,-55.6640625,-48.33984375
-39.55078125,-130.859375,-58.59375,-43.9453125
-33.69140625,6.8359375,-56.640625,-36.62109375
-25.87890625,37.109375,-56.15234375,-31.25
-28.3203125,-25.87890625,-55.17578125,-30.76171875
-28.3203125,-81.0546875,-46.875,-32.2265625
-30.2734375,-109.86328125,-48.33984375,-26.85546875
-38.57421875,-48.33984375,-53.22265625,-20.5078125
-33.69140625,65.4296875,-45.8984375,-20.01953125
-31.73828125,15.13671875,-45.8984375,-28.80859375
-39.0625,-114.2578125,-48.828125,-36.62109375
-50.78125,-113.76953125,-52.24609375,-40.0390625
-62.98828125,-75.68359375,-54.6875,-44.921875
-51.26953125,-21.97265625,-47.8515625,-39.55078125
-33.203125,-3.90625,-47.36328125,-37.59765625
-34.1796875,-97.65625,-51.7578125,-41.015625
-45.8984375,-124.0234375,-52.734375,-37.59765625
-39.55078125,-59.08203125,-54.6875,-29.78515625
-27.83203125,23.4375,-59.5703125,-27.83203125
-24.4140625,34.1796875,-54.19921875,-22.94921875
-30.2734375,-80.078125,-49.8046875,-26.3671875
-49.8046875,-119.62890625,-54.6875,-36.1328125
-57.12890625,-71.77734375,-56.15234375,-34.66796875
-48.33984375,47.8515625,-52.734375,-35.64453125
-40.52734375,59.08203125,-48.33984375,-42.96875
-43.45703125,-111.328125,-51.26953125,-44.43359375
-56.640625,-183.59375,-57.6171875,-51.7578125
-59.5703125,-88.8671875,-59.5703125,-53.7109375
-49.31640625,34.66796875,-56.15234375,-47.36328125
-35.15625,41.015625,-51.7578125,-47.8515625
-34.66796875,-60.05859375,-46.875,-45.8984375
-48.33984375,-113.28125,-46.38671875,-47.36328125
-57.6171875,-114.2578125,-52.734375,-41.50390625
-51.7578125,19.53125,-58.59375,-40.52734375
-42.48046875,67.3828125,-55.17578125,-44.43359375
-40.52734375,0.0,-48.33984375,-44.43359375
-45.8984375,-143.5546875,-46.875,-48.828125
-59.5703125,-159.1796875,-48.828125,-42.48046875
-55.6640625,33.69140625,-52.24609375,-34.1796875
-39.0625,60.546875,-51.26953125,-43.9453125
-27.83203125,-56.640625,-58.10546875,-43.45703125
-15.13671875,-133.7890625,-61.03515625,-18.5546875
-48.33984375,-138.671875,-51.7578125,-47.36328125
-84.9609375,-16.11328125,-50.29296875,-85.44921875
-70.80078125,37.59765625,-47.36328125,-81.54296875
-65.91796875,-43.45703125,-39.0625,-81.54296875
-88.37890625,-100.5859375,-42.48046875,-89.35546875
-112.79296875,-64.94140625,-47.8515625,-98.6328125
-124.0234375,-52.24609375,-44.921875,-107.421875
-131.8359375,-47.36328125,-44.921875,-118.65234375
-131.34765625,-54.19921875,-46.38671875,-127.44140625
-133.7890625,-142.08984375,-48.828125,-121.09375
-155.76171875,-155.76171875,-52.734375,-125.9765625
-149.90234375,-25.390625,-46.875,-130.37109375
-147.94921875,40.0390625,-36.62109375,-125.9765625
-159.1796875,-36.1328125,-35.64453125,-128.41796875
-148.92578125,-132.32421875,-35.15625,-129.39453125
-147.4609375,-163.0859375,-35.64453125,-120.1171875
-145.99609375,-63.4765625,-37.109375,-108.88671875
-127.44140625,90.33203125,-35.64453125,-107.421875
-112.79296875,-7.8125,-40.0390625,-100.09765625
-109.375,-159.66796875,-42.96875,-99.609375
-110.3515625,-165.52734375,-41.015625,-98.6328125
-104.00390625,-78.125,-34.66796875,-79.1015625
-94.23828125,24.90234375,-34.1796875,-72.265625
-77.63671875,12.20703125,-40.0390625,-81.54296875
-70.80078125,-90.33203125,-37.59765625,-76.171875
-85.44921875,-156.73828125,-39.55078125,-78.61328125
-89.84375,-74.21875,-39.0625,-73.2421875
-76.171875,29.78515625,-38.0859375,-61.5234375
-59.5703125,18.06640625,-38.0859375,-57.12890625
-45.8984375,-40.0390625,-32.2265625,-56.15234375
-52.734375,-164.55078125,-38.57421875,-62.5
-61.03515625,-139.16015625,-46.38671875,-55.17578125
-46.38671875,21.97265625,-42.96875,-43.9453125
-37.59765625,32.71484375,-48.33984375,-41.50390625
-41.50390625,-80.56640625,-46.38671875,-47.36328125
-50.78125,-146.97265625,-38.0859375,-42.96875
-61.5234375,-110.83984375,-41.015625,-41.015625
-52.734375,11.23046875,-39.55078125,-39.0625
-35.15625,52.24609375,-40.0390625,-39.0625
-38.0859375,-45.41015625,-42.48046875,-47.36328125
-36.1328125,-116.2109375,-33.69140625,-39.55078125
-38.0859375,-70.3125,-36.62109375,-36.62109375
-51.7578125,-0.9765625,-44.43359375,-48.828125
-37.59765625,-26.3671875,-43.9453125,-48.828125
-25.87890625,-57.12890625,-47.8515625,-45.41015625
-41.015625,-114.2578125,-49.8046875,-43.9453125
-41.9921875,-108.3984375,-46.875,-36.62109375
-40.52734375,7.32421875,-47.8515625,-35.15625
-37.59765625,37.59765625,-49.8046875,-44.921875
-38.57421875,-42.48046875,-52.734375,-53.7109375
-44.921875,-109.86328125,-45.41015625,-54.6875
-56.640625,-158.69140625,-47.36328125,-60.546875
-59.08203125,-48.33984375,-53.7109375,-52.734375
-27.83203125,105.95703125,-49.31640625,-29.296875
-28.80859375,-21.484375,-42.48046875,-30.76171875
-64.453125,-166.50390625,-41.015625,-57.6171875
-60.546875,-111.81640625,-43.45703125,-47.8515625
-57.12890625,-35.15625,-48.828125,-34.1796875
-58.10546875,-7.8125,-50.29296875,-39.55078125
-41.015625,-9.765625,-43.9453125,-40.0390625
-46.38671875,-108.88671875,-44.921875,-44.921875
-54.6875,-130.859375,-46.38671875,-52.24609375
-57.12890625,-60.05859375,-46.38671875,-54.19921875
-48.33984375,13.671875,-40.52734375,-45.41015625
-26.85546875,34.66796875,-32.2265625,-37.59765625
-30.76171875,-21.97265625,-34.66796875,-43.45703125
-52.24609375,-138.18359375,-43.45703125,-52.734375
-58.10546875,-138.671875,-48.828125,-46.38671875
-52.24609375,6.8359375,-49.8046875,-44.43359375
-42.48046875,40.52734375,-48.33984375,-47.36328125
-37.59765625,-52.734375,-41.50390625,-47.8515625
-45.8984375,-107.421875,-45.41015625,-43.45703125
-50.29296875,-81.54296875,-54.6875,-46.875
-42.96875,-13.671875,-56.15234375,-45.41015625
-36.1328125,22.94921875,-47.36328125,-32.71484375
-36.1328125,-59.08203125,-41.50390625,-35.64453125
-40.52734375,-120.1171875,-41.015625,-39.55078125
-40.0390625,-54.19921875,-39.55078125,-32.2265625
-38.0859375,9.27734375,-39.0625,-32.71484375
-30.76171875,-7.8125,-41.9921875,-36.62109375
-25.87890625,-83.49609375,-49.31640625,-39.0625
-42.96875,-136.23046875,-47.8515625,-50.29296875
-65.4296875,-98.14453125,-45.41015625,-61.03515625
-65.4296875,6.34765625,-44.43359375,-56.15234375
-47.8515625,35.64453125,-39.0625,-51.26953125
-48.828125,-47.36328125,-43.9453125,-60.05859375
-53.7109375,-88.37890625,-45.8984375,-59.08203125
-55.17578125,-95.21484375,-48.33984375,-48.828125
-63.96484375,-29.296875,-55.6640625,-49.8046875
-51.26953125,105.95703125,-45.41015625,-46.38671875
-41.015625,-37.109375,-38.0859375,-45.8984375
-51.26953125,-172.36328125,-43.9453125,-47.8515625
-51.26953125,-87.890625,-42.48046875,-39.55078125
-48.828125,-36.1328125,-41.015625,-39.0625
-37.59765625,14.6484375,-43.9453125,-32.2265625
-29.78515625,-0.9765625,-38.57421875,-33.69140625
-30.76171875,-104.98046875,-35.64453125,-41.9921875
-42.96875,-126.953125,-41.015625,-40.0390625
-47.36328125,-41.015625,-36.1328125,-32.2265625
-34.66796875,64.453125,-26.85546875,-32.71484375
-33.203125,15.625,-29.296875,-44.43359375
-36.1328125,-81.54296875,-38.57421875,-47.8515625
-48.828125,-95.21484375,-46.875,-53.7109375
-57.6171875,-104.4921875,-48.33984375,-52.24609375
-45.41015625,-16.6015625,-49.8046875,-44.921875
-22.4609375,46.875,-54.19921875,-39.0625
-24.4140625,-84.9609375,-55.6640625,-31.73828125
-49.31640625,-146.97265625,-53.7109375,-35.15625
-52.734375,-52.24609375,-46.38671875,-34.1796875
-46.38671875,37.59765625,-34.66796875,-38.57421875
-34.1796875,42.96875,-30.2734375,-43.9453125
-35.64453125,-57.12890625,-31.25,-52.734375
-42.96875,-141.11328125,-38.57421875,-49.8046875
-39.55078125,-39.55078125,-47.36328125,-37.109375
-48.33984375,7.8125,-54.6875,-42.48046875
-42.48046875,-31.73828125,-49.8046875,-41.50390625
-30.2734375,-72.265625,-41.015625,-40.0390625
-45.8984375,-98.6328125,-43.9453125,-40.52734375
-50.78125,-95.21484375,-39.55078125,-36.1328125
-28.3203125,-27.34375,-40.52734375,-20.99609375
-21.97265625,44.43359375,-43.9453125,-30.76171875
-42.96875,-53.22265625,-46.875,-57.6171875
-51.7578125,-110.83984375,-50.29296875,-55.6640625
-47.36328125,-110.3515625,-53.7109375,-42.96875
-41.9921875,8.30078125,-61.03515625,-47.8515625
-23.92578125,161.1328125,-54.19921875,-46.875
-27.34375,-21.484375,-61.5234375,-58.59375
-49.8046875,-180.6640625,-72.265625,-79.1015625
-54.19921875,-107.91015625,-63.96484375,-66.89453125
-50.29296875,26.3671875,-61.5234375,-54.6875
-38.57421875,46.38671875,-64.94140625,-52.734375
-30.2734375,-5.859375,-62.01171875,-52.24609375
-39.55078125,-35.64453125,-57.6171875,-56.15234375
-52.24609375,-111.328125,-59.5703125,-49.8046875
-52.24609375,-29.296875,-61.5234375,-49.8046875
-40.52734375,57.6171875,-63.4765625,-45.41015625
-33.69140625,4.39453125,-59.08203125,-45.8984375
-34.1796875,-46.875,-55.17578125,-48.828125
-42.96875,-105.95703125,-59.08203125,-48.828125
-43.45703125,-62.01171875,-59.5703125,-48.33984375
-29.296875,42.96875,-54.19921875,-42.48046875
-28.3203125,14.6484375,-49.8046875,-38.0859375
-33.69140625,-64.453125,-53.7109375,-45.8984375
-38.57421875,-126.46484375,-55.6640625,-44.43359375
-40.52734375,-61.03515625,-49.8046875,-36.62109375
-31.73828125,28.80859375,-47.36328125,-38.57421875
-26.85546875,32.2265625,-47.36328125,-42.96875
-29.296875,-74.70703125,-50.78125,-41.50390625
-41.015625,-121.58203125,-56.15234375,-46.38671875
-47.36328125,-12.6953125,-54.19921875,-43.9453125
-43.9453125,-9.765625,-55.6640625,-38.57421875
-38.57421875,-32.2265625,-56.15234375,-44.921875
-39.55078125,-86.42578125,-56.640625,-47.8515625
-41.015625,-135.7421875,-59.5703125,-42.96875
-43.9453125,-97.65625,-56.640625,-34.66796875
-47.8515625,9.765625,-58.59375,-39.0625
-37.109375,46.875,-60.05859375,-48.828125
-33.69140625,-80.078125,-55.6640625,-46.875
-36.1328125,-102.05078125,-55.6640625,-43.45703125
-34.66796875,-67.87109375,-57.6171875,-37.59765625
-36.62109375,45.41015625,-57.12890625,-38.57421875
-21.484375,127.9296875,-56.640625,-34.66796875
-17.578125,-13.18359375,-59.5703125,-37.109375
-29.78515625,-192.3828125,-56.15234375,-41.50390625
-39.0625,-187.5,-57.6171875,-35.64453125
-47.36328125,4.39453125,-70.3125,-42.48046875
-34.1796875,49.31640625,-66.89453125,-33.69140625
-25.87890625,-36.1328125,-59.08203125,-30.2734375
-41.015625,-118.1640625,-58.10546875,-48.33984375
-53.22265625,-123.046875,-60.546875,-48.33984375
-56.15234375,5.37109375,-64.94140625,-38.57421875
-50.29296875,16.11328125,-61.5234375,-35.64453125
-41.015625,-22.4609375,-53.22265625,-31.73828125
-50.29296875,-31.25,-50.29296875,-40.0390625
-57.6171875,-127.9296875,-55.6640625,-49.31640625
-57.12890625,-59.08203125,-55.6640625,-44.921875
-44.921875,74.21875,-52.24609375,-35.15625
-28.80859375,7.8125,-46.38671875,-32.2265625
-31.73828125,-159.66796875,-42.96875,-34.1796875
-42.96875,-150.390625,-48.828125,-30.2734375
-46.875,-42.96875,-48.33984375,-29.296875
-39.0625,42.96875,-45.8984375,-32.71484375
-25.87890625,33.69140625,-45.8984375,-32.71484375
-28.80859375,-111.81640625,-44.43359375,-36.62109375
-44.43359375,-110.83984375,-45.8984375,-42.48046875
-53.7109375,30.2734375,-44.921875,-39.55078125
-43.9453125,22.4609375,-43.9453125,-37.109375
-30.2734375,-34.66796875,-48.828125,-41.50390625
-42.96875,-108.3984375,-53.22265625,-43.9453125
-48.33984375,-123.046875,-52.734375,-35.15625
-39.55078125,-45.8984375,-54.6875,-33.69140625
-34.1796875,51.26953125,-62.01171875,-41.9921875
-36.1328125,34.1796875,-58.10546875,-42.96875
-45.8984375,-123.53515625,-50.29296875,-46.875
-52.24609375,-141.6015625,-46.875,-44.43359375
-61.5234375,-82.03125,-48.33984375,-40.52734375
-59.5703125,24.4140625,-48.33984375,-42.48046875
-44.921875,83.49609375,-46.875,-42.96875
-47.8515625,-67.3828125,-43.9453125,-43.45703125
-60.546875,-150.87890625,-48.828125,-51.7578125
-64.453125,-100.5859375,-50.78125,-44.43359375
-52.24609375,8.30078125,-44.43359375,-36.1328125
-41.50390625,34.66796875,-47.36328125,-43.45703125
-42.48046875,-44.921875,-49.31640625,-48.828125
-50.29296875,-87.40234375,-48.33984375,-55.17578125
-49.8046875,-113.28125,-50.29296875,-48.828125
-48.828125,44.921875,-53.7109375,-43.45703125
-38.57421875,77.1484375,-54.19921875,-49.8046875
-38.57421875,-65.4296875,-51.26953125,-59.5703125
-54.6875,-55.17578125,-54.19921875,-63.96484375
-59.08203125,-104.4921875,-56.15234375,-54.6875
-66.40625,-73.2421875,-57.12890625,-44.43359375
-57.12890625,21.484375,-51.7578125,-52.24609375
-38.57421875,-35.15625,-43.9453125,-58.59375
-49.8046875,-107.421875,-49.31640625,-51.7578125
-63.4765625,-117.1875,-55.17578125,-50.78125
-63.96484375,-14.6484375,-51.7578125,-49.31640625
-46.38671875,55.6640625,-55.17578125,-44.921875
-22.94921875,-11.23046875,-61.5234375,-29.296875
-25.87890625,-102.5390625,-49.8046875,-12.6953125
-64.94140625,-148.4375,-44.921875,-35.15625
-83.0078125,-30.2734375,-44.43359375,-42.48046875
-59.08203125,40.0390625,-47.36328125,-35.15625
-45.8984375,-92.28515625,-43.45703125,-32.2265625
-60.546875,-155.76171875,-38.57421875,-34.66796875
-74.21875,-137.6953125,-39.0625,-34.66796875
-75.68359375,-73.73046875,-36.62109375,-27.83203125
-61.5234375,22.94921875,-37.109375,-16.11328125
-48.828125,-8.30078125,-35.15625,-18.06640625
-57.12890625,-100.09765625,-29.78515625,-26.3671875
-65.91796875,-150.87890625,-29.78515625,-29.296875
-60.546875,-107.421875,-34.66796875,-28.80859375
-50.78125,37.59765625,-31.25,-22.4609375
-37.109375,59.5703125,-30.2734375,-26.85546875
-47.36328125,-162.109375,-37.109375,-36.1328125
-59.08203125,-195.3125,-40.52734375,-42.96875
-59.5703125,-39.55078125,-42.48046875,-36.62109375
-66.40625,46.38671875,-42.96875,-33.203125
-56.640625,-16.11328125,-41.9921875,-43.45703125
-45.41015625,-122.0703125,-41.9921875,-47.8515625
-56.640625,-133.30078125,-42.96875,-52.24609375
-64.94140625,-76.171875,-43.45703125,-46.875
-56.640625,25.87890625,-40.0390625,-36.62109375
-46.38671875,0.0,-34.66796875,-35.64453125
-37.109375,-79.58984375,-36.1328125,-36.62109375
-39.0625,-49.31640625,-38.0859375,-30.2734375
-44.43359375,-126.953125,-34.66796875,-28.3203125
-40.52734375,-72.265625,-34.1796875,-31.25
-23.92578125,52.24609375,-36.62109375,-22.4609375
-17.08984375,-41.9921875,-35.64453125,-27.83203125
-34.66796875,-134.27734375,-37.59765625,-41.015625
-44.43359375,-111.81640625,-38.0859375,-33.69140625
-43.9453125,3.90625,-41.015625,-37.109375
-34.66796875,20.5078125,-43.9453125,-43.9453125
-29.296875,-48.33984375,-41.50390625,-32.71484375
-40.0390625,-84.47265625,-39.55078125,-28.80859375
-45.8984375,-67.87109375,-40.0390625,-31.25
-47.36328125,20.99609375,-38.0859375,-26.3671875
-37.59765625,18.5546875,-38.0859375,-25.87890625
-39.55078125,-62.5,-39.55078125,-30.76171875
-53.22265625,-136.71875,-34.66796875,-33.203125
-66.89453125,-146.97265625,-40.0390625,-39.0625
-61.5234375,-33.69140625,-42.96875,-42.96875
-35.64453125,46.38671875,-41.50390625,-34.66796875
-16.11328125,-9.27734375,-41.9921875,-20.5078125
-31.73828125,-110.3515625,-39.0625,-29.78515625
-53.7109375,-105.95703125,-39.0625,-39.0625
-57.6171875,-34.1796875,-38.57421875,-32.71484375
-44.921875,22.94921875,-45.8984375,-24.90234375
-31.73828125,36.1328125,-45.41015625,-12.6953125
-39.55078125,-124.51171875,-38.0859375,-20.99609375
-49.31640625,-187.98828125,-41.015625,-30.76171875
-51.7578125,-66.89453125,-53.7109375,-25.390625
-44.43359375,65.4296875,-52.24609375,-29.296875
-25.87890625,24.90234375,-38.57421875,-33.203125
-28.3203125,-137.6953125,-40.52734375,-41.015625
-51.7578125,-125.48828125,-44.921875,-44.43359375
-56.640625,-45.41015625,-45.41015625,-42.96875
-50.78125,27.83203125,-46.875,-42.96875
-41.9921875,4.8828125,-46.38671875,-39.55078125
-35.15625,-74.21875,-46.875,-41.9921875
-41.015625,-90.8203125,-47.36328125,-45.41015625
-50.78125,-69.3359375,-45.8984375,-48.828125
-43.45703125,-1.46484375,-46.38671875,-49.31640625
-30.76171875,-24.90234375,-44.921875,-47.8515625
-28.80859375,-81.0546875,-43.45703125,-39.0625
-34.66796875,-120.60546875,-41.9921875,-31.25
-38.0859375,-119.62890625,-42.48046875,-34.1796875
-38.0859375,-0.9765625,-45.8984375,-33.69140625
-27.34375,62.01171875,-41.9921875,-36.62109375
-28.80859375,-39.55078125,-41.015625,-44.921875
-46.38671875,-143.06640625,-49.8046875,-50.29296875
-58.59375,-105.46875,-53.22265625,-44.921875
-55.6640625,71.77734375,-49.31640625,-42.48046875
-47.36328125,49.8046875,-46.875,-48.33984375
-47.36328125,-69.82421875,-49.8046875,-42.96875
-44.43359375,-122.0703125,-45.41015625,-32.71484375
-53.7109375,-108.88671875,-40.0390625,-42.48046875
-59.08203125,-26.3671875,-43.9453125,-47.36328125
-42.96875,24.90234375,-41.9921875,-43.9453125
-43.9453125,-20.5078125,-38.0859375,-54.19921875
-56.15234375,-120.60546875,-43.45703125,-52.24609375
-65.91796875,-129.39453125,-46.38671875,-62.01171875
-76.171875,-30.2734375,-46.875,-79.1015625
-65.91796875,58.59375,-44.43359375,-75.68359375
-53.22265625,80.078125,-41.015625,-76.66015625
-45.41015625,-118.65234375,-44.43359375,-80.56640625
-48.33984375,-171.38671875,-53.22265625,-77.1484375
-51.7578125,15.13671875,-49.31640625,-55.6640625
-64.453125,53.22265625,-38.57421875,-56.15234375
-71.2890625,-27.34375,-38.0859375,-68.84765625
-70.80078125,-84.47265625,-39.0625,-71.2890625
-71.77734375,-100.09765625,-38.57421875,-57.6171875
-64.453125,-70.3125,-30.2734375,-45.8984375
-74.21875,-10.7421875,-25.390625,-57.6171875
-66.40625,-11.23046875,-28.80859375,-44.43359375
-50.78125,-88.37890625,-29.296875,-47.8515625
-57.12890625,-83.49609375,-25.390625,-64.94140625
-58.59375,-103.515625,-26.85546875,-38.57421875
-51.7578125,-46.38671875,-26.3671875,-31.73828125
-48.828125,20.01953125,-24.90234375,-49.31640625
-45.41015625,-113.28125,-20.5078125,-40.52734375
-42.48046875,-163.57421875,-20.99609375,-33.69140625
-40.0390625,-83.49609375,-28.80859375,-27.34375
-39.55078125,-4.39453125,-32.2265625,-24.4140625
-20.5078125,-15.13671875,-32.71484375,-17.578125
-8.30078125,-94.7265625,-32.71484375,-4.8828125
-27.83203125,-127.9296875,-31.25,-9.765625
-30.76171875,-122.0703125,-33.69140625,-7.8125
-21.97265625,-3.90625,-36.62109375,-7.32421875
-21.484375,-8.30078125,-41.9921875,-20.01953125
-8.7890625,-99.609375,-42.48046875,-24.4140625
-7.8125,-128.41796875,-38.0859375,-25.87890625
-11.23046875,-113.76953125,-32.71484375,-8.7890625
-8.7890625,16.11328125,-32.71484375,-4.39453125
2.44140625,56.640625,-34.66796875,-16.6015625
3.41796875,-62.98828125,-28.80859375,-18.06640625
-5.859375,-152.34375,-29.78515625,-23.92578125
-8.30078125,-112.79296875,-34.1796875,-22.94921875
-3.90625,-6.34765625,-32.71484375,-10.7421875
0.0,42.96875,-37.59765625,-18.06640625
-14.16015625,-2.9296875,-43.9453125,-24.90234375
-22.4609375,-131.8359375,-47.36328125,-27.34375
-33.203125,-187.98828125,-45.8984375,-27.34375
-41.015625,-63.4765625,-42.96875,-17.08984375
-18.5546875,25.87890625,-44.43359375,-20.99609375
-12.20703125,-28.80859375,-45.8984375,-36.1328125
-23.92578125,-124.51171875,-44.921875,-34.66796875
-28.3203125,-141.11328125,-45.8984375,-29.296875
-31.25,-29.78515625,-41.50390625,-21.484375
-13.18359375,46.875,-41.015625,-14.6484375
-0.9765625,22.94921875,-44.921875,-18.06640625
-17.08984375,-74.21875,-45.41015625,-15.625
-27.83203125,-98.14453125,-43.9453125,-10.25390625
-28.3203125,-60.05859375,-39.0625,-6.8359375
-19.53125,8.7890625,-32.71484375,-4.39453125
-16.6015625,-5.37109375,-31.25,-1.46484375
-20.99609375,-81.54296875,-40.0390625,-9.765625
-30.2734375,-148.92578125,-41.015625,-13.18359375
-38.57421875,-83.0078125,-43.9453125,-21.484375
-37.109375,60.05859375,-46.875,-29.296875
-35.64453125,9.765625,-40.52734375,-31.25
-34.66796875,-133.7890625,-41.9921875,-36.62109375
-43.9453125,-142.08984375,-44.43359375,-33.203125
-49.31640625,-47.36328125,-43.9453125,-27.83203125
-42.96875,73.73046875,-42.96875,-28.80859375
-28.3203125,-16.11328125,-39.0625,-26.85546875
-31.25,-113.28125,-37.59765625,-28.3203125
-41.015625,-135.25390625,-42.48046875,-36.1328125
-40.52734375,-86.9140625,-43.45703125,-28.3203125
-29.296875,18.5546875,-42.48046875,-20.5078125
-13.18359375,55.6640625,-38.0859375,-31.73828125
-18.06640625,-37.59765625,-37.59765625,-36.62109375
-36.62109375,-179.6875,-49.31640625,-41.50390625
-35.64453125,-104.98046875,-51.26953125,-41.50390625
-30.2734375,2.9296875,-47.8515625,-38.57421875
-26.85546875,28.80859375,-50.78125,-52.734375
-25.87890625,8.30078125,-53.22265625,-54.19921875
-31.73828125,-126.953125,-53.7109375,-43.9453125
-30.76171875,-167.48046875,-52.24609375,-38.57421875
-35.15625,-21.484375,-56.15234375,-39.0625
-32.2265625,47.36328125,-55.17578125,-40.52734375
-26.85546875,-42.48046875,-49.31640625,-35.64453125
-40.0390625,-128.41796875,-44.921875,-26.3671875
-50.78125,-90.33203125,-44.43359375,-33.69140625
-50.78125,-14.16015625,-48.33984375,-38.0859375
-46.38671875,40.0390625,-45.41015625,-29.296875
-42.48046875,-6.34765625,-37.109375,-35.15625
-41.9921875,-129.39453125,-34.66796875,-39.55078125
-51.7578125,-86.42578125,-44.43359375,-38.0859375
-53.7109375,-37.109375,-49.8046875,-36.1328125
-43.45703125,0.48828125,-52.24609375,-40.0390625
-40.0390625,-8.30078125,-56.15234375,-37.109375
-43.9453125,-96.6796875,-53.7109375,-34.66796875
-46.875,-121.09375,-50.78125,-39.55078125
-44.921875,-38.57421875,-49.31640625,-29.78515625
-40.0390625,49.31640625,-51.26953125,-17.578125
-33.203125,11.23046875,-49.31640625,-23.92578125
-37.59765625,-99.609375,-48.33984375,-32.2265625
-53.7109375,-128.90625,-53.7109375,-38.0859375
-45.8984375,-42.96875,-49.8046875,-34.66796875
-31.73828125,78.61328125,-49.31640625,-25.87890625
-26.3671875,3.90625,-50.78125,-36.62109375
-31.73828125,-181.15234375,-49.31640625,-48.33984375
-39.55078125,-145.99609375,-54.6875,-41.9921875
-38.0859375,-41.50390625,-53.7109375,-34.1796875
-36.62109375,9.27734375,-48.828125,-29.296875
-24.90234375,19.04296875,-48.33984375,-30.2734375
-20.99609375,-69.82421875,-46.38671875,-27.83203125
-36.1328125,-101.5625,-45.8984375,-30.2734375
-49.8046875,-69.3359375,-49.8046875,-32.2265625
-44.921875,3.90625,-51.26953125,-29.78515625
-33.203125,57.12890625,-48.828125,-29.296875
-28.3203125,8.7890625,-48.33984375,-38.57421875
-48.33984375,-146.484375,-54.6875,-45.8984375
-52.24609375,-160.64453125,-55.6640625,-35.15625
-36.1328125,37.59765625,-49.8046875,-31.25
-25.87890625,63.4765625,-45.8984375,-35.64453125
-24.90234375,-68.359375,-46.38671875,-37.59765625
-28.3203125,-122.0703125,-45.41015625,-41.015625
-34.1796875,-124.0234375,-42.96875,-33.69140625
-39.55078125,13.18359375,-47.8515625,-34.66796875
-25.87890625,94.7265625,-44.43359375,-32.2265625
-25.390625,-18.5546875,-41.50390625,-35.64453125
-41.9921875,-125.9765625,-50.78125,-41.9921875
-48.33984375,-93.26171875,-48.33984375,-31.25
-56.15234375,-64.94140625,-47.36328125,-37.109375
-47.36328125,17.08984375,-52.24609375,-48.828125
-42.96875,-6.8359375,-49.8046875,-54.19921875
-53.22265625,-130.859375,-51.26953125,-61.5234375
-58.10546875,-139.16015625,-54.19921875,-50.78125
-59.08203125,-19.53125,-53.22265625,-47.8515625
-46.38671875,60.05859375,-48.828125,-42.48046875
-43.9453125,-59.5703125,-46.875,-34.1796875
-49.31640625,-134.27734375,-46.38671875,-42.48046875
-45.8984375,-131.34765625,-44.921875,-33.69140625
-47.8515625,-53.22265625,-49.8046875,-30.2734375
-44.921875,73.2421875,-52.734375,-41.50390625
-28.80859375,-5.859375,-52.24609375,-42.96875
-31.73828125,-149.90234375,-52.24609375,-43.9453125
-54.6875,-159.66796875,-55.6640625,-51.7578125
-55.6640625,-62.98828125,-59.08203125,-42.96875
-46.38671875,25.390625,-59.5703125,-41.015625
-46.38671875,6.8359375,-60.546875,-53.7109375
-41.015625,-88.8671875,-55.6640625,-56.15234375
-52.734375,-145.99609375,-56.15234375,-53.22265625
-65.91796875,-46.38671875,-55.6640625,-49.8046875
-56.15234375,45.41015625,-53.22265625,-47.36328125
-40.0390625,17.578125,-53.7109375,-41.015625
-45.41015625,-20.99609375,-50.29296875,-41.50390625
-69.3359375,-163.0859375,-44.43359375,-47.8515625
-76.66015625,-146.97265625,-42.48046875,-46.875
-60.05859375,20.99609375,-45.41015625,-34.66796875
-46.875,36.1328125,-46.875,-33.69140625
-48.33984375,-90.33203125,-46.875,-49.31640625
-55.6640625,-131.34765625,-43.9453125,-56.15234375
-57.6171875,-73.2421875,-41.015625,-49.8046875
-49.31640625,21.97265625,-46.875,-47.36328125
-38.57421875,46.38671875,-44.921875,-48.828125
-47.36328125,-78.61328125,-38.0859375,-50.78125
-55.6640625,-113.28125,-40.0390625,-50.78125
-52.24609375,-52.24609375,-41.50390625,-50.29296875
-49.8046875,27.83203125,-45.8984375,-48.33984375
-39.0625,-1.953125,-46.38671875,-42.96875
-41.015625,-89.35546875,-46.38671875,-44.43359375
-50.78125,-146.484375,-50.29296875,-45.8984375
-57.12890625,-132.32421875,-46.875,-43.9453125
-58.10546875,13.671875,-42.96875,-38.57421875
-40.52734375,79.58984375,-40.52734375,-32.2265625
-35.15625,-38.57421875,-44.921875,-41.50390625
-46.38671875,-128.41796875,-42.48046875,-48.828125
-52.734375,-122.55859375,-35.15625,-41.015625
-54.19921875,28.3203125,-38.0859375,-42.48046875
-36.1328125,124.0234375,-37.109375,-43.45703125
-34.1796875,-54.19921875,-37.59765625,-44.43359375
-46.875,-173.33984375,-41.015625,-55.17578125
-57.6171875,-126.46484375,-44.43359375,-53.22265625
-52.734375,6.8359375,-42.96875,-48.828125
-38.57421875,37.109375,-43.45703125,-54.19921875
-40.52734375,-31.73828125,-43.9453125,-51.7578125
-48.828125,-131.34765625,-42.96875,-48.33984375
-54.19921875,-145.01953125,-41.015625,-41.9921875
-55.17578125,-54.6875,-41.50390625,-34.1796875
-45.41015625,35.15625,-41.015625,-31.73828125
-33.203125,19.53125,-39.55078125,-30.2734375
-31.73828125,-45.8984375,-43.45703125,-34.1796875
-43.9453125,-141.11328125,-48.33984375,-46.38671875
-52.24609375,-114.74609375,-49.8046875,-41.015625
-38.57421875,45.41015625,-43.45703125,-29.78515625
-27.34375,38.57421875,-41.015625,-32.2265625
-27.34375,-94.23828125,-41.50390625,-31.73828125
-39.55078125,-135.7421875,-45.41015625,-32.2265625
-46.38671875,-54.6875,-48.828125,-29.296875
-41.015625,-9.765625,-47.36328125,-33.69140625
-32.71484375,4.39453125,-42.96875,-38.57421875
-28.3203125,-43.45703125,-41.015625,-35.64453125
-34.66796875,-139.6484375,-42.96875,-42.48046875
-43.9453125,-60.05859375,-43.45703125,-45.41015625
-40.52734375,29.296875,-45.8984375,-37.109375
-32.2265625,-11.71875,-47.36328125,-35.64453125
-32.71484375,-69.3359375,-45.8984375,-47.36328125
-41.015625,-85.44921875,-48.828125,-48.828125
-51.7578125,-106.4453125,-51.7578125,-40.52734375
-52.734375,-16.11328125,-53.22265625,-36.62109375
-38.0859375,41.015625,-48.828125,-36.1328125
-31.73828125,-68.84765625,-46.875,-41.50390625
-39.0625,-93.26171875,-51.7578125,-41.015625
-47.36328125,-89.84375,-51.7578125,-35.15625
-47.8515625,-23.92578125,-50.78125,-34.66796875
-34.66796875,76.171875,-50.78125,-33.203125
-32.2265625,-62.5,-51.7578125,-33.203125
-36.62109375,-179.6875,-54.6875,-33.203125
-40.52734375,-99.609375,-56.640625,-36.62109375
-36.62109375,7.32421875,-52.24609375,-34.66796875
-24.90234375,27.83203125,-46.875,-35.15625
-21.97265625,-8.30078125,-44.43359375,-42.96875
-22.4609375,-99.12109375,-44.43359375,-40.0390625
-29.78515625,-143.5546875,-46.38671875,-37.59765625
-35.64453125,-24.4140625,-46.38671875,-39.55078125
-33.69140625,40.0390625,-45.41015625,-41.015625
-29.78515625,-3.90625,-48.33984375,-44.43359375
-29.296875,-41.015625,-48.33984375,-43.45703125
-42.96875,-114.74609375,-53.22265625,-44.921875
-51.7578125,-104.4921875,-59.08203125,-42.96875
-44.43359375,25.87890625,-49.8046875,-36.1328125
-39.55078125,0.48828125,-42.96875,-36.1328125
-41.50390625,-101.5625,-42.96875,-39.55078125
-48.828125,-122.0703125,-48.33984375,-39.0625
-48.33984375,-81.0546875,-53.22265625,-41.015625
-31.25,26.3671875,-46.38671875,-47.36328125
-20.5078125,21.97265625,-41.50390625,-41.9921875
-31.25,-79.58984375,-42.96875,-40.0390625
-44.921875,-112.3046875,-42.48046875,-44.921875
-46.875,-40.0390625,-49.31640625,-45.8984375
-43.9453125,8.30078125,-49.8046875,-45.41015625
-39.55078125,-21.97265625,-40.52734375,-43.9453125
-41.015625,-79.1015625,-43.9453125,-40.52734375
-49.8046875,-105.95703125,-49.31640625,-44.43359375
-56.640625,-117.67578125,-47.36328125,-45.8984375
-54.19921875,19.04296875,-49.31640625,-42.48046875
-43.9453125,31.73828125,-53.22265625,-46.875
-50.29296875,-70.3125,-48.828125,-52.734375
-59.08203125,-100.5859375,-44.921875,-47.8515625
-59.5703125,-102.05078125,-47.36328125,-38.0859375
-51.26953125,45.8984375,-48.33984375,-45.8984375
-41.50390625,89.35546875,-44.921875,-49.8046875
-48.828125,-88.37890625,-43.45703125,-49.31640625
-56.640625,-176.26953125,-46.38671875,-45.41015625
-57.6171875,-125.0,-44.43359375,-42.96875
-48.828125,32.71484375,-44.921875,-37.109375
-31.73828125,47.8515625,-49.8046875,-34.1796875
-37.59765625,-37.109375,-52.734375,-54.6875
-54.6875,-97.16796875,-54.19921875,-61.03515625
-56.640625,-131.34765625,-53.7109375,-46.38671875
-50.78125,-7.8125,-54.19921875,-36.62109375
-45.8984375,47.36328125,-58.59375,-34.66796875
-47.36328125,-0.48828125,-58.59375,-46.875
-48.828125,-43.9453125,-57.6171875,-57.6171875
-56.640625,-142.08984375,-60.05859375,-51.26953125
-63.4765625,-72.75390625,-64.453125,-49.31640625
-48.33984375,25.87890625,-69.3359375,-56.640625
-37.109375,-41.015625,-67.87109375,-58.59375
-42.96875,-106.4453125,-63.4765625,-57.12890625
-46.875,-83.0078125,-61.5234375,-56.640625
-46.38671875,-18.5546875,-62.98828125,-51.7578125
-42.48046875,13.671875,-58.59375,-44.921875
-38.57421875,18.5546875,-55.6640625,-41.9921875
-44.43359375,-68.84765625,-60.05859375,-46.38671875
-52.24609375,-124.0234375,-58.10546875,-42.48046875
-48.33984375,-13.18359375,-57.12890625,-35.64453125
-34.66796875,16.11328125,-57.6171875,-41.9921875
-26.3671875,-18.5546875,-55.17578125,-46.875
-32.2265625,-87.890625,-52.734375,-37.59765625
-37.109375,-146.484375,-48.33984375,-29.78515625
-36.62109375,-72.265625,-47.36328125,-35.64453125
-29.296875,51.26953125,-45.41015625,-37.59765625
-26.85546875,37.109375,-38.57421875,-36.1328125
-34.1796875,-82.03125,-41.50390625,-42.96875
-48.33984375,-119.62890625,-47.36328125,-40.52734375
-55.17578125,-62.5,-43.45703125,-36.1328125
-42.48046875,34.1796875,-44.43359375,-34.66796875
-27.83203125,65.4296875,-47.8515625,-32.71484375
-28.80859375,-28.80859375,-43.45703125,-32.71484375
-39.55078125,-156.73828125,-48.828125,-38.0859375
-52.734375,-111.328125,-56.640625,-41.015625
-45.41015625,22.4609375,-49.31640625,-31.73828125
-34.1796875,36.1328125,-47.36328125,-31.73828125
-39.55078125,-43.9453125,-47.8515625,-39.55078125
-48.828125,-124.0234375,-44.43359375,-41.9921875
-52.24609375,-91.796875,-48.33984375,-40.52734375
-47.36328125,8.30078125,-45.41015625,-34.1796875
-48.33984375,29.78515625,-39.0625,-20.01953125
-45.8984375,-31.25,-37.59765625,-27.34375
-45.41015625,-63.96484375,-39.0625,-37.109375
-59.08203125,-124.51171875,-46.875,-36.1328125
-58.59375,-52.734375,-51.7578125,-39.0625
-46.38671875,51.26953125,-43.9453125,-39.0625
-45.41015625,-5.37109375,-40.52734375,-44.921875
-46.875,-159.66796875,-47.8515625,-49.31640625
-50.78125,-153.80859375,-54.6875,-48.33984375
-39.55078125,9.27734375,-47.8515625,-40.52734375
-20.5078125,66.40625,-41.015625,-24.90234375
-20.5078125,-1.953125,-39.55078125,-26.3671875
-29.78515625,-125.48828125,-40.52734375,-36.62109375
-43.9453125,-95.703125,-45.8984375,-40.0390625
-44.921875,61.5234375,-45.41015625,-38.0859375
-40.52734375,27.34375,-50.29296875,-31.25
-41.9921875,-88.8671875,-54.6875,-40.52734375
-35.15625,-95.21484375,-48.828125,-51.26953125
-39.55078125,-105.95703125,-47.36328125,-43.45703125
-41.9921875,-52.734375,-43.9453125,-34.1796875
-32.71484375,58.10546875,-39.0625,-30.2734375
-29.296875,46.38671875,-41.9921875,-35.64453125
-36.1328125,-109.86328125,-41.9921875,-40.0390625
-40.0390625,-125.9765625,-41.50390625,-39.55078125
-40.52734375,-41.9921875,-46.38671875,-35.15625
-42.48046875,35.64453125,-44.43359375,-36.1328125
-32.2265625,74.70703125,-41.50390625,-34.66796875
-30.76171875,-104.4921875,-47.8515625,-36.62109375
-44.43359375,-173.828125,-54.6875,-44.921875
-45.41015625,-55.6640625,-54.19921875,-35.64453125
-37.59765625,34.1796875,-54.6875,-34.1796875
-31.25,29.296875,-53.22265625,-35.64453125
-33.203125,-72.265625,-47.8515625,-34.1796875
-41.9921875,-101.5625,-46.875,-33.69140625
-53.22265625,-92.7734375,-45.41015625,-29.78515625
-50.29296875,22.4609375,-47.36328125,-38.0859375
-37.109375,73.2421875,-49.31640625,-43.45703125
-27.34375,-76.66015625,-40.52734375,-36.1328125
-31.73828125,-124.51171875,-40.52734375,-39.55078125
-48.828125,-127.9296875,-47.8515625,-47.36328125
-38.0859375,-19.04296875,-48.828125,-33.203125
-17.578125,50.29296875,-43.9453125,-19.04296875
-31.25,-26.85546875,-36.1328125,-31.73828125
-45.8984375,-134.765625,-38.57421875,-41.50390625
-58.10546875,-117.67578125,-39.0625,-46.38671875
-62.98828125,-8.30078125,-37.109375,-54.6875
-48.33984375,8.7890625,-42.48046875,-52.734375
-50.29296875,-56.15234375,-40.0390625,-56.15234375
-55.6640625,-165.52734375,-38.0859375,-57.6171875
-61.03515625,-121.09375,-36.62109375,-50.78125
-64.94140625,40.52734375,-34.66796875,-50.29296875
-55.17578125,50.29296875,-41.015625,-49.8046875
-52.734375,-83.984375,-45.8984375,-45.8984375
-62.5,-172.8515625,-44.43359375,-46.38671875
-71.2890625,-143.5546875,-48.828125,-54.6875
-67.87109375,-18.5546875,-48.828125,-50.29296875
-51.7578125,27.83203125,-41.9921875,-40.52734375
-45.41015625,-49.31640625,-40.52734375,-43.9453125
-53.7109375,-113.76953125,-39.55078125,-49.31640625
-59.08203125,-113.28125,-45.41015625,-47.8515625
-61.03515625,-65.91796875,-48.33984375,-45.41015625
-57.6171875,57.6171875,-42.96875,-49.31640625
-43.9453125,83.984375,-40.0390625,-52.734375
-51.7578125,-127.9296875,-42.48046875,-55.17578125
-63.4765625,-206.54296875,-42.48046875,-56.640625
-63.96484375,-51.7578125,-43.45703125,-50.78125
-61.03515625,52.24609375,-48.33984375,-53.7109375
-51.7578125,-36.1328125,-46.38671875,-59.08203125
-47.36328125,-98.14453125,-41.50390625,-52.734375
-54.6875,-118.1640625,-39.55078125,-45.8984375
-53.22265625,-47.8515625,-41.015625,-38.57421875
-37.109375,41.50390625,-41.50390625,-28.3203125
-27.34375,-17.578125,-38.0859375,-30.2734375
-37.109375,-79.58984375,-41.015625,-42.48046875
-43.45703125,-61.5234375,-46.875,-40.0390625
-49.8046875,-79.58984375,-49.8046875,-35.64453125
-54.6875,-29.78515625,-51.26953125,-42.96875
-41.9921875,-1.953125,-48.33984375,-43.9453125
-37.109375,-38.0859375,-48.33984375,-43.45703125
-41.9921875,-108.88671875,-48.33984375,-47.8515625
-48.33984375,-79.1015625,-46.875,-46.875
-46.38671875,57.6171875,-47.36328125,-52.734375
-36.62109375,6.8359375,-48.33984375,-55.17578125
-34.1796875,-80.078125,-48.828125,-53.22265625
-47.8515625,-133.7890625,-46.38671875,-54.19921875
-57.12890625,-92.7734375,-50.29296875,-48.33984375
-51.7578125,39.0625,-50.78125,-43.45703125
-44.43359375,-5.859375,-46.38671875,-42.48046875
-33.203125,-74.21875,-42.48046875,-33.203125
-31.25,-111.81640625,-42.48046875,-35.15625
-40.52734375,-125.0,-42.48046875,-40.0390625
-48.828125,-17.08984375,-44.43359375,-39.55078125
-43.9453125,61.03515625,-45.41015625,-38.0859375
-40.0390625,-5.859375,-44.921875,-41.015625
-52.734375,-115.234375,-50.29296875,-47.36328125
-61.03515625,-103.02734375,-52.24609375,-38.57421875
-54.6875,-4.8828125,-50.78125,-35.64453125
-41.9921875,-16.6015625,-49.8046875,-42.96875
-34.1796875,25.87890625,-47.36328125,-46.38671875
-33.69140625,-98.14453125,-46.38671875,-51.26953125
-51.26953125,-196.2890625,-49.8046875,-56.640625
-62.5,-43.45703125,-49.31640625,-56.15234375
-49.31640625,51.26953125,-44.921875,-52.24609375
-49.8046875,21.484375,-47.36328125,-56.15234375
-59.08203125,-100.5859375,-49.8046875,-58.59375
-66.89453125,-137.20703125,-51.7578125,-55.17578125
-69.82421875,-46.38671875,-49.8046875,-52.734375
-59.08203125,58.59375,-46.38671875,-49.8046875
-24.90234375,-26.85546875,-46.38671875,-20.01953125
-15.13671875,-101.5625,-41.9921875,-17.578125
-58.10546875,-41.015625,-45.41015625,-60.05859375
-70.80078125,-61.5234375,-49.31640625,-62.98828125
-68.84765625,-32.71484375,-52.734375,-68.84765625
-76.171875,8.30078125,-53.22265625,-89.35546875
-101.5625,-72.265625,-56.640625,-117.1875
-128.41796875,-117.67578125,-60.05859375,-139.16015625
-141.6015625,-69.82421875,-69.82421875,-144.04296875
-128.90625,44.43359375,-88.37890625,-137.6953125
-113.76953125,65.4296875,-93.26171875,-145.01953125
-147.94921875,-37.109375,-78.61328125,-184.5703125
-169.921875,-105.46875,-56.15234375,-198.2421875
-171.875,-34.1796875,-49.8046875,-195.80078125
-175.29296875,134.765625,-57.6171875,-196.2890625
-171.875,55.6640625,-66.89453125,-196.77734375
-172.8515625,-83.49609375,-73.2421875,-200.1953125
-174.31640625,-78.125,-75.1953125,-196.2890625
-179.6875,-51.26953125,-70.80078125,-198.2421875
-170.8984375,-9.765625,-69.82421875,-186.03515625
-148.92578125,50.29296875,-68.359375,-169.921875
-139.16015625,-1.953125,-64.94140625,-167.96875
-127.9296875,-87.890625,-70.3125,-152.34375
-120.1171875,-82.03125,-70.80078125,-132.8125
-115.234375,21.97265625,-68.84765625,-123.53515625
-96.6796875,105.95703125,-68.359375,-110.3515625
-82.03125,44.921875,-67.87109375,-97.65625
-74.70703125,-139.6484375,-64.453125,-88.8671875
-72.265625,-129.39453125,-62.01171875,-79.58984375
-65.4296875,1.46484375,-62.01171875,-70.3125
-51.7578125,63.4765625,-61.5234375,-65.4296875
-43.45703125,-6.34765625,-56.640625,-60.546875
-33.203125,-87.40234375,-50.78125,-54.6875
-36.1328125,-91.796875,-50.29296875,-50.78125
-44.43359375,-58.59375,-52.734375,-47.36328125
-29.78515625,35.15625,-51.7578125,-40.52734375
-21.97265625,10.7421875,-50.29296875,-37.109375
-24.90234375,-88.8671875,-56.640625,-38.57421875
-28.3203125,-70.3125,-58.59375,-37.109375
-33.69140625,-58.10546875,-57.6171875,-29.78515625
-21.484375,6.8359375,-53.22265625,-27.34375
-11.23046875,21.484375,-50.78125,-33.203125
-15.13671875,-76.171875,-60.546875,-35.15625
-13.18359375,-92.28515625,-58.10546875,-25.87890625
-13.671875,-46.38671875,-50.78125,-18.5546875
-9.765625,34.1796875,-51.26953125,-17.578125
4.39453125,19.53125,-47.8515625,-6.8359375
-2.9296875,-61.5234375,-41.9921875,-9.27734375
-18.06640625,-105.46875,-48.828125,-23.4375
-24.90234375,-75.1953125,-55.6640625,-23.92578125
-22.4609375,73.2421875,-53.7109375,-24.90234375
-13.671875,20.5078125,-48.33984375,-18.06640625
-13.671875,-114.74609375,-45.8984375,-15.13671875
-18.5546875,-141.11328125,-47.8515625,-19.53125
-20.5078125,-88.37890625,-47.36328125,-13.18359375
-16.6015625,28.80859375,-46.38671875,-5.859375
-13.18359375,29.296875,-48.33984375,-21.97265625
-15.625,-41.015625,-44.43359375,-37.109375
-20.01953125,-114.2578125,-39.55078125,-29.78515625
-28.80859375,-95.21484375,-42.48046875,-27.34375
-30.76171875,28.80859375,-41.9921875,-28.3203125
-22.4609375,28.80859375,-44.921875,-26.3671875
-28.80859375,-30.2734375,-51.7578125,-34.1796875
-37.109375,-100.5859375,-51.7578125,-35.15625
-38.0859375,-139.6484375,-51.7578125,-28.3203125
-36.1328125,-23.92578125,-53.22265625,-27.83203125
-27.34375,43.9453125,-54.6875,-25.390625
-22.94921875,-39.0625,-52.734375,-27.34375
-33.203125,-105.46875,-51.26953125,-32.2265625
-45.8984375,-125.0,-45.41015625,-28.3203125
-40.52734375,-33.203125,-43.45703125,-18.5546875
-31.73828125,52.24609375,-44.921875,-20.99609375
-33.69140625,-1.953125,-44.43359375,-37.109375
-38.57421875,-95.21484375,-48.828125,-40.52734375
-38.57421875,-51.7578125,-51.7578125,-33.203125
-41.9921875,-32.71484375,-54.19921875,-31.25
-33.203125,-42.48046875,-52.24609375,-37.109375
-30.2734375,4.39453125,-49.31640625,-41.015625
-33.69140625,-98.6328125,-53.22265625,-39.0625
-41.50390625,-162.59765625,-52.24609375,-41.015625
-45.8984375,-37.59765625,-51.7578125,-38.0859375
-36.62109375,54.6875,-55.17578125,-42.48046875
-33.203125,-13.671875,-53.7109375,-45.8984375
-40.0390625,-114.74609375,-52.24609375,-41.50390625
-47.8515625,-112.79296875,-50.78125,-48.33984375
-45.41015625,-32.71484375,-51.26953125,-46.875
-34.1796875,87.40234375,-51.26953125,-31.25
-29.296875,2.44140625,-54.19921875,-39.0625
-44.43359375,-129.39453125,-59.5703125,-62.5
-60.05859375,-119.140625,-64.94140625,-56.15234375
-50.78125,-67.87109375,-62.01171875,-38.0859375
-42.48046875,23.92578125,-56.15234375,-41.9921875
-42.96875,61.03515625,-60.546875,-46.38671875
-37.59765625,-60.05859375,-62.01171875,-43.45703125
-38.57421875,-170.8984375,-53.7109375,-44.43359375
-52.734375,-104.4921875,-45.8984375,-41.9921875
-54.6875,15.13671875,-45.41015625,-41.50390625
-40.52734375,32.2265625,-47.36328125,-47.36328125
-35.64453125,20.5078125,-46.875,-52.734375
-41.9921875,-114.74609375,-50.78125,-57.6171875
-50.78125,-148.92578125,-52.734375,-50.29296875
-55.17578125,-0.48828125,-52.734375,-46.38671875
-43.9453125,33.203125,-57.12890625,-47.8515625
-34.1796875,-59.5703125,-52.24609375,-42.96875
-38.57421875,-138.18359375,-50.78125,-41.015625
-46.875,-89.35546875,-52.734375,-40.52734375
-44.921875,-2.44140625,-52.734375,-33.69140625
-35.15625,37.109375,-56.15234375,-34.66796875
-32.71484375,-18.06640625,-63.4765625,-48.33984375
-32.71484375,-124.51171875,-59.5703125,-52.734375
-40.0390625,-78.125,-49.31640625,-45.41015625
-42.96875,-25.390625,-54.19921875,-39.0625
-40.0390625,-15.13671875,-56.15234375,-38.57421875
-37.59765625,-7.8125,-46.38671875,-41.015625
-40.52734375,-80.56640625,-39.55078125,-46.875
-45.41015625,-130.37109375,-41.50390625,-39.0625
-47.36328125,-32.71484375,-47.8515625,-34.66796875
-38.0859375,62.98828125,-45.8984375,-36.1328125
-35.64453125,-7.32421875,-48.828125,-36.1328125
-42.96875,-113.28125,-44.43359375,-33.69140625
-45.41015625,-112.79296875,-41.015625,-34.66796875
-47.8515625,-3.90625,-46.875,-41.015625
-41.50390625,74.21875,-43.9453125,-40.52734375
-40.52734375,-24.90234375,-39.55078125,-41.50390625
-42.96875,-163.57421875,-44.43359375,-45.8984375
-51.7578125,-144.53125,-48.33984375,-44.921875
-57.6171875,-57.12890625,-51.7578125,-41.015625
-45.41015625,27.83203125,-52.734375,-38.57421875
-34.1796875,29.296875,-40.0390625,-40.52734375
-36.62109375,-69.3359375,-40.52734375,-43.45703125
-48.33984375,-136.71875,-50.78125,-44.43359375
-51.26953125,-56.15234375,-45.41015625,-42.96875
-42.96875,34.66796875,-42.96875,-47.36328125
-41.015625,37.59765625,-44.921875,-53.7109375
-39.55078125,-36.62109375,-40.52734375,-49.31640625
-37.59765625,-158.203125,-43.9453125,-45.8984375
-46.38671875,-129.8828125,-50.78125,-43.9453125
-52.24609375,32.71484375,-50.29296875,-36.1328125
-45.8984375,55.6640625,-56.640625,-45.8984375
-43.45703125,-99.609375,-61.03515625,-58.10546875
-55.17578125,-144.53125,-58.10546875,-66.40625
-57.12890625,-76.66015625,-50.29296875,-59.5703125
-49.31640625,11.71875,-41.015625,-51.7578125
-40.0390625,41.9921875,-44.43359375,-55.6640625
-39.55078125,-69.82421875,-50.29296875,-56.640625
-44.43359375,-126.46484375,-54.19921875,-55.17578125
-49.31640625,-50.29296875,-61.03515625,-47.8515625
-52.24609375,7.8125,-54.6875,-46.875
-42.48046875,0.0,-42.96875,-47.36328125
-41.50390625,-74.21875,-38.0859375,-47.8515625
-47.36328125,-106.4453125,-35.64453125,-44.921875
-52.734375,-103.02734375,-41.9921875,-41.50390625
-53.7109375,31.25,-47.36328125,-42.48046875
-45.41015625,78.125,-42.48046875,-39.0625
-45.8984375,-51.26953125,-44.43359375,-40.52734375
-56.640625,-111.328125,-48.828125,-47.8515625
-66.40625,-113.28125,-52.24609375,-53.7109375
-65.91796875,1.46484375,-52.734375,-49.8046875
-59.08203125,84.47265625,-47.8515625,-61.5234375
-57.12890625,-39.55078125,-42.48046875,-70.80078125
-68.84765625,-159.66796875,-43.9453125,-70.3125
-87.890625,-120.60546875,-52.24609375,-81.54296875
-96.6796875,-21.484375,-51.7578125,-84.9609375
-85.44921875,53.22265625,-49.31640625,-82.51953125
-87.890625,10.25390625,-53.7109375,-91.30859375
-92.7734375,-85.44921875,-58.59375,-102.05078125
-97.16796875,-110.3515625,-57.6171875,-98.14453125
-108.88671875,4.39453125,-50.78125,-96.19140625
-116.69921875,75.1953125,-48.33984375,-114.2578125
-125.9765625,6.8359375,-52.734375,-129.39453125
-134.765625,-40.0390625,-49.8046875,-133.7890625
-148.4375,-127.44140625,-47.8515625,-145.99609375
-160.15625,-95.21484375,-55.6640625,-152.34375
-145.99609375,44.921875,-53.22265625,-143.06640625
-138.671875,47.36328125,-38.57421875,-142.08984375
-151.3671875,-50.29296875,-35.64453125,-151.85546875
-150.390625,-84.9609375,-40.0390625,-153.3203125
-154.296875,-45.41015625,-43.45703125,-158.203125
-156.73828125,54.19921875,-38.0859375,-153.3203125
-150.390625,24.90234375,-31.73828125,-147.4609375
-153.3203125,-53.7109375,-31.25,-160.15625
-159.66796875,-54.19921875,-33.203125,-166.015625
-169.921875,-38.0859375,-30.2734375,-163.57421875
-166.50390625,17.08984375,-30.76171875,-162.109375
-157.71484375,-6.34765625,-34.1796875,-163.57421875
-157.2265625,-68.359375,-25.390625,-164.55078125
-153.80859375,-88.8671875,-21.484375,-159.1796875
-157.2265625,-67.87109375,-21.484375,-151.85546875
-156.73828125,35.15625,-22.4609375,-146.484375
-136.71875,54.6875,-24.90234375,-141.11328125
-133.30078125,-34.1796875,-20.01953125,-136.23046875
-135.7421875,-100.5859375,-26.85546875,-133.7890625
-131.34765625,-100.09765625,-29.296875,-131.8359375
-137.6953125,22.94921875,-22.4609375,-127.44140625
-118.1640625,114.2578125,-20.5078125,-115.72265625
-105.46875,-40.52734375,-22.94921875,-106.93359375
-114.74609375,-170.41015625,-27.83203125,-110.83984375
-117.1875,-98.14453125,-27.83203125,-102.5390625
-105.46875,20.99609375,-24.90234375,-86.42578125
-81.54296875,20.01953125,-25.390625,-83.49609375
-80.078125,-40.52734375,-26.3671875,-88.8671875
-88.37890625,-80.56640625,-24.4140625,-90.33203125
-95.703125,-87.890625,-22.94921875,-84.9609375
-90.33203125,2.9296875,-25.87890625,-82.03125
-74.70703125,44.43359375,-28.80859375,-90.8203125
-72.265625,-4.39453125,-23.92578125,-89.84375
-75.68359375,-29.296875,-19.04296875,-89.84375
-90.8203125,-112.79296875,-27.83203125,-94.7265625
-85.44921875,-93.75,-32.71484375,-84.47265625
-66.40625,34.1796875,-33.69140625,-84.9609375
-67.3828125,-3.41796875,-35.64453125,-92.7734375
-65.91796875,-85.9375,-36.1328125,-85.44921875
-76.66015625,-89.84375,-37.59765625,-84.9609375
-81.54296875,-3.41796875,-36.62109375,-83.984375
-72.75390625,27.34375,-41.50390625,-81.54296875
-71.77734375,-4.8828125,-45.41015625,-84.47265625
-60.546875,-61.5234375,-44.43359375,-81.54296875
-47.36328125,-77.63671875,-45.41015625,-69.82421875
-54.6875,-19.53125,-47.36328125,-59.5703125
-64.453125,22.94921875,-47.36328125,-61.5234375
-51.7578125,30.76171875,-41.015625,-58.59375
-47.36328125,-43.45703125,-42.48046875,-63.96484375
-61.5234375,-111.81640625,-43.9453125,-66.40625
-62.5,-76.66015625,-40.52734375,-50.29296875
-66.40625,25.87890625,-37.59765625,-53.22265625
-66.40625,42.96875,-37.59765625,-61.5234375
-59.08203125,-48.828125,-38.0859375,-61.03515625
-64.94140625,-89.84375,-40.0390625,-64.453125
-70.80078125,-45.8984375,-42.48046875,-62.01171875
-65.4296875,3.41796875,-38.0859375,-58.10546875
-49.31640625,36.62109375,-41.015625,-53.7109375
-53.7109375,-81.0546875,-41.9921875,-61.5234375
-63.4765625,-134.765625,-40.0390625,-66.89453125
-57.6171875,-69.82421875,-46.38671875,-63.4765625
-58.10546875,7.32421875,-50.29296875,-61.03515625
-48.828125,42.48046875,-50.29296875,-55.6640625
-28.3203125,-28.3203125,-46.38671875,-45.8984375
-34.66796875,-103.02734375,-42.96875,-52.734375
-61.5234375,-96.6796875,-34.66796875,-61.03515625
-66.89453125,-6.8359375,-27.34375,-51.7578125
-53.22265625,26.85546875,-36.62109375,-49.8046875
-51.7578125,-16.11328125,-40.0390625,-57.12890625
-50.78125,-58.10546875,-37.109375,-53.22265625
-49.31640625,-123.046875,-38.0859375,-51.7578125
-52.24609375,-75.68359375,-41.9921875,-55.17578125
-49.8046875,9.27734375,-45.41015625,-56.15234375
-49.8046875,-20.99609375,-48.33984375,-54.6875
-50.78125,-93.75,-48.828125,-54.19921875
-66.89453125,-135.25390625,-52.734375,-61.5234375
-81.0546875,-22.4609375,-53.22265625,-68.359375
-64.94140625,68.359375,-47.36328125,-60.546875
-55.17578125,-4.8828125,-48.828125,-61.5234375
-65.4296875,-103.515625,-52.734375,-73.2421875
-60.546875,-84.47265625,-53.22265625,-63.96484375
-49.8046875,-5.37109375,-45.41015625,-47.8515625
-55.6640625,8.7890625,-45.8984375,-51.7578125
-49.8046875,-14.6484375,-44.921875,-49.8046875
-43.45703125,-78.61328125,-37.109375,-44.43359375
-52.734375,-71.77734375,-40.0390625,-50.29296875
-58.59375,-66.40625,-46.38671875,-50.78125
-41.9921875,-11.71875,-42.48046875,-36.1328125
-31.73828125,8.30078125,-34.1796875,-35.15625
-44.43359375,-63.4765625,-42.48046875,-50.29296875
-56.15234375,-110.83984375,-49.8046875,-53.7109375
-51.7578125,-85.9375,-47.8515625,-51.26953125
-40.0390625,61.03515625,-40.0390625,-45.41015625
-34.1796875,109.375,-29.296875,-37.59765625
-48.33984375,-76.66015625,-39.55078125,-49.31640625
-54.19921875,-147.94921875,-53.7109375,-56.640625
-46.875,-76.66015625,-46.38671875,-39.0625
-53.22265625,5.859375,-43.9453125,-36.1328125
-41.015625,23.4375,-42.96875,-43.9453125
-34.1796875,-3.90625,-35.15625,-39.0625
-48.828125,-85.44921875,-37.109375,-36.62109375
-57.6171875,-136.23046875,-45.41015625,-36.62109375
-57.6171875,-30.76171875,-43.45703125,-32.71484375
-42.96875,14.6484375,-31.25,-28.3203125
-42.96875,-74.21875,-27.83203125,-39.0625
-44.43359375,-85.9375,-33.203125,-37.59765625
-47.8515625,-88.37890625,-41.9921875,-37.109375
-59.08203125,-48.828125,-49.8046875,-47.36328125
-46.875,21.97265625,-41.015625,-42.48046875
-39.0625,-6.34765625,-33.69140625,-41.015625
-49.31640625,-104.4921875,-42.48046875,-52.24609375
-55.6640625,-108.88671875,-49.31640625,-58.10546875
-50.29296875,14.6484375,-46.38671875,-46.38671875
-47.36328125,14.6484375,-41.50390625,-43.45703125
-44.43359375,1.46484375,-41.50390625,-43.45703125
-44.921875,-80.078125,-46.38671875,-40.52734375
-58.59375,-147.4609375,-49.31640625,-46.875
-59.5703125,13.18359375,-48.33984375,-45.41015625
-42.48046875,38.0859375,-48.33984375,-34.1796875
-50.29296875,-83.49609375,-52.24609375,-42.96875
-62.5,-127.9296875,-51.7578125,-54.19921875
-59.08203125,-104.98046875,-38.57421875,-46.38671875
-66.40625,-34.66796875,-38.57421875,-45.41015625
-52.24609375,30.76171875,-41.9921875,-34.1796875
-45.8984375,3.90625,-42.96875,-40.52734375
-52.24609375,-114.74609375,-41.015625,-47.36328125
-61.03515625,-122.55859375,-40.52734375,-51.26953125
-68.84765625,-45.41015625,-43.9453125,-56.640625
-55.6640625,29.78515625,-46.38671875,-45.8984375
-48.828125,65.4296875,-48.828125,-52.24609375
-62.5,-62.01171875,-45.8984375,-70.80078125
-82.03125,-186.03515625,-45.41015625,-69.3359375
-71.77734375,-114.74609375,-44.921875,-55.17578125
-61.03515625,26.85546875,-35.64453125,-55.17578125
-52.734375,51.26953125,-31.25,-51.26953125
-46.38671875,-46.38671875,-34.1796875,-48.33984375
-52.734375,-116.2109375,-42.48046875,-45.8984375
-60.546875,-83.49609375,-46.38671875,-42.48046875
-60.546875,18.06640625,-44.43359375,-43.45703125
-42.96875,30.76171875,-40.0390625,-36.62109375
-35.15625,-83.984375,-40.52734375,-34.66796875
-45.8984375,-76.66015625,-50.78125,-36.62109375
-51.26953125,-59.5703125,-48.33984375,-26.85546875
-38.57421875,-65.4296875,-41.015625,-19.53125
-30.76171875,20.99609375,-39.55078125,-34.1796875
-37.109375,-25.390625,-42.96875,-41.50390625
-41.015625,-166.015625,-42.96875,-36.1328125
-47.36328125,-111.81640625,-42.96875,-40.0390625
-50.29296875,25.87890625,-55.17578125,-41.9921875
-31.25,28.80859375,-56.640625,-31.73828125
-37.59765625,-33.203125,-51.7578125,-42.96875
-54.6875,-123.53515625,-50.78125,-51.26953125
-54.19921875,-83.49609375,-51.26953125,-39.0625
-47.8515625,40.52734375,-49.8046875,-31.73828125
-43.45703125,-5.859375,-47.8515625,-33.69140625
-44.43359375,-65.4296875,-42.96875,-41.50390625
-44.43359375,-128.90625,-42.96875,-37.109375
-47.8515625,-120.1171875,-45.8984375,-27.83203125
-55.17578125,-62.5,-45.8984375,-28.80859375
-50.78125,34.66796875,-43.9453125,-37.59765625
-34.66796875,12.20703125,-40.0390625,-36.1328125
-31.25,-135.25390625,-40.52734375,-29.296875
-38.57421875,-118.65234375,-49.31640625,-29.296875
-36.1328125,-18.5546875,-56.15234375,-34.1796875
-22.94921875,43.45703125,-48.33984375,-36.1328125
-35.15625,21.97265625,-42.96875,-48.33984375
-49.8046875,-125.0,-45.8984375,-58.59375
-53.7109375,-167.96875,-46.875,-49.8046875
-55.6640625,-72.265625,-53.7109375,-46.875
-39.55078125,12.20703125,-54.6875,-45.8984375
-38.57421875,15.625,-43.45703125,-47.8515625
-44.921875,-78.61328125,-41.50390625,-48.828125
-46.875,-138.18359375,-45.8984375,-39.0625
-50.29296875,-68.84765625,-45.8984375,-31.73828125
-37.59765625,68.359375,-45.8984375,-33.203125
-23.4375,14.6484375,-45.41015625,-29.78515625
-14.6484375,-109.86328125,-44.921875,-22.4609375
-18.06640625,-71.2890625,-48.828125,-24.90234375
-29.78515625,-85.9375,-53.22265625,-22.4609375
-29.296875,-48.33984375,-52.734375,-23.92578125
-25.87890625,5.37109375,-52.24609375,-31.73828125
-23.4375,-63.4765625,-50.78125,-30.2734375
-26.3671875,-106.4453125,-49.8046875,-27.34375
-25.390625,-82.03125,-50.78125,-22.94921875
-23.4375,-9.27734375,-51.26953125,-20.5078125
-15.625,41.50390625,-48.828125,-15.625
-11.23046875,-20.5078125,-50.78125,-25.87890625
-10.25390625,-134.27734375,-54.6875,-26.3671875
-7.8125,-61.03515625,-45.8984375,-12.6953125
-9.765625,82.51953125,-44.43359375,-9.765625
-1.46484375,59.5703125,-48.33984375,-16.6015625
-1.46484375,-86.42578125,-52.24609375,-25.87890625
-11.71875,-212.40234375,-55.6640625,-23.92578125
-20.99609375,-141.11328125,-48.33984375,-19.04296875
-27.34375,-13.671875,-43.9453125,-18.5546875
-18.06640625,28.3203125,-48.33984375,-12.6953125
-5.859375,-37.59765625,-46.875,-9.765625
-10.7421875,-129.39453125,-43.9453125,-15.625
-33.69140625,-132.8125,-52.24609375,-17.08984375
-34.1796875,-31.73828125,-53.7109375,-17.578125
-26.85546875,28.80859375,-47.8515625,-24.4140625
-18.5546875,49.8046875,-47.8515625,-23.92578125
-0.9765625,-92.7734375,-54.6875,-20.01953125
-18.06640625,-184.08203125,-59.5703125,-30.2734375
-35.15625,-43.45703125,-57.6171875,-36.62109375
-20.99609375,34.66796875,-57.12890625,-32.71484375
-14.16015625,-37.59765625,-61.5234375,-30.76171875
-13.18359375,-118.1640625,-67.3828125,-23.92578125
-13.18359375,-115.234375,-68.359375,-15.13671875
-12.6953125,-54.6875,-57.6171875,-7.32421875
-14.6484375,30.2734375,-49.31640625,-9.765625
-5.859375,13.18359375,-45.8984375,-4.39453125
-9.27734375,-79.58984375,-46.875,-12.6953125
-19.53125,-60.05859375,-54.19921875,-20.5078125
-18.5546875,-62.01171875,-57.12890625,-5.859375
-24.4140625,-39.55078125,-58.10546875,-12.6953125
-18.06640625,0.0,-51.26953125,-19.04296875
-17.578125,-83.0078125,-50.78125,-26.3671875
-27.83203125,-143.5546875,-56.640625,-32.2265625
-32.2265625,-52.734375,-55.6640625,-26.85546875
-30.2734375,60.05859375,-50.29296875,-31.25
-29.296875,-22.4609375,-47.36328125,-38.0859375
-31.73828125,-101.07421875,-52.24609375,-45.41015625
-37.59765625,-104.98046875,-55.6640625,-53.22265625
-45.41015625,-74.21875,-54.19921875,-55.6640625
-38.57421875,72.75390625,-56.640625,-51.7578125
-44.921875,-4.39453125,-60.05859375,-60.05859375
-56.640625,-122.55859375,-58.10546875,-75.1953125
-61.03515625,-97.16796875,-52.734375,-72.265625
-66.40625,-76.66015625,-50.29296875,-55.6640625
-61.03515625,19.53125,-45.41015625,-47.36328125
-57.6171875,53.7109375,-43.9453125,-49.8046875
-47.8515625,-26.3671875,-40.52734375,-37.109375
-45.41015625,-145.5078125,-36.62109375,-34.66796875
-59.08203125,-92.28515625,-38.0859375,-33.203125
-68.359375,20.5078125,-41.015625,-31.73828125
-54.6875,15.13671875,-45.8984375,-39.55078125
-48.33984375,-2.9296875,-51.26953125,-43.45703125
-55.6640625,-121.58203125,-62.98828125,-48.33984375
-57.12890625,-138.18359375,-61.5234375,-43.9453125
-50.29296875,-10.25390625,-54.6875,-36.62109375
-44.921875,20.5078125,-55.17578125,-39.0625
-47.36328125,-13.671875,-50.29296875,-46.875
-48.828125,-83.984375,-52.734375,-53.22265625
-48.828125,-126.46484375,-62.01171875,-50.78125
-47.8515625,-10.25390625,-63.96484375,-44.921875
-36.1328125,45.41015625,-59.5703125,-36.62109375
-20.5078125,-23.4375,-57.12890625,-31.73828125
-17.578125,-70.3125,-56.15234375,-29.296875
-29.296875,-43.45703125,-62.5,-30.76171875
-39.0625,-33.203125,-67.87109375,-31.73828125
-29.296875,-35.15625,-65.4296875,-22.94921875
-16.6015625,-44.43359375,-65.4296875,-11.71875
-19.53125,-118.65234375,-66.40625,-12.20703125
-19.04296875,-115.72265625,-63.4765625,-9.27734375
-14.16015625,-32.2265625,-60.546875,-4.8828125
-7.8125,12.6953125,-59.5703125,-0.9765625
5.37109375,0.9765625,-62.01171875,-2.9296875
1.953125,-93.75,-67.87109375,-9.27734375
-8.7890625,-155.76171875,-65.4296875,-3.90625
-10.25390625,-64.453125,-64.453125,5.859375
-7.8125,58.59375,-66.89453125,1.953125
3.41796875,-21.97265625,-66.40625,-6.34765625
5.859375,-118.1640625,-62.5,-5.859375
-7.8125,-123.53515625,-62.01171875,-7.8125
-12.20703125,-80.078125,-64.94140625,2.9296875
-1.953125,-39.0625,-60.546875,18.5546875
9.27734375,-30.2734375,-58.59375,13.18359375
13.18359375,-62.98828125,-64.453125,9.765625
18.06640625,-115.234375,-68.84765625,14.16015625
19.04296875,-133.30078125,-67.3828125,20.99609375
21.484375,-22.4609375,-70.3125,27.83203125
35.15625,27.83203125,-69.3359375,30.76171875
40.0390625,-21.97265625,-63.96484375,29.296875
35.15625,-168.9453125,-67.3828125,28.3203125
28.80859375,-173.33984375,-70.80078125,31.73828125
31.73828125,-25.390625,-71.2890625,32.71484375
36.1328125,25.87890625,-68.359375,28.80859375
34.66796875,-23.92578125,-61.03515625,26.3671875
25.87890625,-88.8671875,-60.546875,25.87890625
11.23046875,-110.83984375,-57.6171875,26.85546875
4.8828125,-56.640625,-56.15234375,24.4140625
17.578125,34.1796875,-61.5234375,18.06640625
22.4609375,-50.29296875,-61.5234375,12.20703125
14.6484375,-123.046875,-56.15234375,11.23046875
6.34765625,-51.26953125,-52.734375,10.25390625
4.8828125,-29.296875,-58.10546875,-2.44140625
12.6953125,-49.31640625,-62.01171875,-6.34765625
10.7421875,-31.25,-59.5703125,-6.8359375
6.34765625,-84.47265625,-57.12890625,-13.671875
0.0,-123.046875,-56.15234375,-13.18359375
-1.46484375,-41.015625,-54.19921875,-3.90625
5.37109375,37.59765625,-50.78125,0.0
3.41796875,-18.06640625,-51.26953125,-3.90625
1.953125,-82.03125,-55.17578125,-4.8828125
-6.34765625,-82.51953125,-56.640625,-2.44140625
-16.6015625,-74.21875,-54.19921875,3.90625
-5.859375,66.89453125,-48.33984375,7.32421875
11.23046875,12.6953125,-47.36328125,8.7890625
7.8125,-153.80859375,-49.8046875,11.71875
2.9296875,-133.30078125,-49.31640625,14.6484375
11.71875,-46.38671875,-47.8515625,20.99609375
15.13671875,59.5703125,-45.8984375,19.04296875
15.625,37.59765625,-50.29296875,14.16015625
14.6484375,-75.68359375,-51.7578125,6.34765625
5.859375,-106.93359375,-47.36328125,0.0
0.48828125,-79.58984375,-46.875,8.7890625
-6.8359375,27.34375,-45.8984375,5.859375
-7.8125,55.17578125,-48.828125,-11.71875
-9.27734375,10.25390625,-51.26953125,-15.625
-18.5546875,-139.6484375,-49.31640625,-14.16015625
-26.85546875,-187.98828125,-51.7578125,-12.6953125
-24.90234375,-6.8359375,-46.875,-18.06640625
-18.06640625,29.78515625,-40.52734375,-23.4375
-17.08984375,-55.6640625,-40.0390625,-20.5078125
-25.390625,-113.76953125,-41.015625,-22.4609375
-35.64453125,-90.33203125,-41.9921875,-21.97265625
-34.66796875,3.41796875,-40.0390625,-16.11328125
-32.2265625,30.76171875,-40.52734375,-12.6953125
-36.62109375,-44.921875,-46.875,-25.87890625
-43.9453125,-102.5390625,-51.26953125,-34.1796875
-49.31640625,-69.82421875,-48.828125,-30.2734375
-47.36328125,-59.08203125,-49.8046875,-35.15625
-37.59765625,-28.80859375,-48.828125,-39.0625
-33.203125,-13.671875,-43.45703125,-35.15625
-35.64453125,-91.796875,-44.921875,-34.1796875
-47.8515625,-152.34375,-50.29296875,-37.109375
-41.50390625,-30.76171875,-45.41015625,-27.83203125
-26.3671875,61.03515625,-37.59765625,-25.87890625
-27.34375,-0.48828125,-41.50390625,-31.25
-22.4609375,-99.609375,-44.921875,-35.64453125
-33.203125,-121.58203125,-43.9453125,-37.59765625
-49.8046875,-35.15625,-44.921875,-33.69140625
-41.50390625,97.16796875,-50.29296875,-35.15625
-30.76171875,5.37109375,-49.31640625,-39.55078125
-33.203125,-136.71875,-46.875,-42.48046875
-46.875,-123.046875,-52.24609375,-41.015625
-50.29296875,-48.33984375,-52.24609375,-40.52734375
-36.62109375,52.734375,-51.7578125,-42.48046875
-29.78515625,26.3671875,-53.22265625,-40.52734375
-20.99609375,-90.33203125,-48.828125,-20.99609375
-24.4140625,-156.25,-52.24609375,-18.06640625
-47.36328125,-68.359375,-53.7109375,-41.9921875
-36.62109375,42.48046875,-47.36328125,-36.1328125
-25.390625,40.0390625,-46.875,-35.15625
-46.875,-37.109375,-49.31640625,-55.17578125
-61.5234375,-130.37109375,-51.7578125,-54.19921875
-64.94140625,-136.23046875,-53.22265625,-56.640625
-55.17578125,2.44140625,-52.24609375,-55.6640625
-46.875,22.94921875,-52.24609375,-46.38671875
-47.36328125,-67.3828125,-50.78125,-49.31640625
-49.31640625,-120.60546875,-49.31640625,-50.29296875
-50.78125,-98.14453125,-50.29296875,-44.43359375
-45.8984375,0.9765625,-50.78125,-48.828125
-39.0625,38.57421875,-52.734375,-49.31640625
-42.48046875,-54.6875,-52.24609375,-52.24609375
-52.734375,-128.41796875,-56.15234375,-57.6171875
-51.7578125,-28.80859375,-57.6171875,-46.38671875
-47.36328125,-16.6015625,-54.19921875,-46.38671875
-37.109375,-17.578125,-49.8046875,-52.734375
-45.41015625,-62.01171875,-50.29296875,-56.15234375
-52.734375,-144.04296875,-55.6640625,-58.10546875
-43.9453125,-127.44140625,-53.22265625,-47.8515625
-41.9921875,-31.25,-52.734375,-44.43359375
-33.203125,55.17578125,-53.7109375,-45.41015625
-26.85546875,12.6953125,-49.8046875,-37.109375
-34.66796875,-105.95703125,-48.828125,-36.62109375
-39.55078125,-121.09375,-53.22265625,-45.41015625
-43.45703125,1.46484375,-53.22265625,-38.0859375
-41.015625,68.84765625,-50.78125,-28.80859375
-37.59765625,-7.8125,-48.828125,-34.66796875
-42.48046875,-127.9296875,-55.17578125,-42.48046875
-55.6640625,-191.40625,-58.10546875,-51.26953125
-56.15234375,-64.453125,-52.734375,-46.875
-37.59765625,25.390625,-51.26953125,-45.41015625
-29.78515625,0.0,-53.22265625,-52.24609375
-36.1328125,-82.51953125,-55.17578125,-50.78125
-48.33984375,-113.28125,-58.59375,-50.78125
-52.24609375,-35.64453125,-51.26953125,-50.29296875
-42.96875,7.32421875,-46.38671875,-49.31640625
-38.57421875,32.71484375,-49.31640625,-47.8515625
-49.8046875,-20.99609375,-46.875,-52.24609375
-57.12890625,-125.9765625,-44.43359375,-54.19921875
-64.453125,-106.4453125,-56.15234375,-56.15234375
-61.5234375,23.92578125,-61.5234375,-57.6171875
-46.875,34.66796875,-49.31640625,-47.8515625
-44.921875,-114.74609375,-48.828125,-45.41015625
-51.7578125,-141.11328125,-57.12890625,-52.734375
-51.26953125,-69.3359375,-51.7578125,-46.38671875
-42.96875,37.109375,-41.9921875,-37.109375
-34.66796875,43.9453125,-43.45703125,-40.0390625
-33.69140625,-72.75390625,-46.38671875,-48.828125
-45.8984375,-104.4921875,-48.33984375,-49.8046875
-49.8046875,-26.85546875,-49.8046875,-45.41015625
-46.38671875,-3.90625,-48.33984375,-40.0390625
-43.9453125,1.953125,-52.24609375,-49.31640625
-46.38671875,-74.70703125,-57.12890625,-64.453125
-48.33984375,-151.3671875,-57.12890625,-57.6171875
-41.9921875,-99.12109375,-49.31640625,-43.45703125
-42.96875,8.7890625,-45.41015625,-40.52734375
-33.203125,59.5703125,-46.38671875,-37.59765625
-36.62109375,-52.24609375,-40.52734375,-33.69140625
-50.78125,-133.30078125,-44.921875,-39.0625
-54.6875,-119.62890625,-53.22265625,-42.96875
-50.29296875,23.4375,-48.33984375,-42.48046875
-37.59765625,104.4921875,-45.8984375,-41.50390625
-34.66796875,-54.6875,-46.38671875,-40.0390625
-42.48046875,-174.31640625,-47.8515625,-43.45703125
-45.8984375,-108.3984375,-47.8515625,-40.0390625
-48.33984375,-19.53125,-47.36328125,-39.55078125
-38.57421875,6.8359375,-48.828125,-41.9921875
-29.296875,-36.1328125,-46.875,-41.015625
-36.62109375,-109.375,-48.33984375,-40.52734375
-51.7578125,-130.859375,-52.734375,-49.31640625
-63.96484375,16.11328125,-52.24609375,-53.22265625
-58.59375,60.05859375,-50.29296875,-51.26953125
-52.734375,-31.25,-51.7578125,-56.640625
-50.29296875,-50.29296875,-49.31640625,-56.15234375
-56.15234375,-167.96875,-47.8515625,-57.6171875
-62.01171875,-80.078125,-49.8046875,-59.5703125
-53.7109375,64.94140625,-43.45703125,-54.19921875
-51.7578125,0.48828125,-41.50390625,-47.8515625
-49.8046875,-108.3984375,-45.41015625,-45.41015625
-57.6171875,-135.7421875,-48.33984375,-49.8046875
-68.359375,-59.5703125,-55.6640625,-53.7109375
-55.17578125,11.23046875,-58.10546875,-49.8046875
-36.1328125,16.11328125,-51.7578125,-45.41015625
-41.015625,-48.828125,-55.17578125,-52.734375
-50.78125,-104.4921875,-56.640625,-50.78125
-49.31640625,-65.91796875,-59.08203125,-42.96875
-41.015625,0.9765625,-59.5703125,-39.0625
-35.64453125,-14.6484375,-55.17578125,-40.52734375
-38.0859375,-81.54296875,-52.734375,-43.45703125
-48.33984375,-137.20703125,-53.7109375,-44.921875
-53.22265625,-85.9375,-53.7109375,-42.96875
-44.43359375,26.3671875,-46.875,-38.0859375
-35.64453125,25.87890625,-44.921875,-41.015625
-45.8984375,-66.89453125,-52.24609375,-48.33984375
-51.7578125,-122.0703125,-52.24609375,-54.19921875
-49.8046875,-89.84375,-47.8515625,-47.36328125
-54.6875,27.34375,-51.26953125,-43.9453125
-49.8046875,52.734375,-57.12890625,-49.31640625
-46.38671875,-61.5234375,-52.24609375,-47.8515625
-47.8515625,-165.52734375,-49.8046875,-44.43359375
-45.8984375,-97.16796875,-48.33984375,-34.1796875
-47.36328125,44.921875,-49.8046875,-33.203125
-46.875,18.5546875,-56.15234375,-39.55078125
-46.875,-46.875,-51.7578125,-38.57421875
-59.5703125,-107.421875,-47.36328125,-45.8984375
-61.5234375,-83.49609375,-52.24609375,-51.26953125
-58.10546875,-4.8828125,-53.22265625,-43.9453125
-50.78125,4.8828125,-55.6640625,-44.43359375
-43.9453125,-35.15625,-56.15234375,-48.828125
-39.0625,-57.12890625,-49.31640625,-52.734375
-42.48046875,-134.27734375,-53.22265625,-59.08203125
-60.05859375,-78.61328125,-54.19921875,-53.22265625
-54.6875,29.78515625,-50.78125,-53.22265625
-43.9453125,-34.1796875,-53.7109375,-55.6640625
-49.8046875,-117.67578125,-48.828125,-51.7578125
