TP9,AF7,AF8,TP10
-53.22265625,-66.40625,-51.7578125,-45.8984375
-51.26953125,-11.23046875,-48.828125,-31.25
-44.921875,-11.71875,-46.38671875,-31.25
-40.52734375,-46.875,-46.38671875,-42.96875
-49.8046875,-73.2421875,-50.29296875,-44.921875
-62.98828125,-33.203125,-50.29296875,-47.8515625
-64.453125,-51.26953125,-54.6875,-45.8984375
-51.7578125,-24.90234375,-49.8046875,-41.015625
-46.875,-30.76171875,-56.15234375,-54.19921875
-59.08203125,-104.98046875,-67.87109375,-68.359375
-64.94140625,-72.265625,-62.98828125,-62.5
-61.5234375,-10.25390625,-55.17578125,-61.03515625
-45.41015625,6.34765625,-62.01171875,-68.84765625
-41.50390625,-21.97265625,-62.5,-62.01171875
-56.640625,-43.9453125,-52.734375,-64.453125
-81.54296875,-59.5703125,-57.12890625,-89.84375
-105.95703125,-14.6484375,-60.05859375,-112.3046875
-114.2578125,42.48046875,-62.01171875,-123.046875
-131.34765625,-40.0390625,-58.59375,-125.48828125
-155.2734375,-104.4921875,-57.6171875,-143.5546875
-162.109375,-83.49609375,-58.10546875,-147.4609375
-175.29296875,-48.33984375,-46.875,-141.11328125
-188.96484375,-18.5546875,-39.55078125,-148.92578125
-184.08203125,-26.3671875,-36.62109375,-146.484375
-192.87109375,-106.93359375,-37.109375,-150.390625
-205.078125,-144.04296875,-36.62109375,-153.3203125
-206.54296875,-87.890625,-33.203125,-149.4140625
-196.77734375,-37.109375,-30.2734375,-143.5546875
-173.33984375,-56.15234375,-19.53125,-134.765625
-177.734375,-84.9609375,-11.71875,-142.578125
-187.98828125,-136.71875,-14.6484375,-136.71875
-174.31640625,-145.5078125,-16.11328125,-120.60546875
-154.78515625,-85.44921875,-13.18359375,-108.88671875
-137.6953125,-86.9140625,-8.30078125,-103.02734375
-121.09375,-117.67578125,-9.765625,-102.05078125
-110.3515625,-146.97265625,-2.44140625,-83.984375
-110.83984375,-134.765625,0.48828125,-66.40625
-86.9140625,-78.125,-0.48828125,-46.875
-66.40625,-81.54296875,-0.9765625,-34.1796875
-55.6640625,-149.4140625,-10.7421875,-29.296875
-43.9453125,-175.29296875,-7.32421875,-10.25390625
-26.3671875,-114.2578125,-4.8828125,12.6953125
1.46484375,-90.8203125,-9.765625,36.1328125
7.32421875,-131.8359375,-11.71875,46.875
17.08984375,-127.44140625,-10.7421875,62.01171875
33.69140625,-144.04296875,-17.08984375,74.21875
41.50390625,-134.765625,-19.04296875,81.54296875
41.015625,-88.8671875,-18.06640625,85.9375
41.9921875,-67.87109375,-22.94921875,76.66015625
49.8046875,-96.19140625,-20.99609375,77.63671875
38.0859375,-125.9765625,-17.578125,82.03125
21.97265625,-130.37109375,-23.92578125,72.265625
15.625,-77.63671875,-32.71484375,58.59375
17.578125,-24.90234375,-30.76171875,62.01171875
19.04296875,-83.49609375,-27.83203125,61.03515625
12.6953125,-159.1796875,-29.78515625,50.29296875
4.39453125,-140.13671875,-31.73828125,47.36328125
1.953125,-69.82421875,-36.1328125,40.0390625
13.671875,-49.8046875,-36.62109375,37.59765625
20.99609375,-77.63671875,-39.0625,39.0625
25.390625,-100.5859375,-42.96875,36.62109375
19.04296875,-95.21484375,-42.96875,40.0390625
9.765625,-49.8046875,-39.0625,42.48046875
27.83203125,-18.5546875,-32.71484375,42.96875
22.4609375,-29.296875,-32.2265625,38.57421875
4.8828125,-52.24609375,-41.015625,30.76171875
3.90625,-96.6796875,-45.8984375,32.2265625
0.0,-62.98828125,-44.921875,31.25
0.9765625,-12.20703125,-46.38671875,20.01953125
-0.9765625,-62.01171875,-47.36328125,10.7421875
-4.39453125,-95.703125,-48.828125,8.30078125
-20.01953125,-89.35546875,-49.8046875,6.8359375
-24.4140625,-56.640625,-46.875,7.8125
-13.18359375,-14.16015625,-43.9453125,4.8828125
-7.8125,-23.92578125,-42.48046875,5.37109375
-1.953125,-67.87109375,-43.9453125,4.8828125
-9.27734375,-62.5,-46.875,4.39453125
-27.34375,-46.38671875,-44.921875,9.27734375
-30.76171875,-40.52734375,-45.41015625,4.39453125
-19.53125,-20.99609375,-47.8515625,-2.44140625
-16.6015625,-68.84765625,-46.875,-7.8125
-21.97265625,-110.3515625,-47.36328125,-14.16015625
-25.87890625,-71.77734375,-49.8046875,-11.23046875
-27.34375,-12.6953125,-46.38671875,-9.27734375
-16.11328125,-22.94921875,-41.50390625,-11.23046875
-11.23046875,-64.94140625,-47.36328125,-16.11328125
-20.01953125,-103.515625,-55.17578125,-20.99609375
-30.76171875,-83.984375,-52.734375,-22.94921875
-30.2734375,-6.8359375,-44.921875,-22.94921875
-16.6015625,29.78515625,-39.55078125,-17.578125
-18.06640625,-80.078125,-42.96875,-24.4140625
-32.2265625,-115.234375,-49.31640625,-36.1328125
-41.015625,-73.73046875,-51.7578125,-31.73828125
-29.296875,-29.296875,-49.31640625,-25.87890625
-32.2265625,-10.25390625,-41.9921875,-34.1796875
-53.7109375,-28.3203125,-45.8984375,-56.640625
-45.41015625,-74.70703125,-51.7578125,-50.78125
-36.1328125,-96.19140625,-52.734375,-37.59765625
-30.2734375,-17.578125,-50.29296875,-33.203125
-11.23046875,-26.3671875,-43.9453125,-32.71484375
-19.53125,-41.9921875,-44.921875,-41.015625
-34.66796875,-39.0625,-47.36328125,-46.38671875
-48.33984375,-95.21484375,-46.38671875,-44.43359375
-56.640625,-74.21875,-46.38671875,-32.2265625
-48.33984375,-19.53125,-47.36328125,-24.4140625
-49.8046875,-39.55078125,-44.921875,-31.25
-47.8515625,-74.21875,-41.9921875,-38.57421875
-46.38671875,-85.44921875,-41.9921875,-41.50390625
-44.43359375,-51.26953125,-42.48046875,-35.64453125
-38.0859375,-7.32421875,-38.0859375,-26.85546875
-31.73828125,-23.92578125,-33.203125,-30.2734375
-22.4609375,-64.453125,-33.203125,-34.66796875
-22.4609375,-65.4296875,-34.66796875,-33.69140625
-28.80859375,-9.765625,-37.59765625,-30.76171875
-32.2265625,9.27734375,-39.0625,-32.71484375
-27.34375,-55.6640625,-40.52734375,-32.2265625
-26.3671875,-98.14453125,-41.015625,-30.2734375
-38.0859375,-87.40234375,-41.50390625,-38.0859375
-46.875,-47.36328125,-45.8984375,-41.9921875
-49.31640625,-16.6015625,-49.31640625,-39.0625
-46.875,-32.2265625,-47.36328125,-41.50390625
-38.0859375,-70.3125,-47.36328125,-45.8984375
-37.59765625,-89.35546875,-46.875,-41.015625
-46.38671875,-64.94140625,-42.96875,-35.15625
-51.26953125,-24.4140625,-41.50390625,-34.1796875
-38.57421875,12.6953125,-43.9453125,-32.2265625
-35.15625,-71.2890625,-45.41015625,-35.64453125
-40.0390625,-112.79296875,-45.8984375,-36.1328125
-39.0625,-36.1328125,-44.43359375,-31.25
-41.015625,-24.4140625,-46.38671875,-31.25
-35.64453125,-38.0859375,-45.41015625,-29.78515625
-34.66796875,-61.5234375,-43.9453125,-29.78515625
-42.48046875,-95.21484375,-48.828125,-37.109375
-45.8984375,-75.68359375,-50.29296875,-35.15625
-45.41015625,-24.90234375,-48.828125,-27.83203125
-44.43359375,-22.94921875,-46.875,-37.109375
-50.29296875,-49.8046875,-48.33984375,-44.921875
-47.8515625,-51.26953125,-51.26953125,-49.8046875
-50.78125,-85.44921875,-47.8515625,-47.8515625
-62.98828125,-73.2421875,-45.8984375,-42.48046875
-61.03515625,-21.484375,-45.8984375,-38.57421875
-54.6875,-33.203125,-49.31640625,-42.96875
-55.17578125,-70.3125,-51.7578125,-52.734375
-54.19921875,-76.171875,-51.26953125,-51.26953125
-50.78125,-46.875,-53.22265625,-44.921875
-44.921875,-22.4609375,-55.17578125,-42.96875
-45.41015625,-37.109375,-61.5234375,-55.17578125
-49.31640625,-86.42578125,-61.03515625,-59.5703125
-55.17578125,-92.28515625,-53.7109375,-58.59375
-51.26953125,2.44140625,-53.22265625,-56.15234375
-47.36328125,-23.4375,-51.26953125,-50.29296875
-48.33984375,-76.66015625,-49.31640625,-53.7109375
-40.0390625,-62.01171875,-49.31640625,-57.12890625
-43.9453125,-91.796875,-45.41015625,-54.19921875
-51.26953125,-43.9453125,-44.43359375,-50.78125
-44.43359375,1.953125,-49.8046875,-53.7109375
-45.41015625,-43.9453125,-54.19921875,-51.7578125
-53.22265625,-79.1015625,-58.10546875,-51.26953125
-57.6171875,-75.1953125,-51.26953125,-45.8984375
-61.5234375,-82.51953125,-46.38671875,-49.31640625
-49.31640625,-16.6015625,-47.8515625,-43.45703125
-35.64453125,26.85546875,-49.31640625,-34.66796875
-38.57421875,-80.078125,-47.36328125,-42.48046875
-50.29296875,-124.51171875,-50.78125,-48.828125
-55.17578125,-65.4296875,-54.6875,-46.38671875
-55.6640625,-2.9296875,-54.19921875,-43.9453125
-49.8046875,4.39453125,-47.36328125,-40.0390625
-47.36328125,-56.15234375,-41.50390625,-42.96875
-51.7578125,-89.35546875,-45.8984375,-50.29296875
-46.38671875,-68.359375,-43.9453125,-48.33984375
-51.26953125,-14.6484375,-43.45703125,-50.78125
-49.8046875,-10.25390625,-44.43359375,-52.24609375
-41.50390625,-44.43359375,-43.45703125,-53.7109375
-44.43359375,-56.15234375,-47.8515625,-56.15234375
-55.17578125,-79.58984375,-55.6640625,-52.24609375
-56.640625,-64.453125,-52.734375,-50.29296875
-51.26953125,-28.80859375,-51.26953125,-53.7109375
-48.33984375,-49.31640625,-54.19921875,-59.5703125
-31.25,-89.35546875,-47.36328125,-54.19921875
-32.2265625,-86.42578125,-46.875,-49.31640625
-52.24609375,-21.97265625,-49.8046875,-59.5703125
-52.734375,-10.7421875,-46.38671875,-68.84765625
-46.875,-47.8515625,-42.96875,-61.5234375
-54.6875,-91.30859375,-41.9921875,-60.05859375
-76.66015625,-83.49609375,-48.828125,-71.2890625
-71.2890625,8.30078125,-54.6875,-64.94140625
-42.96875,-18.06640625,-47.8515625,-56.640625
-40.52734375,-62.98828125,-43.45703125,-56.15234375
-43.45703125,-84.9609375,-47.36328125,-55.17578125
-48.33984375,-125.9765625,-51.26953125,-48.828125
-58.59375,-46.38671875,-47.36328125,-40.52734375
-58.10546875,2.9296875,-41.50390625,-38.57421875
-52.24609375,-32.2265625,-35.64453125,-40.0390625
-52.734375,-83.0078125,-41.50390625,-47.36328125
-59.5703125,-83.984375,-48.33984375,-50.78125
-56.640625,-40.0390625,-49.8046875,-44.43359375
-53.22265625,-9.27734375,-54.6875,-45.41015625
-47.36328125,-15.625,-52.734375,-48.828125
-47.36328125,-105.46875,-49.31640625,-45.41015625
-54.6875,-129.39453125,-50.29296875,-46.875
-52.24609375,-65.91796875,-53.22265625,-46.875
-47.8515625,-34.1796875,-55.17578125,-44.921875
-37.59765625,-19.04296875,-52.734375,-40.52734375
-34.66796875,-45.8984375,-51.7578125,-42.48046875
-47.36328125,-108.3984375,-57.6171875,-49.8046875
-53.22265625,-83.0078125,-54.6875,-48.33984375
-41.9921875,-2.9296875,-42.48046875,-42.48046875
-35.15625,-19.04296875,-40.52734375,-35.64453125
-37.109375,-61.5234375,-44.921875,-41.015625
-46.38671875,-54.19921875,-48.828125,-45.41015625
-52.24609375,-82.51953125,-46.875,-41.015625
-47.36328125,-61.03515625,-39.55078125,-38.0859375
-41.015625,-19.53125,-38.0859375,-37.59765625
-38.57421875,-49.31640625,-38.57421875,-39.0625
-52.24609375,-75.68359375,-42.96875,-49.8046875
-63.4765625,-70.3125,-51.26953125,-57.12890625
-61.03515625,-20.01953125,-55.17578125,-55.17578125
-54.6875,-2.9296875,-54.19921875,-58.59375
-49.8046875,-41.015625,-50.78125,-54.6875
-54.19921875,-109.86328125,-43.9453125,-51.7578125
-59.08203125,-79.58984375,-40.52734375,-46.875
-58.59375,11.71875,-41.50390625,-43.45703125
-48.33984375,-16.6015625,-40.52734375,-39.0625
-47.36328125,-67.87109375,-40.52734375,-39.0625
-50.78125,-105.46875,-49.31640625,-46.38671875
-53.7109375,-83.984375,-51.26953125,-44.43359375
-55.6640625,-29.78515625,-52.734375,-40.52734375
-36.1328125,-8.30078125,-54.19921875,-34.1796875
-34.66796875,-41.50390625,-46.38671875,-30.2734375
-42.96875,-89.35546875,-45.41015625,-33.203125
-43.45703125,-79.58984375,-49.8046875,-32.71484375
-43.9453125,-40.52734375,-48.828125,-31.25
-36.62109375,2.9296875,-50.29296875,-30.76171875
-29.296875,7.8125,-54.19921875,-34.1796875
-31.25,-68.359375,-56.15234375,-43.9453125
-39.0625,-120.60546875,-56.640625,-46.875
-46.875,-61.5234375,-52.734375,-44.43359375
-41.9921875,1.953125,-44.921875,-45.8984375
-32.2265625,-13.18359375,-42.96875,-47.8515625
-28.3203125,-67.87109375,-49.8046875,-49.8046875
-36.62109375,-82.03125,-58.10546875,-47.8515625
-40.52734375,-42.48046875,-56.15234375,-41.50390625
-34.66796875,-5.859375,-52.24609375,-41.015625
-29.78515625,-32.71484375,-51.26953125,-45.8984375
-28.3203125,-60.546875,-46.38671875,-49.31640625
-39.0625,-45.8984375,-43.9453125,-48.828125
-52.734375,-67.87109375,-48.828125,-54.19921875
-54.6875,-43.45703125,-52.24609375,-55.17578125
-46.875,-5.859375,-50.78125,-49.8046875
-46.875,-78.61328125,-51.26953125,-55.17578125
-50.29296875,-103.515625,-52.734375,-60.546875
-52.24609375,-54.19921875,-56.15234375,-56.640625
-47.36328125,-0.48828125,-58.10546875,-47.36328125
-38.57421875,-5.37109375,-56.15234375,-41.015625
-41.50390625,-61.03515625,-52.734375,-38.57421875
-45.8984375,-88.8671875,-49.8046875,-42.96875
-51.7578125,-60.05859375,-45.8984375,-47.36328125
-54.19921875,19.04296875,-39.55078125,-40.0390625
-32.71484375,20.5078125,-41.50390625,-27.83203125
-26.3671875,-74.70703125,-49.31640625,-19.53125
-45.41015625,-96.6796875,-47.8515625,-26.85546875
-60.546875,-60.546875,-48.33984375,-44.921875
-66.89453125,-10.25390625,-53.22265625,-58.10546875
-58.10546875,-0.48828125,-55.17578125,-59.5703125
-54.19921875,-66.89453125,-55.17578125,-57.12890625
-62.01171875,-89.84375,-52.24609375,-58.10546875
-64.453125,-70.3125,-53.7109375,-58.10546875
-63.96484375,-27.83203125,-50.29296875,-53.7109375
-59.08203125,1.953125,-47.36328125,-50.29296875
-52.734375,-7.32421875,-48.828125,-47.8515625
-44.921875,-83.49609375,-45.8984375,-48.33984375
-42.96875,-112.79296875,-49.8046875,-52.734375
-52.24609375,-57.12890625,-48.828125,-52.24609375
-46.875,-9.27734375,-46.875,-51.26953125
-41.9921875,-21.97265625,-50.29296875,-53.7109375
-47.36328125,-72.75390625,-50.29296875,-58.10546875
-53.7109375,-97.16796875,-52.734375,-64.453125
-60.546875,-30.2734375,-56.15234375,-61.5234375
-55.6640625,23.4375,-54.19921875,-60.05859375
-53.7109375,-54.19921875,-54.6875,-62.01171875
-56.15234375,-86.9140625,-53.7109375,-61.03515625
-68.84765625,-52.734375,-54.6875,-57.6171875
-66.40625,-61.5234375,-53.22265625,-51.26953125
-50.29296875,-41.015625,-44.43359375,-44.921875
-50.78125,-22.94921875,-43.45703125,-45.41015625
-53.22265625,-82.03125,-49.31640625,-52.24609375
-57.6171875,-105.95703125,-46.875,-41.50390625
-56.640625,-58.10546875,-45.41015625,-39.0625
-45.8984375,-15.625,-44.921875,-42.96875
-44.921875,-16.11328125,-44.43359375,-36.62109375
-43.45703125,-55.6640625,-42.96875,-37.109375
-43.9453125,-79.1015625,-41.015625,-38.57421875
-47.36328125,-65.4296875,-47.36328125,-40.0390625
-45.8984375,4.39453125,-47.36328125,-38.0859375
-38.0859375,2.44140625,-43.45703125,-37.59765625
-42.48046875,-88.37890625,-49.31640625,-47.36328125
-53.22265625,-111.328125,-51.26953125,-49.31640625
-51.26953125,-67.87109375,-43.9453125,-47.36328125
-49.31640625,-12.20703125,-40.52734375,-51.7578125
-48.828125,-20.5078125,-45.41015625,-53.7109375
-36.62109375,-60.546875,-43.9453125,-50.29296875
-30.76171875,-78.125,-44.43359375,-50.78125
-45.41015625,-71.2890625,-53.22265625,-57.12890625
-46.38671875,-33.203125,-59.08203125,-56.640625
-33.203125,7.8125,-60.05859375,-54.6875
-27.34375,0.9765625,-57.12890625,-52.734375
-24.90234375,-89.35546875,-58.10546875,-55.6640625
-37.109375,-95.703125,-53.22265625,-51.7578125
-48.33984375,-19.53125,-46.875,-40.52734375
-37.109375,-20.5078125,-41.9921875,-34.66796875
-39.0625,-47.36328125,-41.015625,-38.57421875
-47.8515625,-79.58984375,-44.921875,-46.38671875
-55.6640625,-86.42578125,-48.33984375,-46.38671875
-61.03515625,-50.29296875,-47.36328125,-44.43359375
-52.24609375,-10.7421875,-46.38671875,-47.8515625
-51.7578125,-41.50390625,-49.31640625,-52.24609375
-55.17578125,-63.4765625,-49.31640625,-52.734375
-56.15234375,-59.08203125,-47.8515625,-55.17578125
-59.08203125,-70.80078125,-50.29296875,-58.10546875
-47.36328125,-48.33984375,-54.6875,-55.17578125
-43.9453125,-25.87890625,-57.6171875,-55.6640625
-42.48046875,-71.2890625,-53.7109375,-60.546875
-46.875,-80.56640625,-54.19921875,-59.5703125
-52.734375,-21.97265625,-54.6875,-54.19921875
-48.828125,-34.1796875,-50.29296875,-50.78125
-43.45703125,-40.0390625,-49.31640625,-53.22265625
-40.52734375,-66.40625,-53.22265625,-56.15234375
-51.7578125,-83.49609375,-56.640625,-58.59375
-56.640625,-41.015625,-55.17578125,-59.5703125
-48.33984375,22.94921875,-51.7578125,-57.6171875
-52.24609375,-27.34375,-53.7109375,-60.546875
-54.6875,-104.00390625,-59.08203125,-65.91796875
-57.6171875,-103.515625,-57.12890625,-63.96484375
-58.59375,-58.59375,-56.640625,-59.08203125
-57.6171875,-15.13671875,-59.08203125,-52.24609375
-55.17578125,-29.296875,-57.12890625,-47.8515625
-48.828125,-66.89453125,-47.36328125,-44.921875
-53.7109375,-88.8671875,-42.96875,-44.921875
-58.10546875,-54.19921875,-44.43359375,-43.9453125
-55.17578125,-34.66796875,-49.31640625,-43.45703125
-47.36328125,-33.203125,-45.41015625,-38.0859375
-36.62109375,-21.97265625,-40.0390625,-29.78515625
-41.50390625,-90.33203125,-41.9921875,-29.296875
-48.33984375,-106.93359375,-44.43359375,-29.296875
-44.43359375,-45.41015625,-43.45703125,-31.73828125
-41.015625,-31.73828125,-42.48046875,-41.50390625
-41.9921875,-48.33984375,-49.31640625,-50.78125
-46.875,-87.890625,-54.6875,-58.10546875
-49.31640625,-96.6796875,-48.33984375,-51.7578125
-49.31640625,-42.48046875,-44.921875,-47.8515625
-49.31640625,-4.39453125,-52.24609375,-52.24609375
-50.78125,-51.26953125,-55.6640625,-51.7578125
-57.6171875,-80.56640625,-53.22265625,-46.875
-60.05859375,-48.828125,-55.17578125,-43.9453125
-51.7578125,-30.76171875,-56.15234375,-46.38671875
-45.41015625,-34.66796875,-53.22265625,-50.78125
-42.96875,-55.6640625,-48.33984375,-55.17578125
-39.55078125,-80.56640625,-48.33984375,-56.640625
-38.57421875,-72.75390625,-43.9453125,-53.22265625
-44.43359375,-41.015625,-41.50390625,-48.828125
-39.0625,-4.39453125,-47.36328125,-48.33984375
-35.15625,-23.4375,-42.48046875,-45.41015625
-40.0390625,-79.58984375,-39.0625,-45.8984375
-39.0625,-96.19140625,-39.0625,-45.41015625
-38.57421875,-41.50390625,-37.59765625,-43.45703125
-40.0390625,31.73828125,-38.0859375,-40.52734375
-44.43359375,-48.33984375,-43.9453125,-39.55078125
-42.48046875,-129.39453125,-45.8984375,-39.0625
-43.9453125,-82.03125,-36.1328125,-36.1328125
-47.36328125,-70.80078125,-34.1796875,-30.76171875
-46.38671875,-37.109375,-39.0625,-37.109375
-49.31640625,-35.15625,-40.52734375,-40.52734375
-52.24609375,-80.56640625,-43.45703125,-45.41015625
-58.59375,-95.21484375,-44.921875,-45.8984375
-62.5,-72.75390625,-49.8046875,-50.29296875
-50.29296875,-19.04296875,-55.17578125,-54.19921875
-39.0625,11.23046875,-51.7578125,-42.48046875
-36.1328125,-17.578125,-47.8515625,-39.0625
-41.015625,-95.21484375,-50.78125,-43.9453125
-52.24609375,-74.21875,-51.7578125,-42.48046875
-49.8046875,-5.859375,-50.78125,-37.59765625
-40.52734375,-29.78515625,-51.26953125,-42.96875
-37.109375,-64.94140625,-50.29296875,-48.828125
-38.0859375,-59.5703125,-48.828125,-44.921875
-39.0625,-84.47265625,-44.921875,-42.48046875
-40.0390625,-36.1328125,-48.33984375,-39.55078125
-38.0859375,-12.20703125,-45.8984375,-42.96875
-35.15625,-63.4765625,-41.015625,-53.22265625
-45.41015625,-62.01171875,-44.43359375,-50.78125
-49.31640625,-39.0625,-41.015625,-43.45703125
-48.33984375,-48.33984375,-38.57421875,-47.36328125
-48.33984375,-49.8046875,-42.48046875,-49.31640625
-50.29296875,-63.4765625,-46.875,-51.26953125
-57.6171875,-103.515625,-47.36328125,-56.640625
-71.2890625,-97.65625,-47.36328125,-54.19921875
-57.12890625,-32.71484375,-46.38671875,-37.109375
-34.1796875,-4.8828125,-49.8046875,-37.109375
-44.43359375,-36.1328125,-56.640625,-61.03515625
-51.7578125,-56.640625,-54.6875,-73.73046875
-56.640625,-93.75,-59.08203125,-74.21875
-59.08203125,-33.203125,-59.08203125,-63.4765625
-46.875,36.62109375,-53.7109375,-54.6875
-44.43359375,-32.71484375,-59.5703125,-53.22265625
-42.48046875,-77.1484375,-61.03515625,-56.15234375
-40.52734375,-71.2890625,-51.26953125,-56.640625
-41.50390625,-23.92578125,-49.31640625,-52.24609375
-42.48046875,7.32421875,-54.19921875,-52.24609375
-43.9453125,-36.62109375,-50.29296875,-53.22265625
-46.875,-66.89453125,-45.41015625,-53.7109375
-52.24609375,-58.10546875,-50.78125,-52.734375
-55.6640625,-26.3671875,-55.6640625,-56.640625
-54.6875,-2.9296875,-51.26953125,-52.734375
-47.36328125,-15.13671875,-52.734375,-45.41015625
-46.38671875,-38.57421875,-54.6875,-52.734375
-49.8046875,-60.05859375,-53.22265625,-55.17578125
-54.19921875,-78.61328125,-58.10546875,-51.7578125
-52.24609375,-47.8515625,-56.640625,-48.33984375
-44.43359375,-2.44140625,-45.8984375,-44.921875
-38.0859375,-50.29296875,-42.96875,-47.8515625
-38.0859375,-71.77734375,-43.9453125,-47.36328125
-44.921875,-41.50390625,-46.38671875,-42.48046875
-48.33984375,-19.04296875,-50.29296875,-44.921875
-46.38671875,-7.32421875,-47.8515625,-45.41015625
-47.36328125,-47.36328125,-45.41015625,-47.36328125
-58.59375,-79.1015625,-50.78125,-60.05859375
-56.15234375,-15.625,-52.734375,-56.15234375
-51.7578125,-19.53125,-53.22265625,-44.43359375
-44.43359375,-53.7109375,-55.17578125,-55.17578125
-36.62109375,-38.57421875,-56.640625,-55.17578125
-48.33984375,-86.9140625,-56.15234375,-55.17578125
-47.8515625,-70.80078125,-51.26953125,-54.19921875
-49.8046875,-13.671875,-50.29296875,-48.33984375
-44.43359375,0.48828125,-53.22265625,-53.7109375
-37.59765625,-42.96875,-54.6875,-60.05859375
-43.45703125,-79.58984375,-53.7109375,-58.10546875
-56.15234375,-62.5,-59.08203125,-56.640625
-59.5703125,-11.23046875,-60.546875,-55.17578125
-48.828125,15.13671875,-59.08203125,-54.6875
-47.8515625,-56.15234375,-62.01171875,-58.10546875
-47.36328125,-96.19140625,-63.96484375,-65.4296875
-49.8046875,-67.87109375,-57.12890625,-64.94140625
-48.33984375,-35.15625,-47.36328125,-48.828125
-40.52734375,-10.7421875,-44.43359375,-47.8515625
-38.0859375,-31.73828125,-43.9453125,-47.8515625
-32.71484375,-85.44921875,-44.43359375,-41.015625
-35.15625,-91.30859375,-46.38671875,-44.921875
-44.921875,-40.52734375,-49.8046875,-40.52734375
-39.55078125,-6.34765625,-47.8515625,-37.109375
-30.76171875,-35.15625,-49.31640625,-48.828125
-28.80859375,-32.71484375,-54.6875,-53.7109375
-35.64453125,-72.75390625,-53.22265625,-54.19921875
-46.38671875,-66.40625,-54.6875,-54.19921875
-47.8515625,-13.671875,-57.12890625,-53.7109375
-53.7109375,-44.921875,-57.12890625,-62.98828125
-57.6171875,-81.0546875,-58.10546875,-69.3359375
-65.4296875,-86.9140625,-60.546875,-71.2890625
-71.77734375,-64.94140625,-62.98828125,-71.2890625
-67.87109375,-23.4375,-62.5,-69.82421875
-62.5,-16.11328125,-60.05859375,-71.2890625
-58.59375,-84.47265625,-54.19921875,-68.359375
-53.22265625,-84.9609375,-49.8046875,-57.12890625
-49.8046875,-38.57421875,-51.26953125,-48.33984375
-62.5,-40.0390625,-50.78125,-55.17578125
-67.87109375,-51.7578125,-42.96875,-67.3828125
-66.40625,-64.453125,-39.0625,-75.68359375
-62.98828125,-92.7734375,-48.828125,-75.1953125
-62.98828125,-71.77734375,-52.734375,-65.4296875
-73.2421875,-20.99609375,-42.96875,-70.80078125
-67.3828125,-37.109375,-41.015625,-80.078125
-57.12890625,-71.77734375,-38.57421875,-83.49609375
-59.5703125,-100.09765625,-35.64453125,-81.54296875
-69.82421875,-88.8671875,-38.0859375,-75.68359375
-70.80078125,-20.99609375,-39.0625,-71.2890625
-65.91796875,15.13671875,-41.50390625,-67.3828125
-71.77734375,-42.96875,-43.9453125,-69.3359375
-69.82421875,-104.00390625,-41.9921875,-67.3828125
-73.2421875,-104.4921875,-41.015625,-57.6171875
-79.1015625,-36.62109375,-45.8984375,-61.5234375
-64.453125,-1.46484375,-40.0390625,-63.96484375
-53.7109375,-40.52734375,-35.15625,-52.24609375
-52.24609375,-85.44921875,-42.96875,-51.26953125
-56.15234375,-81.54296875,-42.96875,-53.7109375
-60.546875,-32.71484375,-39.55078125,-49.8046875
-49.8046875,-26.3671875,-38.0859375,-43.9453125
-45.8984375,-24.90234375,-36.1328125,-48.828125
-44.921875,-18.5546875,-38.57421875,-51.26953125
-44.43359375,-86.9140625,-44.43359375,-46.38671875
-55.17578125,-39.0625,-46.38671875,-49.31640625
-51.7578125,13.18359375,-47.36328125,-52.734375
-48.33984375,-51.26953125,-47.8515625,-61.03515625
-50.29296875,-77.63671875,-45.41015625,-64.453125
-55.6640625,-80.078125,-45.8984375,-63.96484375
-59.5703125,-24.4140625,-44.921875,-60.546875
-61.5234375,8.30078125,-45.41015625,-51.7578125
-59.08203125,-28.3203125,-48.33984375,-54.19921875
-55.6640625,-62.98828125,-49.8046875,-62.01171875
-67.87109375,-71.2890625,-52.24609375,-63.96484375
-76.66015625,-30.76171875,-50.29296875,-58.59375
-53.22265625,-29.78515625,-47.36328125,-55.17578125
-44.921875,-62.5,-46.875,-59.08203125
-55.6640625,-67.87109375,-52.24609375,-62.5
-53.22265625,-93.26171875,-55.17578125,-52.734375
-61.03515625,-66.40625,-49.8046875,-43.9453125
-68.359375,-7.32421875,-49.8046875,-42.48046875
-60.546875,-45.41015625,-46.875,-41.50390625
-52.734375,-68.84765625,-45.41015625,-46.875
-60.546875,-65.91796875,-46.38671875,-48.828125
-58.10546875,-71.77734375,-50.29296875,-47.36328125
-54.19921875,-30.76171875,-49.31640625,-49.31640625
-56.640625,29.296875,-46.38671875,-53.7109375
-55.17578125,-49.31640625,-48.33984375,-54.19921875
-60.546875,-119.62890625,-48.828125,-52.734375
-61.5234375,-77.1484375,-52.734375,-59.5703125
-59.08203125,-25.87890625,-51.7578125,-63.96484375
-59.08203125,-17.578125,-49.8046875,-61.03515625
-59.08203125,-47.36328125,-46.875,-59.5703125
-54.19921875,-81.54296875,-45.41015625,-65.4296875
-49.8046875,-64.94140625,-50.29296875,-71.2890625
-52.734375,7.8125,-50.78125,-69.82421875
-53.7109375,-27.34375,-47.8515625,-66.89453125
-46.875,-73.73046875,-48.33984375,-67.3828125
-47.36328125,-48.828125,-54.19921875,-73.2421875
-55.6640625,-88.8671875,-53.7109375,-66.89453125
-60.05859375,-74.70703125,-50.29296875,-58.10546875
-58.59375,-7.32421875,-50.78125,-58.59375
-47.36328125,-43.9453125,-46.875,-55.17578125
-34.1796875,-86.42578125,-48.33984375,-60.546875
-48.828125,-79.1015625,-54.19921875,-63.4765625
-58.10546875,-30.76171875,-53.7109375,-54.19921875
-50.29296875,-21.97265625,-49.8046875,-49.31640625
-49.31640625,-39.55078125,-49.8046875,-56.640625
-47.8515625,-74.21875,-51.7578125,-61.5234375
-54.6875,-80.078125,-45.8984375,-57.6171875
-50.29296875,-4.8828125,-41.50390625,-42.96875
-29.296875,20.99609375,-48.828125,-49.31640625
-43.45703125,-35.64453125,-51.26953125,-80.078125
-69.82421875,-82.03125,-45.41015625,-87.40234375
-70.80078125,-87.40234375,-47.36328125,-77.1484375
-68.359375,-41.50390625,-52.734375,-77.63671875
-62.98828125,-9.765625,-54.6875,-76.171875
-54.6875,-21.97265625,-50.78125,-61.03515625
-54.6875,-53.22265625,-54.6875,-63.4765625
-57.12890625,-85.9375,-57.12890625,-70.80078125
-64.453125,-73.2421875,-53.7109375,-57.12890625
-59.5703125,13.671875,-47.8515625,-53.22265625
-52.734375,21.97265625,-45.41015625,-62.5
-52.24609375,-92.7734375,-51.26953125,-66.40625
-58.59375,-113.28125,-54.19921875,-64.453125
-59.08203125,-50.29296875,-53.7109375,-56.15234375
-54.19921875,-10.25390625,-53.7109375,-51.7578125
-48.33984375,-7.8125,-51.7578125,-52.734375
-43.45703125,-61.03515625,-55.17578125,-54.6875
-41.9921875,-85.44921875,-55.17578125,-52.734375
-48.828125,-53.7109375,-54.6875,-52.24609375
-60.05859375,-21.484375,-58.10546875,-54.6875
-48.33984375,-24.90234375,-60.546875,-54.6875
-46.875,-41.9921875,-56.640625,-58.10546875
-61.5234375,-36.1328125,-50.29296875,-62.01171875
-53.22265625,-69.82421875,-51.26953125,-56.15234375
-47.36328125,-56.640625,-51.7578125,-49.31640625
-45.41015625,-0.9765625,-52.24609375,-49.8046875
-43.45703125,-34.1796875,-50.78125,-54.6875
-55.6640625,-86.9140625,-52.24609375,-64.453125
-63.4765625,-74.70703125,-54.19921875,-63.4765625
-60.546875,-38.57421875,-49.8046875,-58.10546875
-46.875,-19.04296875,-46.875,-54.19921875
-49.8046875,-53.7109375,-49.31640625,-57.12890625
-55.6640625,-97.65625,-48.33984375,-55.17578125
-51.7578125,-62.5,-49.8046875,-51.7578125
-55.17578125,20.5078125,-51.7578125,-46.875
-44.43359375,-9.765625,-49.31640625,-46.38671875
-39.55078125,-71.77734375,-46.875,-51.26953125
-51.26953125,-86.42578125,-46.38671875,-48.828125
-58.10546875,-73.73046875,-49.8046875,-47.36328125
-55.17578125,-40.52734375,-48.828125,-40.52734375
-51.7578125,-25.87890625,-48.828125,-39.0625
-47.8515625,-45.41015625,-45.8984375,-42.96875
-47.36328125,-67.3828125,-44.921875,-43.45703125
-48.828125,-56.15234375,-46.875,-40.0390625
-53.7109375,-61.5234375,-48.828125,-39.55078125
-55.17578125,-13.18359375,-46.38671875,-40.52734375
-52.24609375,31.73828125,-41.50390625,-38.57421875
-53.22265625,-77.1484375,-45.8984375,-41.9921875
-61.5234375,-130.37109375,-49.31640625,-46.38671875
-63.4765625,-67.87109375,-48.33984375,-44.43359375
-57.12890625,-14.6484375,-45.8984375,-46.875
-47.36328125,-9.27734375,-44.921875,-50.29296875
-27.83203125,-45.41015625,-41.50390625,-35.64453125
-32.71484375,-64.453125,-41.9921875,-38.0859375
-51.7578125,-46.875,-48.33984375,-58.10546875
-66.89453125,-17.578125,-50.78125,-60.546875
-67.3828125,-21.484375,-52.24609375,-63.4765625
-63.96484375,-64.453125,-52.734375,-73.73046875
-70.3125,-62.98828125,-49.8046875,-74.70703125
-67.87109375,-53.22265625,-52.734375,-62.01171875
-66.40625,-46.875,-55.6640625,-53.22265625
-62.5,-50.78125,-51.7578125,-54.6875
-54.19921875,-73.2421875,-51.26953125,-62.98828125
-54.19921875,-86.42578125,-53.22265625,-62.01171875
-61.5234375,-69.82421875,-55.6640625,-54.6875
-56.15234375,-20.99609375,-51.26953125,-51.7578125
-45.41015625,1.46484375,-44.43359375,-53.22265625
-40.0390625,-35.15625,-46.875,-53.22265625
-48.33984375,-85.44921875,-48.828125,-57.6171875
-50.29296875,-76.66015625,-45.41015625,-50.29296875
-56.15234375,6.34765625,-44.43359375,-46.875
-47.36328125,-21.484375,-46.38671875,-50.78125
-38.57421875,-71.77734375,-51.26953125,-52.24609375
-45.8984375,-73.73046875,-55.17578125,-56.15234375
-53.22265625,-99.12109375,-50.78125,-46.38671875
-63.96484375,-38.57421875,-42.96875,-40.0390625
-48.33984375,-22.4609375,-42.48046875,-48.33984375
-47.36328125,-55.17578125,-45.8984375,-50.78125
-66.89453125,-83.984375,-47.36328125,-55.17578125
-60.546875,-72.265625,-45.8984375,-55.6640625
-66.40625,-40.0390625,-46.38671875,-51.26953125
-68.359375,-13.18359375,-45.41015625,-48.33984375
-47.36328125,-2.44140625,-41.50390625,-42.48046875
-50.29296875,-86.42578125,-43.45703125,-48.828125
-52.734375,-99.609375,-48.33984375,-51.7578125
-56.15234375,-39.0625,-45.8984375,-40.0390625
-53.22265625,-20.01953125,-46.38671875,-36.1328125
-41.9921875,-4.39453125,-47.36328125,-32.2265625
-41.50390625,-61.03515625,-46.875,-40.52734375
-47.36328125,-92.7734375,-44.43359375,-45.8984375
-47.36328125,-43.45703125,-41.9921875,-41.015625
-41.9921875,-8.30078125,-45.8984375,-46.875
-37.109375,-24.90234375,-48.828125,-48.828125
-35.64453125,-51.26953125,-47.8515625,-45.8984375
-45.41015625,-35.15625,-43.45703125,-44.43359375
-57.12890625,-72.265625,-42.48046875,-38.0859375
-59.08203125,-50.78125,-43.9453125,-42.48046875
-49.31640625,-2.9296875,-48.33984375,-54.6875
-36.62109375,-62.01171875,-50.29296875,-52.24609375
-37.59765625,-87.40234375,-43.45703125,-45.41015625
-41.9921875,-37.109375,-41.015625,-37.109375
-44.43359375,-16.11328125,-48.828125,-32.71484375
-35.15625,-11.23046875,-48.828125,-32.71484375
-28.80859375,-38.57421875,-43.9453125,-37.109375
-52.24609375,-106.4453125,-47.8515625,-47.36328125
-53.22265625,-69.3359375,-49.8046875,-39.55078125
-43.9453125,-6.8359375,-48.33984375,-28.3203125
-46.38671875,-30.2734375,-50.78125,-37.109375
-45.8984375,-63.4765625,-46.38671875,-41.9921875
-44.43359375,-73.2421875,-40.0390625,-41.50390625
-53.22265625,-62.98828125,-43.9453125,-41.9921875
-54.6875,-37.59765625,-47.36328125,-50.78125
-35.15625,-20.01953125,-41.50390625,-51.26953125
-27.83203125,-40.52734375,-35.64453125,-39.0625
-38.0859375,-76.171875,-41.9921875,-42.48046875
-51.7578125,-69.82421875,-44.921875,-55.17578125
-62.01171875,-22.94921875,-47.8515625,-50.29296875
-63.4765625,-2.44140625,-55.6640625,-43.45703125
-46.38671875,-11.23046875,-52.24609375,-52.24609375
-37.59765625,-54.6875,-50.78125,-52.734375
-56.15234375,-97.16796875,-54.19921875,-44.921875
-59.5703125,-57.12890625,-48.828125,-43.45703125
-52.24609375,-16.11328125,-54.19921875,-52.734375
-55.17578125,-50.78125,-61.03515625,-63.96484375
-46.875,-81.0546875,-53.7109375,-50.29296875
-49.8046875,-68.359375,-49.31640625,-44.921875
-58.59375,-28.80859375,-46.875,-55.6640625
-55.6640625,-0.9765625,-49.31640625,-60.546875
-52.24609375,-38.57421875,-47.8515625,-59.08203125
-42.48046875,-57.12890625,-47.36328125,-56.640625
-36.1328125,-32.2265625,-49.8046875,-58.10546875
-44.43359375,-40.0390625,-50.78125,-49.31640625
-29.78515625,-18.06640625,-50.29296875,-42.96875
-22.4609375,-8.30078125,-51.26953125,-41.50390625
-39.0625,-71.2890625,-55.6640625,-34.1796875
-37.59765625,-88.8671875,-51.26953125,-32.2265625
-42.48046875,-55.17578125,-44.921875,-43.45703125
-52.24609375,-12.6953125,-47.8515625,-53.22265625
-42.48046875,3.90625,-48.33984375,-41.50390625
-29.296875,-46.875,-43.45703125,-31.25
-40.52734375,-94.7265625,-41.9921875,-31.73828125
-55.6640625,-58.10546875,-48.33984375,-40.52734375
-45.8984375,12.6953125,-56.640625,-42.48046875
-38.57421875,-12.20703125,-53.22265625,-39.0625
-45.8984375,-86.9140625,-44.43359375,-41.9921875
-55.6640625,-95.703125,-50.78125,-52.24609375
-52.24609375,-66.89453125,-58.59375,-53.7109375
-42.48046875,-0.9765625,-53.7109375,-49.31640625
-42.96875,-10.7421875,-49.8046875,-50.29296875
-37.109375,-84.9609375,-52.24609375,-52.24609375
-39.0625,-82.51953125,-60.546875,-60.546875
-46.875,-69.3359375,-60.05859375,-56.640625
-44.43359375,-28.80859375,-59.5703125,-45.41015625
-40.52734375,1.46484375,-58.10546875,-50.78125
-40.52734375,-15.13671875,-53.22265625,-50.78125
-41.9921875,-83.49609375,-55.17578125,-45.8984375
-49.8046875,-111.328125,-53.7109375,-42.48046875
-60.546875,-18.5546875,-54.6875,-42.48046875
-53.7109375,4.39453125,-54.19921875,-44.43359375
-41.9921875,-50.78125,-49.31640625,-41.50390625
-33.69140625,-60.546875,-49.8046875,-44.921875
-44.43359375,-66.40625,-53.22265625,-44.921875
-53.7109375,-25.390625,-56.15234375,-43.9453125
-47.36328125,2.44140625,-55.17578125,-44.921875
-40.52734375,-50.78125,-53.7109375,-44.921875
-37.109375,-48.33984375,-57.6171875,-43.45703125
-43.45703125,-36.62109375,-60.05859375,-36.62109375
-49.31640625,-68.84765625,-60.546875,-51.7578125
-48.828125,-38.57421875,-51.7578125,-57.12890625
-34.66796875,-20.5078125,-50.78125,-39.55078125
-11.23046875,-55.17578125,-46.38671875,-16.11328125
-27.34375,-73.73046875,-41.9921875,-17.578125
-66.89453125,-44.43359375,-52.734375,-53.22265625
-76.171875,-10.25390625,-49.31640625,-60.546875
-83.0078125,-39.0625,-49.31640625,-77.1484375
-85.44921875,-59.5703125,-47.8515625,-94.23828125
-89.35546875,-67.87109375,-48.33984375,-84.9609375
-104.00390625,-38.0859375,-57.12890625,-108.3984375
-117.1875,33.69140625,-58.59375,-126.46484375
-107.421875,-6.34765625,-59.5703125,-108.3984375
-95.21484375,-101.5625,-60.546875,-108.88671875
-112.79296875,-88.37890625,-60.546875,-118.1640625
-100.5859375,-47.8515625,-59.08203125,-98.6328125
-68.84765625,-18.06640625,-60.05859375,-87.890625
-82.03125,-19.53125,-55.17578125,-96.6796875
-82.03125,-59.08203125,-46.38671875,-83.0078125
-60.546875,-75.1953125,-53.22265625,-66.89453125
-67.87109375,-57.12890625,-54.19921875,-63.4765625
-63.96484375,-32.2265625,-52.734375,-58.59375
-63.96484375,-7.8125,-56.640625,-52.734375
-67.87109375,-14.6484375,-52.734375,-40.52734375
-49.31640625,-106.4453125,-51.7578125,-26.85546875
-52.734375,-96.19140625,-54.6875,-30.76171875
-36.62109375,-6.8359375,-59.5703125,-48.33984375
-52.24609375,-23.92578125,-55.17578125,-52.24609375
-58.10546875,-48.33984375,-50.78125,-46.875
-48.33984375,-59.5703125,-60.05859375,-45.41015625
-51.26953125,-62.98828125,-53.22265625,-41.50390625
-40.0390625,-31.73828125,-42.48046875,-42.96875
-34.1796875,-4.39453125,-45.41015625,-40.52734375
-34.1796875,-20.01953125,-45.41015625,-34.66796875
-40.52734375,-57.6171875,-48.33984375,-41.9921875
-36.62109375,-33.69140625,-47.8515625,-47.36328125
-38.0859375,-29.296875,-45.8984375,-43.45703125
-22.4609375,-41.015625,-46.875,-31.25
-25.87890625,-27.34375,-42.96875,-24.4140625
-43.9453125,-74.70703125,-46.875,-29.296875
-29.78515625,-82.51953125,-49.31640625,-32.71484375
-22.94921875,11.71875,-48.33984375,-35.64453125
-37.109375,14.16015625,-47.36328125,-15.13671875
-32.71484375,-47.36328125,-40.52734375,-7.8125
-24.4140625,-58.10546875,-43.9453125,-38.57421875
-39.55078125,-63.96484375,-49.8046875,-41.9921875
-35.15625,-35.64453125,-49.31640625,-24.90234375
-19.04296875,31.73828125,-46.38671875,-27.83203125
-22.4609375,-31.25,-47.8515625,-38.0859375
-29.78515625,-92.28515625,-48.828125,-40.52734375
-52.24609375,-56.640625,-53.7109375,-47.36328125
-62.01171875,-51.26953125,-54.6875,-41.015625
-55.17578125,-16.6015625,-48.828125,-37.59765625
-55.17578125,-39.55078125,-50.78125,-40.0390625
-56.640625,-87.40234375,-47.8515625,-37.109375
-58.10546875,-72.75390625,-48.33984375,-36.1328125
-50.29296875,-32.2265625,-52.734375,-26.3671875
-40.0390625,-30.76171875,-55.6640625,-41.50390625
-53.22265625,-26.3671875,-49.31640625,-51.7578125
-49.8046875,-13.671875,-48.33984375,-47.8515625
-51.7578125,-101.5625,-55.17578125,-57.6171875
-57.6171875,-90.8203125,-57.12890625,-56.15234375
-47.36328125,6.8359375,-54.19921875,-38.0859375
-30.76171875,3.90625,-48.33984375,-34.1796875
-25.87890625,-40.0390625,-50.78125,-30.2734375
-26.3671875,-83.984375,-54.6875,-22.94921875
-29.296875,-59.5703125,-50.78125,-20.5078125
-40.0390625,-3.41796875,-46.38671875,-19.04296875
-36.1328125,4.8828125,-49.8046875,-31.73828125
-28.80859375,-57.12890625,-50.29296875,-31.25
-39.55078125,-87.890625,-52.24609375,-23.92578125
-44.43359375,-40.0390625,-51.26953125,-26.85546875
-39.55078125,-12.20703125,-42.96875,-24.90234375
-31.73828125,-38.57421875,-41.9921875,-25.87890625
-34.66796875,-70.80078125,-42.48046875,-27.34375
-43.9453125,-73.2421875,-44.921875,-31.73828125
-46.38671875,-68.84765625,-43.45703125,-45.41015625
-51.26953125,-38.0859375,-42.96875,-43.9453125
-50.29296875,-10.7421875,-47.8515625,-36.62109375
-52.734375,-37.59765625,-47.8515625,-27.83203125
-48.828125,-64.94140625,-45.41015625,-41.015625
-52.24609375,-79.58984375,-41.50390625,-50.29296875
-45.41015625,-39.55078125,-41.9921875,-41.015625
-34.1796875,29.296875,-44.921875,-47.8515625
-43.45703125,-60.05859375,-46.38671875,-45.8984375
-44.921875,-101.5625,-48.33984375,-44.43359375
-54.19921875,-68.359375,-51.7578125,-47.36328125
-41.9921875,-54.6875,-51.7578125,-38.57421875
-22.94921875,-10.7421875,-52.24609375,-37.59765625
-30.2734375,-26.3671875,-49.8046875,-38.57421875
-39.55078125,-50.78125,-46.38671875,-33.203125
-46.875,-72.265625,-45.8984375,-44.43359375
-46.875,-48.33984375,-47.36328125,-33.69140625
-27.83203125,-9.27734375,-50.78125,-25.87890625
-15.625,-5.37109375,-52.24609375,-35.15625
-24.4140625,-32.71484375,-49.8046875,-20.99609375
-23.92578125,-76.171875,-45.41015625,-22.94921875
-33.69140625,-68.359375,-46.38671875,-50.29296875
-33.69140625,-10.7421875,-47.8515625,-46.38671875
-27.83203125,-13.671875,-43.9453125,-35.64453125
-42.48046875,-52.734375,-40.0390625,-45.41015625
-51.26953125,-47.8515625,-41.015625,-55.6640625
-42.96875,-62.98828125,-40.52734375,-40.0390625
-40.0390625,-26.3671875,-41.50390625,-40.0390625
-35.64453125,-11.71875,-42.48046875,-44.921875
-41.50390625,-68.359375,-38.57421875,-28.80859375
-50.29296875,-84.47265625,-43.45703125,-45.8984375
-32.71484375,-27.83203125,-46.38671875,-57.12890625
-38.57421875,-4.39453125,-49.31640625,-23.92578125
-39.55078125,-21.484375,-50.29296875,-26.85546875
-34.1796875,-40.52734375,-48.828125,-53.7109375
-46.875,-84.9609375,-50.78125,-52.24609375
-55.17578125,-77.63671875,-48.828125,-43.9453125
-41.9921875,-3.90625,-44.43359375,-38.57421875
-36.62109375,9.765625,-42.96875,-33.69140625
-43.9453125,-36.62109375,-41.015625,-41.9921875
-42.48046875,-69.82421875,-41.9921875,-48.33984375
-47.36328125,-88.8671875,-42.48046875,-38.0859375
-58.10546875,-25.87890625,-41.50390625,-36.1328125
-36.62109375,41.50390625,-40.0390625,-37.59765625
-34.1796875,-50.29296875,-40.0390625,-39.0625
-57.6171875,-122.0703125,-49.8046875,-45.41015625
-59.08203125,-84.47265625,-51.26953125,-41.015625
-49.31640625,-25.87890625,-48.33984375,-46.38671875
-43.45703125,-0.9765625,-48.33984375,-47.8515625
-43.45703125,-41.9921875,-49.31640625,-30.76171875
-45.8984375,-77.1484375,-51.7578125,-46.38671875
-63.96484375,-68.84765625,-51.26953125,-59.5703125
-72.75390625,-43.45703125,-48.33984375,-47.36328125
-58.59375,-9.27734375,-51.26953125,-44.921875
-55.17578125,-19.53125,-57.12890625,-48.828125
-55.17578125,-48.33984375,-53.7109375,-48.33984375
-54.19921875,-77.63671875,-49.8046875,-36.62109375
-62.5,-81.0546875,-45.8984375,-47.8515625
-62.98828125,-25.390625,-45.41015625,-58.59375
-50.29296875,-19.53125,-45.8984375,-50.78125
-54.6875,-48.33984375,-43.9453125,-66.89453125
-75.68359375,-72.75390625,-44.921875,-83.0078125
-78.125,-50.29296875,-48.33984375,-72.265625
-52.734375,14.16015625,-46.875,-67.87109375
-47.8515625,6.34765625,-45.41015625,-65.4296875
-51.7578125,-68.359375,-52.734375,-65.4296875
-40.0390625,-98.14453125,-50.29296875,-64.94140625
-47.8515625,-26.85546875,-47.8515625,-52.734375
-44.43359375,-20.01953125,-50.29296875,-44.43359375
-40.52734375,-36.1328125,-48.33984375,-44.43359375
-37.59765625,-49.8046875,-47.36328125,-47.8515625
-39.0625,-114.2578125,-49.8046875,-60.05859375
-50.29296875,-84.9609375,-50.78125,-58.10546875
-48.33984375,1.953125,-43.9453125,-46.38671875
-52.734375,9.27734375,-40.52734375,-43.45703125
-49.8046875,-67.3828125,-41.50390625,-44.921875
-55.17578125,-104.4921875,-47.36328125,-53.7109375
-72.265625,-72.75390625,-51.7578125,-53.22265625
-72.75390625,1.46484375,-49.31640625,-55.6640625
-62.98828125,4.39453125,-48.828125,-63.4765625
-61.03515625,-96.19140625,-47.8515625,-62.98828125
-65.4296875,-126.953125,-51.26953125,-66.89453125
-69.82421875,-88.37890625,-49.31640625,-66.40625
-64.453125,-33.203125,-43.45703125,-60.546875
-45.8984375,-9.27734375,-38.0859375,-63.96484375
-41.9921875,-51.7578125,-39.0625,-62.5
-53.22265625,-100.09765625,-47.36328125,-56.15234375
-47.36328125,-77.1484375,-44.43359375,-47.8515625
-52.24609375,-29.78515625,-40.0390625,-45.41015625
-51.7578125,-27.34375,-42.48046875,-48.828125
-54.19921875,-35.15625,-46.38671875,-53.7109375
-56.15234375,-55.17578125,-46.875,-64.94140625
-49.31640625,-107.421875,-43.9453125,-61.03515625
-57.12890625,-62.01171875,-46.38671875,-60.05859375
-61.03515625,-13.671875,-46.875,-56.640625
-48.828125,-54.19921875,-45.41015625,-48.33984375
-46.875,-82.03125,-49.31640625,-51.26953125
-58.10546875,-89.84375,-57.12890625,-53.22265625
-55.17578125,-48.33984375,-57.12890625,-43.45703125
-39.55078125,-0.9765625,-48.828125,-44.43359375
-32.71484375,-20.5078125,-47.8515625,-48.33984375
-47.36328125,-106.93359375,-52.24609375,-48.33984375
-57.6171875,-99.609375,-52.24609375,-48.828125
-62.98828125,-24.4140625,-47.8515625,-51.26953125
-59.08203125,-15.13671875,-46.38671875,-46.875
-52.24609375,-55.17578125,-44.921875,-47.36328125
-55.17578125,-76.171875,-46.38671875,-65.91796875
-53.22265625,-90.8203125,-54.19921875,-64.94140625
-54.6875,-76.171875,-56.15234375,-55.17578125
-57.6171875,-31.73828125,-59.5703125,-59.5703125
-48.828125,-19.04296875,-61.03515625,-59.5703125
-50.78125,-61.5234375,-53.7109375,-63.4765625
-58.10546875,-106.4453125,-47.36328125,-72.75390625
-61.03515625,-78.61328125,-52.734375,-66.89453125
-50.78125,0.48828125,-54.19921875,-46.875
-47.8515625,30.2734375,-50.78125,-43.45703125
-59.08203125,-36.1328125,-51.7578125,-49.31640625
-68.84765625,-122.55859375,-56.640625,-49.8046875
-76.66015625,-101.5625,-59.08203125,-46.875
-61.03515625,-16.11328125,-51.26953125,-41.015625
-45.41015625,-0.48828125,-48.33984375,-45.41015625
-37.59765625,-44.921875,-49.8046875,-44.43359375
-42.48046875,-82.51953125,-45.8984375,-40.0390625
-50.78125,-77.63671875,-47.36328125,-43.45703125
-36.62109375,-18.06640625,-52.734375,-41.50390625
-25.87890625,-4.8828125,-49.8046875,-47.36328125
-33.69140625,-42.96875,-46.38671875,-48.828125
-42.96875,-41.015625,-40.52734375,-33.69140625
-49.8046875,-93.75,-41.015625,-30.2734375
-41.9921875,-74.21875,-48.33984375,-36.62109375
-38.57421875,16.6015625,-50.78125,-39.0625
-37.59765625,-39.0625,-49.8046875,-37.109375
-36.1328125,-113.28125,-44.43359375,-35.64453125
-50.78125,-95.21484375,-47.36328125,-37.59765625
-45.41015625,-28.80859375,-53.22265625,-37.109375
-34.1796875,3.90625,-49.8046875,-34.66796875
-39.0625,-36.1328125,-45.8984375,-34.66796875
-38.57421875,-94.23828125,-49.8046875,-47.36328125
-49.31640625,-88.8671875,-53.7109375,-49.31640625
-59.08203125,0.0,-50.78125,-39.55078125
-50.29296875,-17.08984375,-56.640625,-43.45703125
-45.41015625,-66.89453125,-56.15234375,-47.8515625
-56.15234375,-72.265625,-53.22265625,-52.734375
-58.10546875,-83.49609375,-55.17578125,-58.59375
-59.5703125,-32.2265625,-57.12890625,-54.6875
-62.5,-7.32421875,-54.19921875,-55.6640625
-60.546875,-55.6640625,-53.22265625,-64.94140625
-52.24609375,-95.21484375,-50.78125,-56.640625
-59.08203125,-94.7265625,-51.7578125,-55.6640625
-56.640625,-43.45703125,-51.26953125,-59.5703125
-47.36328125,-9.765625,-47.36328125,-42.96875
-43.45703125,1.46484375,-49.8046875,-43.45703125
-44.921875,-72.265625,-54.19921875,-53.7109375
-48.33984375,-121.58203125,-54.6875,-50.78125
-43.9453125,-68.359375,-53.7109375,-44.43359375
-41.50390625,-24.4140625,-49.31640625,-46.38671875
-32.71484375,-27.34375,-46.38671875,-45.8984375
-34.66796875,-81.54296875,-50.29296875,-47.36328125
-45.41015625,-94.7265625,-49.31640625,-49.8046875
-59.08203125,-79.1015625,-49.31640625,-52.734375
-63.96484375,-6.8359375,-53.22265625,-54.19921875
-48.33984375,-4.8828125,-53.7109375,-49.8046875
-41.9921875,-70.3125,-51.26953125,-59.5703125
-48.33984375,-57.12890625,-49.8046875,-57.6171875
-54.19921875,-80.078125,-52.24609375,-51.26953125
-40.52734375,-51.26953125,-52.24609375,-54.19921875
-32.71484375,-8.30078125,-50.78125,-46.875
-41.50390625,-53.22265625,-52.24609375,-45.8984375
-44.921875,-75.68359375,-53.7109375,-60.546875
-55.6640625,-72.75390625,-52.24609375,-60.546875
-58.59375,-32.71484375,-49.31640625,-60.546875
-50.29296875,-5.859375,-49.31640625,-58.59375
-50.29296875,-40.0390625,-46.38671875,-55.6640625
-51.26953125,-96.19140625,-46.38671875,-61.03515625
-48.828125,-82.03125,-47.8515625,-51.26953125
-48.33984375,8.7890625,-46.875,-40.0390625
-41.50390625,2.44140625,-45.41015625,-38.57421875
-33.203125,-67.87109375,-42.48046875,-43.45703125
-43.45703125,-94.7265625,-46.38671875,-54.6875
-53.7109375,-97.16796875,-53.22265625,-59.5703125
-49.31640625,-49.31640625,-47.8515625,-49.8046875
-37.109375,31.25,-36.62109375,-40.0390625
-42.48046875,-7.8125,-40.0390625,-49.31640625
-48.828125,-107.91015625,-45.41015625,-50.29296875
-42.48046875,-98.14453125,-37.109375,-37.109375
-44.921875,-40.0390625,-37.109375,-37.109375
-36.62109375,18.5546875,-43.45703125,-37.109375
-29.78515625,16.11328125,-42.96875,-35.64453125
-46.38671875,-99.12109375,-41.9921875,-48.828125
-58.10546875,-96.6796875,-42.48046875,-50.29296875
-54.6875,-19.53125,-41.015625,-42.48046875
-46.875,-35.15625,-40.52734375,-49.31640625
-47.8515625,-23.92578125,-39.0625,-48.33984375
-42.48046875,-58.59375,-38.57421875,-40.0390625
-43.45703125,-85.9375,-46.875,-40.0390625
-44.921875,-52.734375,-51.7578125,-32.71484375
-35.64453125,-4.8828125,-48.33984375,-23.92578125
-25.390625,-21.484375,-44.921875,-30.2734375
-29.296875,-61.5234375,-44.921875,-35.15625
-39.0625,-62.01171875,-44.921875,-37.109375
-45.41015625,-67.87109375,-46.38671875,-40.52734375
-46.875,-29.296875,-46.38671875,-37.59765625
-49.8046875,-31.73828125,-47.8515625,-38.0859375
-48.828125,-59.08203125,-50.78125,-46.875
-48.33984375,-66.40625,-49.31640625,-54.19921875
-52.734375,-72.75390625,-52.24609375,-47.8515625
-55.17578125,-48.828125,-60.05859375,-40.0390625
-50.29296875,-4.39453125,-56.15234375,-41.9921875
-48.828125,-47.36328125,-53.22265625,-47.36328125
-49.8046875,-103.02734375,-55.6640625,-44.43359375
-45.8984375,-68.84765625,-55.17578125,-44.43359375
-58.10546875,16.6015625,-56.15234375,-46.38671875
-57.12890625,-23.4375,-48.828125,-36.62109375
-47.36328125,-95.21484375,-47.36328125,-41.9921875
-47.8515625,-91.796875,-48.828125,-55.17578125
-61.03515625,-85.44921875,-45.8984375,-49.31640625
-65.91796875,-35.64453125,-54.6875,-48.828125
-47.36328125,-10.7421875,-52.734375,-46.875
-38.0859375,-46.38671875,-47.8515625,-47.8515625
-48.828125,-74.21875,-54.19921875,-64.453125
-62.5,-77.1484375,-52.734375,-59.08203125
-66.40625,-47.36328125,-50.78125,-49.31640625
-56.640625,-7.32421875,-54.6875,-48.828125
-51.7578125,-12.6953125,-51.26953125,-48.828125
-56.15234375,-81.0546875,-53.22265625,-50.29296875
-68.359375,-126.46484375,-59.5703125,-52.24609375
-63.96484375,-55.17578125,-55.6640625,-49.31640625
-50.78125,3.90625,-52.734375,-38.0859375
-45.41015625,-21.484375,-49.8046875,-42.96875
-47.36328125,-75.68359375,-47.8515625,-59.5703125
-58.59375,-87.40234375,-51.26953125,-55.17578125
-59.08203125,-48.828125,-52.24609375,-43.9453125
-50.78125,-5.859375,-50.78125,-45.41015625
-40.52734375,9.27734375,-50.78125,-45.8984375
-34.1796875,-42.96875,-50.78125,-43.45703125
-39.55078125,-52.24609375,-47.8515625,-43.45703125
-41.9921875,-33.69140625,-53.7109375,-36.62109375
-33.203125,-53.7109375,-60.05859375,-33.203125
-34.1796875,-38.57421875,-52.24609375,-46.875
-43.45703125,-58.59375,-46.38671875,-48.828125
-51.7578125,-91.796875,-48.828125,-45.41015625
-63.96484375,-67.87109375,-52.734375,-53.22265625
-62.01171875,-14.16015625,-49.8046875,-50.29296875
-54.6875,2.9296875,-47.36328125,-47.8515625
-55.17578125,-49.8046875,-49.31640625,-55.17578125
-48.828125,-89.84375,-48.828125,-54.19921875
-43.9453125,-43.45703125,-47.8515625,-46.38671875
-41.9921875,18.5546875,-43.45703125,-43.45703125
-36.62109375,-33.203125,-49.8046875,-49.8046875
-43.9453125,-71.77734375,-48.33984375,-49.31640625
-67.87109375,-65.91796875,-38.57421875,-46.38671875
-68.359375,-89.84375,-45.41015625,-48.33984375
-53.22265625,-27.34375,-45.8984375,-42.96875
-48.828125,2.9296875,-42.96875,-46.38671875
-45.8984375,-49.31640625,-42.96875,-55.17578125
-42.96875,-83.0078125,-45.41015625,-57.12890625
-48.828125,-79.1015625,-49.8046875,-57.6171875
-49.31640625,-23.92578125,-43.9453125,-42.96875
-36.62109375,13.671875,-41.9921875,-36.1328125
-34.66796875,-3.90625,-42.96875,-34.66796875
-42.48046875,-95.703125,-47.8515625,-40.52734375
-55.6640625,-131.8359375,-53.7109375,-46.875
-60.546875,-39.55078125,-48.33984375,-42.48046875
-41.50390625,-0.48828125,-43.45703125,-40.52734375
-36.1328125,-12.20703125,-47.36328125,-47.36328125
-40.0390625,-50.29296875,-53.7109375,-51.7578125
-51.7578125,-101.5625,-55.6640625,-58.10546875
-56.15234375,-41.015625,-56.640625,-58.10546875
-45.8984375,20.5078125,-56.15234375,-56.15234375
-42.96875,-33.203125,-56.15234375,-56.640625
-45.41015625,-63.4765625,-61.5234375,-65.4296875
-53.7109375,-38.0859375,-58.59375,-70.80078125
-55.17578125,-71.77734375,-55.6640625,-69.82421875
-42.96875,-32.2265625,-55.17578125,-62.5
-39.0625,-21.97265625,-56.15234375,-58.10546875
-36.62109375,-69.3359375,-54.19921875,-57.6171875
-45.8984375,-79.1015625,-49.31640625,-54.6875
-49.8046875,-34.1796875,-48.828125,-41.9921875
-51.7578125,0.9765625,-47.36328125,-32.71484375
-47.36328125,-14.16015625,-47.36328125,-37.109375
-39.55078125,-41.9921875,-52.24609375,-43.45703125
-53.22265625,-115.72265625,-51.26953125,-50.78125
-64.94140625,-67.87109375,-50.29296875,-50.29296875
-57.12890625,41.015625,-50.29296875,-42.96875
-46.38671875,-22.94921875,-46.875,-41.015625
-42.48046875,-82.51953125,-44.43359375,-49.8046875
-46.38671875,-83.984375,-51.26953125,-53.7109375
-58.10546875,-78.61328125,-59.5703125,-56.15234375
-62.5,-12.20703125,-50.78125,-59.5703125
-55.6640625,2.9296875,-43.45703125,-56.640625
-54.19921875,-57.6171875,-45.41015625,-53.7109375
-55.17578125,-104.00390625,-49.31640625,-51.7578125
-51.7578125,-78.125,-50.78125,-49.31640625
-51.7578125,-20.01953125,-46.875,-43.45703125
-45.41015625,-6.8359375,-45.41015625,-43.45703125
-51.7578125,-20.5078125,-51.7578125,-45.41015625
-54.6875,-74.70703125,-52.24609375,-46.875
-50.78125,-117.67578125,-48.33984375,-41.9921875
-47.8515625,-40.52734375,-48.828125,-38.57421875
-34.1796875,-2.9296875,-43.9453125,-41.50390625
-22.94921875,-29.78515625,-44.43359375,-44.921875
-30.2734375,-82.51953125,-48.33984375,-49.31640625
-46.38671875,-95.21484375,-52.24609375,-50.29296875
-50.78125,-29.296875,-52.24609375,-40.0390625
-47.36328125,-4.8828125,-47.36328125,-41.50390625
-48.33984375,-48.828125,-48.828125,-58.10546875
-45.8984375,-89.35546875,-51.7578125,-50.29296875
-57.6171875,-57.6171875,-51.26953125,-46.38671875
-75.1953125,-37.109375,-53.7109375,-54.6875
-65.91796875,-31.73828125,-58.10546875,-51.7578125
-53.7109375,-32.2265625,-54.6875,-52.734375
-57.6171875,-75.1953125,-50.29296875,-55.17578125
-53.7109375,-82.51953125,-52.734375,-45.8984375
-57.12890625,-47.8515625,-57.12890625,-38.0859375
-51.7578125,-0.9765625,-58.59375,-39.55078125
-34.66796875,-40.52734375,-52.734375,-41.015625
-41.015625,-87.890625,-50.78125,-45.41015625
-52.734375,-95.703125,-53.22265625,-48.828125
-56.640625,-33.69140625,-56.640625,-44.921875
-54.19921875,36.62109375,-55.6640625,-32.71484375
-37.109375,-20.01953125,-56.15234375,-39.0625
-37.109375,-90.33203125,-54.6875,-51.26953125
-56.15234375,-88.8671875,-54.6875,-45.41015625
-59.5703125,-53.7109375,-55.6640625,-41.015625
-41.9921875,17.578125,-50.29296875,-36.1328125
-32.2265625,2.9296875,-52.24609375,-37.59765625
-36.1328125,-90.33203125,-56.640625,-52.734375
-39.0625,-91.796875,-54.19921875,-61.5234375
-53.22265625,-72.75390625,-50.29296875,-48.33984375
-59.5703125,-24.4140625,-56.15234375,-45.8984375
-50.29296875,2.9296875,-53.7109375,-43.45703125
-45.8984375,-22.4609375,-43.9453125,-42.48046875
-51.26953125,-107.421875,-49.8046875,-49.8046875
-59.5703125,-103.02734375,-59.08203125,-46.875
-54.19921875,-21.484375,-51.7578125,-39.0625
-40.0390625,-7.32421875,-47.8515625,-42.48046875
-40.52734375,-54.6875,-54.19921875,-50.29296875
-46.875,-72.75390625,-52.734375,-52.24609375
-43.9453125,-68.84765625,-46.875,-49.31640625
-42.48046875,-14.6484375,-44.43359375,-43.9453125
-41.015625,18.06640625,-41.9921875,-44.43359375
-35.64453125,-60.05859375,-38.57421875,-47.36328125
-41.50390625,-94.23828125,-38.57421875,-48.828125
-44.43359375,-56.640625,-40.52734375,-41.015625
-51.7578125,-33.203125,-47.36328125,-38.0859375
-49.8046875,-43.9453125,-50.29296875,-41.50390625
-37.59765625,-50.29296875,-45.41015625,-45.41015625
-37.109375,-97.65625,-46.875,-43.45703125
-41.9921875,-99.12109375,-47.36328125,-42.48046875
-51.26953125,-36.62109375,-42.96875,-43.9453125
-42.96875,-6.34765625,-39.55078125,-37.59765625
-26.3671875,-26.85546875,-40.0390625,-33.69140625
-31.73828125,-76.66015625,-43.9453125,-34.66796875
-54.19921875,-104.4921875,-47.8515625,-38.0859375
-61.5234375,-38.0859375,-47.36328125,-45.8984375
-47.36328125,24.4140625,-43.9453125,-45.8984375
-34.66796875,-12.20703125,-37.59765625,-41.015625
-40.0390625,-100.5859375,-37.109375,-40.52734375
-48.33984375,-122.0703125,-42.48046875,-43.45703125
-56.15234375,-44.921875,-41.9921875,-43.45703125
-45.41015625,-1.46484375,-39.55078125,-37.109375
-35.64453125,-34.1796875,-37.59765625,-41.015625
-35.64453125,-68.84765625,-39.0625,-47.36328125
-38.57421875,-69.82421875,-47.8515625,-51.26953125
-50.29296875,-47.36328125,-54.19921875,-50.29296875
-46.38671875,-20.01953125,-48.828125,-43.45703125
-44.43359375,6.8359375,-48.828125,-47.8515625
-44.43359375,-12.6953125,-49.31640625,-50.29296875
-49.8046875,-120.1171875,-48.828125,-52.24609375
-60.546875,-100.09765625,-52.24609375,-51.7578125
-42.96875,0.48828125,-49.31640625,-43.9453125
-33.69140625,-16.11328125,-50.78125,-41.50390625
-39.55078125,-62.01171875,-49.31640625,-46.875
-41.015625,-83.49609375,-44.921875,-45.8984375
-50.78125,-72.265625,-45.41015625,-40.52734375
-56.15234375,-23.4375,-50.29296875,-43.45703125
-45.8984375,-22.94921875,-50.78125,-39.55078125
-36.1328125,-61.5234375,-48.828125,-43.9453125
-41.50390625,-78.61328125,-51.7578125,-47.8515625
-46.875,-40.52734375,-49.31640625,-41.50390625
-48.33984375,-23.4375,-53.22265625,-36.1328125
-42.96875,-36.1328125,-56.15234375,-40.0390625
-49.31640625,-60.05859375,-52.734375,-51.7578125
-52.734375,-102.5390625,-52.734375,-53.22265625
-47.36328125,-66.40625,-51.26953125,-47.36328125
-42.96875,-7.8125,-46.38671875,-39.0625
-36.62109375,-35.15625,-45.41015625,-44.43359375
-35.15625,-53.22265625,-48.33984375,-49.8046875
-38.0859375,-83.49609375,-47.36328125,-52.24609375
-42.96875,-87.40234375,-49.31640625,-48.33984375
-32.2265625,-21.97265625,-49.31640625,-36.1328125
-36.1328125,8.7890625,-50.29296875,-43.45703125
-51.26953125,-54.6875,-54.6875,-56.15234375
-46.38671875,-109.375,-55.6640625,-59.08203125
-49.8046875,-95.703125,-52.24609375,-56.640625
-47.36328125,-30.76171875,-46.38671875,-52.24609375
-46.875,-9.765625,-46.38671875,-49.31640625
-48.33984375,-29.296875,-43.45703125,-44.921875
-55.6640625,-63.96484375,-45.41015625,-51.26953125
-61.5234375,-99.609375,-52.734375,-59.5703125
-55.17578125,-48.828125,-56.640625,-50.78125
-46.875,-25.87890625,-53.22265625,-34.66796875
-31.73828125,-21.97265625,-48.33984375,-39.0625
-23.92578125,-24.90234375,-46.38671875,-46.38671875
-37.109375,-90.8203125,-49.8046875,-42.96875
-45.8984375,-79.58984375,-59.5703125,-48.33984375
-43.9453125,-18.06640625,-63.96484375,-53.7109375
-37.109375,-13.18359375,-53.7109375,-51.7578125
-36.62109375,-50.78125,-44.43359375,-50.78125
-42.48046875,-97.65625,-45.8984375,-57.12890625
-49.31640625,-68.359375,-43.45703125,-54.6875
-56.15234375,-0.9765625,-43.45703125,-44.43359375
-55.6640625,-17.578125,-45.8984375,-45.41015625
-53.7109375,-82.03125,-42.48046875,-46.38671875
-51.7578125,-93.26171875,-43.9453125,-44.921875
-54.6875,-32.2265625,-48.33984375,-41.9921875
-54.19921875,-1.953125,-47.36328125,-33.203125
-49.31640625,-41.9921875,-42.96875,-32.71484375
-50.29296875,-97.65625,-41.9921875,-41.9921875
-44.43359375,-101.5625,-43.9453125,-46.38671875
-43.9453125,-48.33984375,-41.50390625,-40.52734375
-50.78125,0.9765625,-38.0859375,-33.203125
-45.8984375,-8.30078125,-40.52734375,-39.55078125
-44.921875,-56.640625,-38.0859375,-49.8046875
-44.921875,-78.125,-35.64453125,-53.7109375
-46.875,-76.66015625,-39.55078125,-53.7109375
-52.24609375,-15.13671875,-41.015625,-50.78125
-33.69140625,30.76171875,-41.015625,-45.41015625
-32.71484375,-54.6875,-44.43359375,-52.734375
-50.29296875,-97.16796875,-48.828125,-55.17578125
-52.24609375,-70.80078125,-53.22265625,-52.734375
-47.8515625,-40.52734375,-54.6875,-51.7578125
-40.52734375,2.9296875,-48.828125,-46.38671875
-48.33984375,-35.64453125,-43.9453125,-56.640625
-54.19921875,-81.0546875,-43.45703125,-62.98828125
-58.59375,-89.84375,-44.921875,-56.640625
-55.6640625,-44.43359375,-42.48046875,-52.24609375
-46.38671875,10.7421875,-38.57421875,-47.36328125
-38.57421875,-15.13671875,-40.0390625,-36.1328125
-24.90234375,-62.98828125,-40.0390625,-24.90234375
-38.0859375,-108.88671875,-43.45703125,-29.296875
-55.6640625,-89.35546875,-46.875,-37.59765625
-55.17578125,12.20703125,-43.9453125,-39.0625
-55.17578125,-26.85546875,-43.45703125,-48.33984375
-57.12890625,-95.703125,-49.8046875,-54.19921875
-61.5234375,-87.40234375,-50.78125,-52.734375
-64.94140625,-71.2890625,-50.29296875,-56.640625
-56.640625,-11.71875,-48.828125,-56.640625
-49.31640625,-19.04296875,-45.41015625,-58.59375
-50.29296875,-70.3125,-47.36328125,-63.96484375
-53.7109375,-76.66015625,-44.43359375,-55.6640625
-57.6171875,-32.2265625,-44.921875,-57.6171875
-56.15234375,-19.53125,-48.33984375,-62.01171875
-49.8046875,-54.19921875,-47.8515625,-55.6640625
-47.36328125,-74.70703125,-50.78125,-58.59375
-57.12890625,-84.9609375,-48.33984375,-62.01171875
-69.3359375,-64.94140625,-46.875,-53.7109375
-72.265625,-12.20703125,-53.22265625,-54.19921875
-64.453125,-4.8828125,-49.8046875,-65.4296875
-57.6171875,-38.57421875,-42.96875,-65.4296875
-65.4296875,-73.73046875,-49.31640625,-65.4296875
-68.359375,-100.5859375,-56.15234375,-64.453125
-56.640625,-23.4375,-53.22265625,-59.5703125
-35.64453125,46.875,-50.78125,-51.7578125
-32.2265625,-52.734375,-49.8046875,-51.26953125
-42.48046875,-119.62890625,-53.7109375,-56.640625
-50.78125,-77.63671875,-55.6640625,-46.875
-57.6171875,-28.80859375,-53.7109375,-39.55078125
-47.8515625,-0.48828125,-53.22265625,-47.36328125
-39.55078125,-46.875,-52.24609375,-55.6640625
-47.36328125,-97.16796875,-51.26953125,-55.17578125
-52.24609375,-85.44921875,-51.26953125,-52.734375
-51.7578125,-48.828125,-50.29296875,-50.29296875
-51.26953125,-19.04296875,-47.8515625,-43.9453125
-54.19921875,-31.73828125,-45.8984375,-48.33984375
-55.17578125,-53.22265625,-46.38671875,-51.7578125
-56.640625,-68.84765625,-50.29296875,-41.50390625
-56.640625,-63.96484375,-55.6640625,-39.0625
-47.8515625,-33.203125,-56.640625,-48.33984375
-45.41015625,-41.9921875,-54.6875,-45.8984375
-43.45703125,-76.66015625,-52.734375,-42.48046875
-50.78125,-72.75390625,-47.36328125,-44.921875
-50.29296875,-34.1796875,-47.36328125,-41.9921875
-37.59765625,-12.20703125,-51.7578125,-31.25
-35.64453125,-27.83203125,-49.31640625,-38.57421875
-32.71484375,-74.70703125,-54.6875,-45.8984375
-30.76171875,-66.40625,-52.24609375,-41.015625
-47.36328125,3.90625,-47.36328125,-45.8984375
-45.41015625,-15.625,-44.921875,-45.41015625
-35.15625,-23.92578125,-48.33984375,-41.50390625
-39.55078125,-53.7109375,-52.24609375,-43.9453125
-53.7109375,-118.1640625,-45.8984375,-46.38671875
-56.15234375,-61.03515625,-46.38671875,-47.36328125
-42.96875,2.9296875,-50.78125,-43.45703125
-41.50390625,-2.44140625,-49.31640625,-41.9921875
-46.38671875,-53.7109375,-43.45703125,-46.38671875
-52.734375,-100.5859375,-39.0625,-48.828125
-61.5234375,-79.1015625,-42.48046875,-45.41015625
-51.7578125,5.37109375,-46.38671875,-42.48046875
-39.0625,12.6953125,-46.875,-45.41015625
-34.66796875,-79.1015625,-44.921875,-48.33984375
-35.15625,-101.07421875,-40.52734375,-40.52734375
-47.8515625,-58.10546875,-44.43359375,-41.50390625
-48.828125,-5.859375,-47.36328125,-56.15234375
-26.85546875,1.953125,-45.41015625,-61.5234375
-33.203125,-37.59765625,-47.8515625,-60.546875
-47.36328125,-108.88671875,-49.31640625,-62.5
-35.64453125,-81.0546875,-48.33984375,-51.26953125
-38.0859375,-2.9296875,-50.78125,-41.50390625
-41.50390625,-20.01953125,-50.78125,-45.41015625
-43.45703125,-47.36328125,-48.33984375,-50.29296875
-58.59375,-38.57421875,-48.33984375,-56.15234375
-75.1953125,-69.82421875,-49.31640625,-55.6640625
-76.66015625,-60.05859375,-50.78125,-51.26953125
-67.87109375,-25.390625,-48.33984375,-54.6875
-59.5703125,-55.6640625,-43.9453125,-54.19921875
-55.6640625,-88.8671875,-48.33984375,-52.24609375
-58.59375,-88.8671875,-51.26953125,-60.546875
-59.5703125,-41.015625,-45.41015625,-57.6171875
-49.8046875,-6.8359375,-44.921875,-47.8515625
-33.69140625,-7.32421875,-52.24609375,-44.921875
-24.90234375,-86.42578125,-55.17578125,-45.8984375
-36.62109375,-103.02734375,-54.19921875,-49.31640625
-44.43359375,2.44140625,-50.78125,-46.38671875
-39.55078125,-4.8828125,-48.828125,-32.71484375
-34.1796875,-49.8046875,-44.921875,-27.83203125
-44.43359375,-74.21875,-41.015625,-31.25
-62.01171875,-93.26171875,-47.36328125,-36.62109375
-62.5,-37.109375,-45.41015625,-37.109375
-65.91796875,-5.37109375,-41.9921875,-38.57421875
-55.6640625,-23.92578125,-40.0390625,-45.8984375
-51.7578125,-76.171875,-40.52734375,-50.29296875
-66.89453125,-109.86328125,-47.8515625,-50.78125
-60.05859375,-63.4765625,-43.45703125,-46.875
-55.17578125,-2.44140625,-41.015625,-46.875
-56.15234375,19.04296875,-45.8984375,-42.96875
-53.22265625,-66.89453125,-50.78125,-49.8046875
-59.5703125,-130.37109375,-52.734375,-52.24609375
-57.12890625,-83.0078125,-49.31640625,-45.41015625
-53.22265625,-10.7421875,-46.875,-33.203125
-40.52734375,-2.44140625,-46.875,-25.390625
-26.85546875,-60.05859375,-43.45703125,-34.66796875
-40.0390625,-95.703125,-42.96875,-41.9921875
-52.734375,-69.82421875,-45.8984375,-45.41015625
-41.50390625,-24.4140625,-47.8515625,-36.62109375
-32.2265625,-34.66796875,-48.33984375,-34.1796875
-29.78515625,-43.45703125,-48.33984375,-39.55078125
-38.57421875,-47.36328125,-54.19921875,-41.015625
-48.33984375,-90.8203125,-52.24609375,-40.52734375
-51.7578125,-41.9921875,-46.38671875,-39.55078125
-43.9453125,-9.27734375,-42.96875,-37.109375
-45.8984375,-88.8671875,-47.36328125,-44.43359375
-59.5703125,-96.6796875,-52.734375,-56.640625
-58.10546875,-67.87109375,-46.875,-43.45703125
-57.6171875,-47.8515625,-45.8984375,-41.50390625
-49.31640625,-13.18359375,-45.41015625,-51.26953125
-38.57421875,-28.80859375,-41.015625,-45.8984375
-46.875,-91.30859375,-42.48046875,-48.828125
-58.10546875,-77.1484375,-43.9453125,-58.59375
-57.12890625,-10.7421875,-39.0625,-59.08203125
-44.921875,-20.01953125,-40.0390625,-52.24609375
-51.26953125,-60.05859375,-44.921875,-48.828125
-58.10546875,-78.125,-52.734375,-48.828125
-61.5234375,-80.56640625,-55.6640625,-48.828125
-66.40625,-27.83203125,-52.734375,-36.1328125
-43.45703125,4.8828125,-47.8515625,-12.6953125
-28.80859375,-54.6875,-45.8984375,-34.1796875
-51.26953125,-88.37890625,-47.36328125,-66.89453125
-65.91796875,-83.0078125,-49.31640625,-61.5234375
-62.5,-58.59375,-54.6875,-69.82421875
-61.5234375,7.32421875,-57.6171875,-79.1015625
-62.01171875,16.6015625,-54.6875,-71.77734375
-62.01171875,-91.796875,-57.12890625,-75.68359375
-66.89453125,-119.62890625,-56.15234375,-74.70703125
-71.77734375,-82.51953125,-53.22265625,-67.87109375
-68.359375,-30.2734375,-48.828125,-64.94140625
-54.19921875,-12.6953125,-46.38671875,-58.59375
-50.29296875,-71.77734375,-53.22265625,-58.59375
-52.24609375,-105.95703125,-55.17578125,-56.640625
-56.15234375,-74.21875,-51.26953125,-52.734375
-55.6640625,-17.08984375,-46.38671875,-55.17578125
-42.96875,-27.83203125,-48.33984375,-54.19921875
-42.48046875,-63.96484375,-58.10546875,-55.17578125
-53.22265625,-58.59375,-60.05859375,-51.7578125
-63.96484375,-61.03515625,-55.6640625,-48.828125
-61.03515625,-33.203125,-57.12890625,-50.78125
-51.26953125,-10.7421875,-56.640625,-54.6875
-42.96875,-53.7109375,-51.7578125,-58.10546875
-46.875,-79.58984375,-48.828125,-60.546875
-52.734375,-50.78125,-44.921875,-52.734375
-55.17578125,-13.18359375,-45.41015625,-45.8984375
-40.52734375,-16.6015625,-43.45703125,-45.41015625
-29.78515625,-43.45703125,-35.15625,-40.0390625
-42.96875,-65.4296875,-33.203125,-44.43359375
-44.921875,-61.5234375,-35.64453125,-46.38671875
-42.96875,25.390625,-39.0625,-45.41015625
-34.1796875,7.32421875,-40.0390625,-43.45703125
-25.87890625,-96.19140625,-42.48046875,-46.875
-35.64453125,-102.5390625,-44.43359375,-49.8046875
-43.9453125,-75.68359375,-45.41015625,-38.0859375
-57.6171875,-32.2265625,-48.828125,-44.921875
-60.546875,-1.46484375,-53.22265625,-57.12890625
-49.31640625,-39.0625,-49.8046875,-54.6875
-54.19921875,-74.70703125,-45.8984375,-55.6640625
-56.15234375,-81.54296875,-44.43359375,-55.6640625
-54.6875,-43.9453125,-44.921875,-54.6875
-43.45703125,12.20703125,-46.875,-51.26953125
-30.76171875,17.08984375,-42.96875,-42.48046875
-35.15625,-86.9140625,-48.33984375,-33.69140625
-44.43359375,-105.46875,-53.7109375,-34.1796875
-45.41015625,-21.97265625,-49.31640625,-36.1328125
-32.2265625,-26.3671875,-47.36328125,-30.2734375
-20.99609375,-34.66796875,-42.48046875,-24.90234375
-22.4609375,-58.10546875,-37.59765625,-25.87890625
-32.2265625,-81.54296875,-41.9921875,-32.71484375
-39.55078125,-57.12890625,-42.96875,-35.15625
-35.15625,4.39453125,-41.50390625,-38.0859375
-32.2265625,-22.4609375,-43.45703125,-44.921875
-46.38671875,-78.125,-45.41015625,-50.78125
-60.546875,-49.8046875,-50.78125,-53.22265625
-59.08203125,-54.6875,-57.12890625,-54.19921875
-56.15234375,-41.015625,-56.640625,-58.10546875
-54.6875,0.48828125,-47.8515625,-59.5703125
-49.8046875,-60.546875,-47.36328125,-66.40625
-57.12890625,-82.51953125,-47.36328125,-62.5
-58.10546875,-46.875,-42.48046875,-54.19921875
-58.10546875,-9.27734375,-46.38671875,-50.78125
-60.546875,-22.94921875,-47.8515625,-55.17578125
-64.453125,-71.2890625,-52.24609375,-64.94140625
-61.5234375,-88.8671875,-55.17578125,-59.08203125
-61.03515625,-62.98828125,-53.22265625,-51.26953125
-53.7109375,24.4140625,-50.78125,-48.828125
-35.64453125,-19.04296875,-49.8046875,-53.22265625
-23.92578125,-75.1953125,-46.875,-42.48046875
-33.203125,-71.77734375,-40.52734375,-31.73828125
-52.24609375,-73.73046875,-45.41015625,-40.0390625
-45.8984375,-32.71484375,-41.50390625,-35.15625
-43.45703125,-4.8828125,-38.57421875,-33.203125
-39.0625,-37.109375,-42.96875,-40.0390625
-37.109375,-55.6640625,-44.43359375,-45.8984375
-59.5703125,-47.8515625,-50.29296875,-58.10546875
-66.89453125,-45.41015625,-51.26953125,-56.640625
-49.8046875,-11.23046875,-48.33984375,-48.33984375
-31.73828125,-4.39453125,-49.31640625,-57.12890625
-33.203125,-86.42578125,-46.875,-55.17578125
-45.8984375,-89.35546875,-44.43359375,-45.41015625
-45.8984375,-20.5078125,-47.36328125,-44.921875
-38.57421875,4.8828125,-46.875,-37.59765625
-45.41015625,-14.16015625,-47.8515625,-39.0625
-57.12890625,-66.89453125,-52.734375,-55.6640625
-58.10546875,-77.63671875,-52.24609375,-54.19921875
-56.15234375,-52.24609375,-50.29296875,-41.9921875
-45.41015625,-5.37109375,-48.828125,-42.48046875
-41.015625,-27.83203125,-44.921875,-44.43359375
-38.0859375,-73.2421875,-48.828125,-45.8984375
-44.43359375,-40.52734375,-51.26953125,-44.921875
-53.7109375,-31.25,-47.36328125,-33.203125
-46.875,-39.55078125,-43.45703125,-21.97265625
-38.57421875,-42.96875,-45.8984375,-32.2265625
-40.0390625,-89.35546875,-50.29296875,-50.29296875
-55.6640625,-81.54296875,-48.828125,-44.921875
-59.08203125,-53.22265625,-51.26953125,-45.41015625
-54.19921875,-27.83203125,-53.7109375,-44.921875
-56.15234375,-21.97265625,-50.29296875,-40.52734375
-55.17578125,-68.84765625,-47.36328125,-48.33984375
-68.359375,-89.35546875,-46.875,-56.15234375
-67.87109375,-53.7109375,-49.31640625,-57.6171875
-61.5234375,13.18359375,-47.36328125,-52.24609375
-55.17578125,-27.83203125,-46.38671875,-49.31640625
-58.10546875,-75.68359375,-48.33984375,-46.38671875
-69.3359375,-76.66015625,-54.6875,-50.78125
-59.5703125,-92.28515625,-58.59375,-57.12890625
-48.33984375,-20.99609375,-51.26953125,-48.33984375
-41.015625,3.90625,-42.48046875,-43.45703125
-41.50390625,-39.0625,-36.1328125,-51.26953125
-50.78125,-83.49609375,-43.9453125,-64.453125
-52.24609375,-63.4765625,-46.38671875,-56.640625
-50.29296875,-21.97265625,-42.48046875,-46.38671875
-38.57421875,-4.39453125,-44.921875,-48.33984375
-31.25,-5.37109375,-43.45703125,-46.38671875
-43.9453125,-79.1015625,-42.96875,-54.6875
-59.08203125,-115.234375,-49.8046875,-60.05859375
-50.78125,-35.15625,-51.26953125,-55.17578125
-41.50390625,-0.9765625,-45.8984375,-55.17578125
-41.9921875,-28.80859375,-43.45703125,-54.19921875
-42.96875,-57.6171875,-45.41015625,-54.19921875
-56.15234375,-96.19140625,-52.24609375,-61.03515625
-55.6640625,-43.45703125,-53.7109375,-62.98828125
-42.96875,-1.953125,-48.828125,-53.7109375
-40.0390625,-42.96875,-43.9453125,-46.875
-39.0625,-71.2890625,-41.50390625,-54.19921875
-44.43359375,-60.05859375,-43.45703125,-50.29296875
-49.8046875,-43.45703125,-45.41015625,-42.96875
-55.17578125,-27.34375,-46.38671875,-44.43359375
-46.875,-30.76171875,-44.921875,-50.29296875
-43.45703125,-77.1484375,-42.48046875,-50.78125
-55.6640625,-104.98046875,-48.33984375,-50.78125
-62.98828125,-49.8046875,-52.734375,-47.8515625
-52.24609375,-5.37109375,-48.828125,-37.59765625
-35.64453125,-24.90234375,-43.9453125,-37.109375
-30.76171875,-75.68359375,-44.921875,-39.55078125
-39.55078125,-86.42578125,-51.26953125,-42.96875
-51.7578125,-47.36328125,-56.15234375,-42.48046875
-50.78125,8.30078125,-55.17578125,-44.921875
-46.875,-3.41796875,-50.29296875,-52.24609375
-52.734375,-94.7265625,-53.7109375,-56.15234375
-63.96484375,-104.4921875,-52.734375,-55.6640625
-72.75390625,-56.15234375,-43.9453125,-56.640625
-61.5234375,4.8828125,-44.921875,-48.33984375
-47.36328125,-1.46484375,-45.41015625,-44.43359375
-35.15625,-66.89453125,-42.48046875,-58.10546875
-44.43359375,-89.35546875,-43.45703125,-56.15234375
-56.15234375,-48.828125,-47.36328125,-45.8984375
-42.48046875,-19.53125,-50.78125,-38.57421875
-38.57421875,-19.04296875,-45.41015625,-25.87890625
-49.8046875,-23.4375,-46.38671875,-31.25
-57.12890625,-69.82421875,-50.78125,-48.828125
-59.08203125,-119.140625,-47.36328125,-46.38671875
-53.7109375,-49.31640625,-46.875,-37.109375
-47.8515625,-9.765625,-46.38671875,-31.73828125
-49.8046875,-55.17578125,-45.8984375,-37.59765625
-42.48046875,-81.0546875,-42.96875,-33.203125
-48.828125,-53.22265625,-45.8984375,-33.69140625
-54.19921875,-19.04296875,-44.43359375,-38.0859375
-49.8046875,-10.25390625,-41.015625,-36.1328125
-48.828125,-47.8515625,-38.0859375,-41.015625
-56.15234375,-70.80078125,-35.64453125,-50.78125
-64.453125,-38.57421875,-39.0625,-57.12890625
-71.2890625,-34.1796875,-44.921875,-55.17578125
-52.24609375,-32.71484375,-42.96875,-51.7578125
-48.33984375,-29.296875,-41.9921875,-49.8046875
-56.640625,-91.30859375,-45.41015625,-51.26953125
-52.734375,-92.28515625,-45.41015625,-51.7578125
-48.33984375,-32.71484375,-45.8984375,-41.9921875
-38.0859375,-6.8359375,-49.31640625,-38.0859375
-35.15625,-25.390625,-48.828125,-46.38671875
-43.45703125,-83.984375,-48.828125,-45.41015625
-54.19921875,-76.66015625,-45.8984375,-41.015625
-40.0390625,-25.390625,-38.57421875,-39.55078125
-34.1796875,-3.90625,-43.9453125,-33.69140625
-35.15625,-45.8984375,-47.36328125,-36.62109375
-41.015625,-95.703125,-46.38671875,-41.9921875
-59.08203125,-90.33203125,-49.31640625,-49.31640625
-64.94140625,-49.8046875,-50.78125,-50.78125
-47.8515625,-1.953125,-48.828125,-44.921875
-34.66796875,-21.97265625,-48.828125,-44.43359375
-44.921875,-88.37890625,-49.31640625,-41.50390625
-60.546875,-99.12109375,-49.31640625,-37.59765625
-66.89453125,-52.734375,-46.875,-40.52734375
-62.5,-6.34765625,-44.921875,-50.29296875
-54.6875,-1.953125,-44.921875,-54.19921875
-50.29296875,-28.3203125,-43.9453125,-51.26953125
-58.59375,-106.4453125,-54.19921875,-52.734375
-59.08203125,-75.68359375,-59.08203125,-55.6640625
-46.38671875,-6.34765625,-55.6640625,-52.24609375
-39.0625,-34.1796875,-54.19921875,-47.36328125
-37.109375,-58.10546875,-50.78125,-43.9453125
-40.0390625,-71.77734375,-49.8046875,-44.43359375
-45.8984375,-58.59375,-47.8515625,-42.48046875
-40.0390625,-2.9296875,-46.38671875,-31.25
-22.94921875,17.578125,-50.29296875,-34.66796875
-22.4609375,-69.3359375,-43.45703125,-43.9453125
-34.66796875,-70.80078125,-40.52734375,-47.36328125
-42.48046875,-25.390625,-46.38671875,-46.875
-41.9921875,-35.15625,-48.33984375,-42.48046875
-42.96875,-29.78515625,-45.41015625,-39.0625
-45.41015625,-46.875,-45.41015625,-41.015625
-52.24609375,-89.35546875,-47.8515625,-49.31640625
-53.22265625,-82.51953125,-45.8984375,-51.7578125
-41.015625,-10.25390625,-47.36328125,-45.8984375
-32.71484375,4.39453125,-47.8515625,-43.9453125
-42.96875,-48.33984375,-47.36328125,-51.7578125
-55.17578125,-78.125,-46.38671875,-55.6640625
-51.7578125,-82.03125,-45.8984375,-57.6171875
-52.24609375,-36.62109375,-50.78125,-52.24609375
-42.96875,25.87890625,-48.828125,-41.9921875
-30.76171875,-9.27734375,-41.9921875,-42.48046875
-35.64453125,-98.14453125,-44.921875,-40.0390625
-47.36328125,-119.62890625,-44.921875,-41.50390625
-54.19921875,-44.43359375,-41.50390625,-48.33984375
-47.36328125,0.48828125,-40.0390625,-47.8515625
-41.50390625,-43.9453125,-43.45703125,-46.875
-46.38671875,-74.21875,-41.9921875,-44.921875
-53.22265625,-72.265625,-38.57421875,-39.0625
-53.7109375,-30.2734375,-40.52734375,-32.71484375
-41.9921875,1.46484375,-44.921875,-34.1796875
-33.69140625,-11.71875,-43.45703125,-34.1796875
-41.9921875,-40.0390625,-38.0859375,-40.52734375
-53.22265625,-104.00390625,-40.0390625,-57.6171875
-66.40625,-75.1953125,-48.828125,-59.08203125
-67.87109375,-3.90625,-49.31640625,-59.5703125
-59.08203125,-42.48046875,-41.9921875,-62.01171875
-54.6875,-67.3828125,-37.59765625,-58.59375
-62.5,-80.078125,-41.015625,-61.5234375
-67.3828125,-63.4765625,-48.828125,-58.10546875
-57.6171875,-4.8828125,-49.31640625,-46.38671875
-49.8046875,-2.9296875,-44.921875,-51.7578125
-41.9921875,-59.5703125,-42.96875,-54.19921875
-44.921875,-76.66015625,-48.828125,-49.31640625
-46.38671875,-20.5078125,-51.26953125,-40.52734375
-50.29296875,-17.08984375,-49.31640625,-34.66796875
-45.8984375,-37.109375,-48.33984375,-33.69140625
-41.50390625,-59.5703125,-49.31640625,-33.203125
-52.734375,-96.19140625,-50.78125,-36.62109375
-61.5234375,-48.828125,-54.19921875,-42.48046875
-56.640625,22.4609375,-53.7109375,-40.52734375
-45.41015625,-17.08984375,-49.31640625,-44.43359375
-41.015625,-78.61328125,-46.875,-50.29296875
-62.5,-93.26171875,-46.38671875,-53.7109375
-71.77734375,-84.47265625,-48.33984375,-58.10546875
-62.01171875,-11.23046875,-44.43359375,-57.12890625
-57.12890625,41.9921875,-38.57421875,-49.8046875
-58.10546875,-56.15234375,-41.9921875,-52.24609375
-54.6875,-116.2109375,-45.8984375,-68.359375
-55.6640625,-81.54296875,-48.33984375,-57.6171875
-57.12890625,-22.4609375,-46.875,-43.45703125
-45.41015625,0.0,-44.43359375,-51.7578125
-50.78125,-28.3203125,-41.9921875,-52.24609375
-54.19921875,-82.03125,-42.96875,-54.19921875
-57.6171875,-66.40625,-46.38671875,-52.24609375
-51.26953125,-14.16015625,-47.8515625,-45.41015625
-45.8984375,-40.52734375,-49.31640625,-44.43359375
-40.52734375,-38.0859375,-45.8984375,-42.48046875
-29.78515625,-34.66796875,-47.36328125,-36.1328125
-44.43359375,-102.05078125,-55.6640625,-34.66796875
-52.24609375,-72.265625,-50.78125,-38.0859375
-39.0625,0.48828125,-45.8984375,-36.62109375
-34.1796875,-35.15625,-50.29296875,-44.43359375
-44.921875,-74.21875,-51.7578125,-55.17578125
-60.05859375,-80.078125,-43.9453125,-47.36328125
-61.5234375,-51.26953125,-42.48046875,-46.875
-47.36328125,-5.37109375,-41.015625,-41.50390625
-34.66796875,-17.08984375,-40.52734375,-38.57421875
-41.50390625,-67.87109375,-45.8984375,-52.734375
-45.41015625,-85.9375,-45.41015625,-54.19921875
-51.7578125,-28.3203125,-48.828125,-52.734375
-55.17578125,-7.32421875,-50.78125,-48.828125
-46.38671875,-54.6875,-50.29296875,-41.015625
-44.43359375,-78.125,-50.78125,-42.96875
-45.41015625,-87.890625,-50.78125,-47.36328125
-41.015625,-65.4296875,-46.38671875,-42.48046875
-44.921875,-15.625,-44.43359375,-38.0859375
-44.921875,-5.859375,-43.45703125,-28.80859375
-34.1796875,-57.12890625,-45.41015625,-28.80859375
-38.0859375,-85.44921875,-46.875,-35.15625
-41.50390625,-63.4765625,-45.8984375,-32.2265625
-36.62109375,3.90625,-45.41015625,-21.97265625
-33.69140625,39.0625,-45.41015625,-28.80859375
-37.59765625,-61.5234375,-47.8515625,-40.0390625
-48.33984375,-107.91015625,-46.875,-39.0625
-54.19921875,-64.453125,-45.41015625,-35.64453125
-56.15234375,-45.41015625,-40.0390625,-28.3203125
-62.98828125,-31.25,-32.71484375,-41.015625
-64.94140625,-52.734375,-37.109375,-59.5703125
-54.6875,-93.75,-43.45703125,-57.6171875
-50.29296875,-81.0546875,-44.921875,-48.33984375
-50.78125,-20.5078125,-45.8984375,-41.015625
-49.8046875,2.44140625,-42.48046875,-36.1328125
-55.17578125,-41.50390625,-37.109375,-41.9921875
-56.640625,-62.98828125,-42.96875,-51.7578125
-57.12890625,-83.0078125,-48.33984375,-49.31640625
-54.19921875,-78.125,-48.33984375,-43.45703125
-44.43359375,-34.66796875,-49.31640625,-43.45703125
-38.57421875,-32.71484375,-46.38671875,-51.26953125
-34.66796875,-64.94140625,-44.921875,-63.4765625
-42.48046875,-76.66015625,-45.8984375,-56.15234375
-51.26953125,-61.5234375,-47.8515625,-48.33984375
-41.50390625,-22.4609375,-49.31640625,-50.29296875
-36.62109375,-25.390625,-51.26953125,-53.22265625
-37.59765625,-83.49609375,-51.7578125,-59.5703125
-41.015625,-70.3125,-47.8515625,-54.19921875
-49.8046875,2.9296875,-50.78125,-48.33984375
-47.36328125,-17.08984375,-48.33984375,-41.015625
-37.59765625,-57.6171875,-41.9921875,-34.1796875
-31.25,-75.68359375,-48.828125,-36.1328125
-38.57421875,-80.078125,-52.734375,-41.50390625
-44.43359375,-41.9921875,-47.36328125,-46.38671875
-44.921875,-0.48828125,-44.921875,-42.96875
-36.1328125,-20.01953125,-40.52734375,-44.43359375
-33.203125,-57.12890625,-39.55078125,-51.26953125
-44.43359375,-65.91796875,-45.41015625,-57.6171875
-48.33984375,-78.125,-50.29296875,-55.6640625
-50.29296875,0.9765625,-51.26953125,-51.26953125
-46.38671875,48.33984375,-49.31640625,-48.828125
-38.0859375,-54.6875,-48.33984375,-58.10546875
-37.109375,-128.90625,-52.734375,-59.5703125
-45.41015625,-93.26171875,-57.6171875,-51.26953125
-47.8515625,-18.5546875,-49.8046875,-47.36328125
-36.62109375,0.48828125,-47.36328125,-50.29296875
-28.80859375,-44.921875,-47.36328125,-55.6640625
-41.015625,-90.33203125,-45.8984375,-56.640625
-43.9453125,-59.5703125,-45.8984375,-45.8984375
-40.0390625,-15.625,-44.921875,-44.921875
-37.109375,-9.27734375,-44.43359375,-47.8515625
-33.203125,-46.875,-41.50390625,-41.9921875
-39.55078125,-50.29296875,-43.9453125,-41.015625
-52.734375,-74.21875,-47.8515625,-41.015625
-61.03515625,-66.89453125,-53.7109375,-42.48046875
-46.38671875,-17.08984375,-58.59375,-47.36328125
-41.9921875,-48.33984375,-58.10546875,-53.22265625
-56.15234375,-88.8671875,-62.01171875,-55.17578125
-62.98828125,-81.54296875,-62.5,-55.6640625
-62.01171875,-25.390625,-54.6875,-53.22265625
-51.26953125,0.0,-46.38671875,-45.41015625
-37.109375,-33.69140625,-48.33984375,-42.48046875
-42.96875,-84.9609375,-52.24609375,-47.36328125
-59.5703125,-84.9609375,-53.7109375,-54.6875
-62.01171875,-16.6015625,-54.19921875,-52.734375
-46.38671875,-11.71875,-54.6875,-50.29296875
-40.52734375,-46.875,-50.29296875,-42.96875
-48.33984375,-41.9921875,-46.38671875,-35.15625
-55.6640625,-94.7265625,-48.828125,-47.8515625
-60.05859375,-84.47265625,-46.875,-55.6640625
-49.8046875,-10.25390625,-41.9921875,-43.9453125
-40.0390625,-20.99609375,-41.015625,-40.52734375
-49.8046875,-66.40625,-46.38671875,-54.6875
-58.10546875,-90.33203125,-49.31640625,-54.6875
-54.6875,-62.01171875,-47.36328125,-45.41015625
-46.38671875,3.41796875,-42.96875,-48.33984375
-44.921875,1.953125,-40.52734375,-49.8046875
-54.6875,-73.73046875,-43.9453125,-52.24609375
-59.5703125,-103.02734375,-49.31640625,-55.6640625
-59.08203125,-53.7109375,-48.828125,-55.6640625
-52.24609375,-3.90625,-44.921875,-49.8046875
-40.52734375,3.41796875,-42.48046875,-51.26953125
-45.41015625,-49.31640625,-41.9921875,-56.15234375
-60.05859375,-108.88671875,-47.8515625,-58.10546875
-63.96484375,-83.984375,-50.78125,-56.15234375
-61.03515625,-8.7890625,-52.24609375,-50.78125
-45.8984375,6.34765625,-51.26953125,-51.26953125
-47.8515625,-48.828125,-50.78125,-51.7578125
-61.03515625,-62.98828125,-45.8984375,-47.8515625
-57.6171875,-76.171875,-43.45703125,-41.015625
-54.6875,-49.8046875,-42.48046875,-40.52734375
-52.24609375,-12.6953125,-41.015625,-48.33984375
-55.17578125,-54.6875,-40.52734375,-46.875
-50.29296875,-66.89453125,-40.0390625,-50.29296875
-49.31640625,-46.875,-42.48046875,-54.6875
-54.19921875,-25.87890625,-47.36328125,-55.17578125
-46.38671875,0.48828125,-47.36328125,-53.22265625
-40.52734375,-16.11328125,-47.8515625,-52.734375
-54.19921875,-94.23828125,-47.36328125,-61.03515625
-61.03515625,-72.265625,-45.8984375,-51.26953125
-50.29296875,2.9296875,-48.828125,-47.36328125
-43.9453125,-14.6484375,-47.8515625,-47.36328125
-40.0390625,-47.36328125,-46.875,-50.29296875
-37.59765625,-71.77734375,-48.33984375,-57.6171875
-41.9921875,-72.265625,-43.9453125,-48.828125
-38.57421875,-34.1796875,-43.45703125,-42.48046875
-28.3203125,9.765625,-41.50390625,-44.43359375
-34.66796875,-27.34375,-37.109375,-48.33984375
-48.33984375,-82.03125,-37.59765625,-46.38671875
-55.17578125,-62.98828125,-41.9921875,-51.7578125
-51.7578125,-31.25,-43.9453125,-51.26953125
-48.828125,-4.8828125,-41.50390625,-46.38671875
-48.33984375,-11.23046875,-44.43359375,-49.8046875
-50.29296875,-70.80078125,-49.31640625,-57.6171875
-62.98828125,-127.44140625,-46.875,-57.12890625
-69.82421875,-85.44921875,-47.36328125,-52.734375
-62.01171875,-18.5546875,-48.33984375,-58.10546875
-53.22265625,-20.99609375,-41.50390625,-53.22265625
-41.9921875,-63.96484375,-37.59765625,-37.109375
-55.17578125,-85.44921875,-44.921875,-41.015625
-70.80078125,-61.5234375,-51.26953125,-53.7109375
-50.29296875,-16.6015625,-51.7578125,-54.19921875
-46.38671875,-36.62109375,-50.29296875,-56.15234375
-46.875,-49.8046875,-41.50390625,-42.96875
-43.45703125,-33.69140625,-40.0390625,-41.015625
-55.17578125,-79.58984375,-44.43359375,-45.8984375
-55.6640625,-23.4375,-46.875,-41.50390625
-47.36328125,-4.8828125,-50.29296875,-40.52734375
-33.203125,-92.28515625,-48.828125,-42.96875
-39.0625,-91.796875,-41.50390625,-47.36328125
-44.921875,-62.5,-42.96875,-51.7578125
-49.31640625,-18.06640625,-47.36328125,-55.6640625
-47.8515625,-10.7421875,-47.36328125,-56.640625
-32.71484375,-53.22265625,-43.9453125,-54.19921875
-34.1796875,-95.21484375,-43.45703125,-49.31640625
-39.55078125,-66.89453125,-46.875,-45.8984375
-51.7578125,7.32421875,-48.828125,-48.33984375
-49.31640625,-20.99609375,-47.8515625,-50.29296875
-50.78125,-74.70703125,-43.45703125,-50.78125
-59.5703125,-86.42578125,-44.43359375,-54.6875
-55.6640625,-77.63671875,-48.828125,-51.26953125
-48.828125,-20.99609375,-48.33984375,-42.48046875
-34.66796875,2.9296875,-44.43359375,-42.96875
-41.9921875,-67.87109375,-47.8515625,-51.26953125
-54.19921875,-98.6328125,-51.26953125,-44.921875
-53.22265625,-58.59375,-49.8046875,-44.43359375
-56.640625,-36.62109375,-51.26953125,-58.10546875
-47.8515625,-17.578125,-51.26953125,-49.31640625
-32.2265625,3.90625,-47.8515625,-46.38671875
-39.0625,-74.21875,-46.875,-50.29296875
-51.26953125,-118.65234375,-49.31640625,-51.26953125
-57.6171875,-41.50390625,-49.8046875,-49.8046875
-51.7578125,9.765625,-49.8046875,-47.36328125
-41.9921875,-32.71484375,-48.33984375,-44.43359375
-45.8984375,-71.77734375,-45.8984375,-47.36328125
-64.94140625,-83.0078125,-48.33984375,-54.6875
-67.3828125,-43.9453125,-46.38671875,-45.41015625
-51.7578125,18.5546875,-44.921875,-39.55078125
-46.875,-35.64453125,-53.22265625,-36.62109375
-45.8984375,-99.12109375,-54.6875,-43.45703125
-48.828125,-54.19921875,-47.8515625,-48.33984375
-58.59375,-49.8046875,-52.24609375,-45.41015625
-56.640625,-53.7109375,-56.15234375,-51.26953125
-43.45703125,-17.578125,-47.36328125,-54.6875
-40.52734375,-56.640625,-47.8515625,-59.5703125
-43.9453125,-89.84375,-50.78125,-57.12890625
-46.38671875,-72.75390625,-51.7578125,-52.734375
-54.19921875,-22.94921875,-49.31640625,-49.31640625
-46.38671875,-21.484375,-50.29296875,-46.38671875
-45.8984375,-66.89453125,-53.22265625,-58.10546875
-52.734375,-93.26171875,-54.6875,-73.2421875
-56.15234375,-58.59375,-54.19921875,-61.03515625
-63.96484375,23.92578125,-46.875,-57.12890625
-42.48046875,6.8359375,-46.38671875,-58.59375
-32.2265625,-92.28515625,-52.24609375,-48.828125
-47.8515625,-110.83984375,-48.33984375,-44.43359375
-51.7578125,-68.359375,-49.31640625,-43.9453125
-48.33984375,-34.66796875,-51.7578125,-41.015625
-40.52734375,-28.80859375,-48.33984375,-33.203125
-41.015625,-40.0390625,-47.36328125,-45.41015625
-46.38671875,-83.984375,-43.9453125,-53.22265625
-47.36328125,-72.75390625,-44.43359375,-45.41015625
-40.0390625,-16.11328125,-45.41015625,-38.0859375
-32.2265625,-1.46484375,-38.57421875,-28.3203125
-34.1796875,-8.7890625,-37.109375,-39.55078125
-50.29296875,-96.6796875,-42.96875,-53.7109375
-62.01171875,-110.83984375,-41.50390625,-51.7578125
-60.05859375,-16.6015625,-37.59765625,-50.78125
-57.12890625,-21.97265625,-39.0625,-49.31640625
-52.24609375,-48.828125,-42.48046875,-51.7578125
-49.8046875,-75.1953125,-45.41015625,-55.6640625
-58.10546875,-90.8203125,-44.921875,-49.8046875
-54.6875,-34.66796875,-41.015625,-44.921875
-42.96875,-2.44140625,-40.52734375,-45.41015625
-49.31640625,-30.76171875,-43.9453125,-42.48046875
-51.7578125,-47.36328125,-47.36328125,-50.29296875
-56.640625,-47.36328125,-42.48046875,-59.08203125
-57.12890625,-49.31640625,-47.36328125,-59.08203125
-52.734375,-38.0859375,-50.78125,-58.10546875
-52.24609375,-27.34375,-45.8984375,-59.08203125
-49.31640625,-80.56640625,-46.875,-64.453125
-62.5,-96.6796875,-46.875,-66.89453125
-58.59375,-23.92578125,-43.9453125,-54.6875
-46.875,-21.97265625,-44.43359375,-47.36328125
-55.17578125,-54.6875,-44.921875,-51.7578125
-52.24609375,-60.546875,-39.0625,-52.24609375
-52.734375,-87.40234375,-38.57421875,-53.7109375
-53.7109375,-53.7109375,-39.55078125,-50.29296875
-44.43359375,29.296875,-38.0859375,-43.45703125
-32.2265625,-9.765625,-34.66796875,-34.1796875
-23.4375,-80.56640625,-39.0625,-27.34375
-16.11328125,-93.75,-43.9453125,-20.01953125
-35.64453125,-68.84765625,-33.69140625,-26.3671875
-57.6171875,-12.20703125,-42.96875,-52.24609375
-56.15234375,0.48828125,-49.8046875,-61.5234375
-59.5703125,-60.546875,-33.69140625,-70.80078125
-69.82421875,-89.35546875,-36.62109375,-71.77734375
-69.82421875,-46.875,-43.45703125,-67.87109375
-51.26953125,-20.99609375,-44.43359375,-56.15234375
-41.9921875,-7.8125,-42.96875,-44.43359375
-40.0390625,-19.04296875,-36.62109375,-43.45703125
-43.45703125,-101.5625,-37.59765625,-43.45703125
-54.19921875,-112.79296875,-43.9453125,-45.41015625
-51.7578125,-19.53125,-45.41015625,-53.22265625
-51.26953125,-15.13671875,-42.48046875,-56.640625
-54.19921875,-58.10546875,-40.52734375,-55.17578125
-60.05859375,-83.984375,-42.96875,-62.01171875
-62.98828125,-85.44921875,-45.8984375,-58.59375
-62.5,-29.296875,-45.41015625,-48.33984375
-54.19921875,-3.90625,-41.015625,-45.41015625
-42.48046875,-47.8515625,-38.57421875,-47.36328125
-50.78125,-76.171875,-38.57421875,-53.7109375
-48.828125,-53.7109375,-37.59765625,-43.9453125
-43.45703125,-23.4375,-39.55078125,-27.83203125
-47.36328125,-33.203125,-45.8984375,-35.64453125
-49.8046875,-48.828125,-52.24609375,-44.921875
-50.29296875,-73.2421875,-49.8046875,-46.875
-51.7578125,-91.796875,-49.8046875,-53.7109375
-52.24609375,-57.6171875,-48.828125,-48.33984375
-47.8515625,-1.953125,-51.26953125,-37.109375
-43.45703125,-12.20703125,-54.6875,-43.9453125
-41.9921875,-71.77734375,-52.734375,-59.08203125
-50.78125,-100.5859375,-50.78125,-54.19921875
-63.4765625,-58.59375,-49.31640625,-44.43359375
-53.7109375,40.52734375,-43.9453125,-37.59765625
-41.9921875,-14.6484375,-40.52734375,-39.55078125
-46.875,-90.8203125,-41.9921875,-42.48046875
-54.6875,-75.68359375,-45.8984375,-41.015625
-60.05859375,-76.66015625,-50.29296875,-45.8984375
-53.7109375,-6.34765625,-47.8515625,-49.31640625
-39.55078125,-2.44140625,-48.33984375,-51.26953125
-48.828125,-55.17578125,-49.31640625,-58.59375
-62.98828125,-94.7265625,-45.8984375,-63.4765625
-54.6875,-70.3125,-44.921875,-53.22265625
-46.38671875,-15.625,-44.921875,-52.734375
-44.43359375,-10.25390625,-44.921875,-51.7578125
-29.78515625,-1.46484375,-40.0390625,-46.875
-42.48046875,-72.75390625,-36.62109375,-50.78125
-62.5,-113.28125,-44.921875,-49.8046875
-51.7578125,-19.53125,-45.41015625,-41.50390625
-42.48046875,-7.8125,-44.921875,-41.015625
-50.29296875,-48.828125,-49.31640625,-52.24609375
-48.828125,-86.42578125,-53.7109375,-59.08203125
-48.33984375,-91.796875,-52.24609375,-53.7109375
-57.12890625,-29.296875,-47.8515625,-41.015625
-48.33984375,-5.37109375,-49.31640625,-42.48046875
-33.203125,-37.109375,-46.38671875,-48.828125
-38.57421875,-73.2421875,-47.36328125,-52.734375
-45.8984375,-61.03515625,-50.29296875,-52.24609375
-59.08203125,-43.45703125,-52.24609375,-55.17578125
-57.12890625,-33.203125,-53.7109375,-62.01171875
-50.78125,-39.0625,-47.36328125,-56.640625
-55.17578125,-67.87109375,-50.78125,-57.12890625
-54.19921875,-79.58984375,-55.6640625,-62.98828125
-48.828125,-29.78515625,-50.78125,-48.33984375
-42.96875,12.6953125,-49.31640625,-34.66796875
-45.8984375,-25.87890625,-54.19921875,-43.9453125
-45.41015625,-73.2421875,-56.640625,-44.921875
-50.78125,-105.46875,-50.29296875,-39.55078125
-48.33984375,-36.62109375,-40.52734375,-32.71484375
-36.62109375,31.73828125,-40.0390625,-26.85546875
-41.9921875,-48.828125,-45.41015625,-34.66796875
-52.24609375,-96.6796875,-46.38671875,-41.015625
-54.19921875,-67.3828125,-48.828125,-43.9453125
-55.6640625,-59.5703125,-50.78125,-46.875
-49.8046875,-26.85546875,-48.828125,-41.9921875
-38.57421875,-29.78515625,-46.38671875,-47.36328125
-34.66796875,-90.8203125,-43.45703125,-55.17578125
-55.17578125,-102.05078125,-44.43359375,-54.19921875
-64.94140625,-55.17578125,-47.8515625,-60.05859375
-57.6171875,-21.97265625,-49.31640625,-62.01171875
-44.43359375,-7.8125,-49.8046875,-53.22265625
-32.71484375,-37.59765625,-53.22265625,-54.6875
-50.78125,-87.890625,-54.6875,-65.91796875
-64.453125,-81.0546875,-54.6875,-64.453125
-53.22265625,-16.6015625,-57.12890625,-54.6875
-46.875,-11.71875,-61.03515625,-48.33984375
-49.8046875,-70.3125,-55.6640625,-50.78125
-53.22265625,-80.56640625,-50.78125,-55.6640625
-58.10546875,-70.3125,-52.24609375,-48.33984375
-63.96484375,-19.53125,-51.7578125,-45.41015625
-56.15234375,-6.8359375,-44.43359375,-42.96875
-47.36328125,-74.21875,-41.50390625,-40.0390625
-51.7578125,-97.16796875,-44.921875,-45.8984375
-48.33984375,-42.48046875,-43.45703125,-46.875
-45.8984375,-28.80859375,-42.48046875,-40.52734375
-34.1796875,-30.76171875,-41.015625,-38.57421875
-31.25,-29.78515625,-40.52734375,-40.52734375
-47.36328125,-88.37890625,-41.50390625,-46.38671875
-47.8515625,-87.890625,-34.66796875,-46.875
-44.43359375,-31.73828125,-33.69140625,-39.0625
-35.64453125,-8.30078125,-32.71484375,-31.73828125
-27.34375,-43.9453125,-31.25,-37.59765625
-27.34375,-75.1953125,-32.71484375,-44.43359375
-39.55078125,-81.54296875,-36.62109375,-46.38671875
-39.55078125,-22.4609375,-46.38671875,-47.36328125
-26.85546875,20.01953125,-48.828125,-45.41015625
-27.34375,-26.85546875,-46.875,-42.48046875
-32.2265625,-83.984375,-47.36328125,-41.9921875
-46.875,-100.5859375,-48.828125,-48.828125
-54.19921875,-43.9453125,-41.015625,-44.43359375
-40.0390625,16.11328125,-31.25,-30.2734375
-43.45703125,-19.04296875,-35.15625,-34.66796875
-48.33984375,-93.75,-37.59765625,-39.55078125
-52.24609375,-86.42578125,-41.015625,-32.2265625
-55.17578125,-37.59765625,-46.38671875,-34.1796875
-49.31640625,22.94921875,-43.9453125,-34.1796875
-45.41015625,-10.25390625,-42.96875,-38.57421875
-49.31640625,-66.89453125,-45.41015625,-42.48046875
-52.24609375,-85.44921875,-47.8515625,-40.52734375
-53.22265625,-80.56640625,-47.36328125,-33.203125
-51.26953125,-14.6484375,-42.96875,-31.25
-48.828125,-21.97265625,-40.0390625,-43.45703125
-47.36328125,-70.3125,-42.48046875,-43.9453125
-48.828125,-80.56640625,-41.015625,-41.9921875
-67.3828125,-65.91796875,-42.48046875,-51.7578125
-68.84765625,-4.8828125,-48.33984375,-54.6875
-48.33984375,2.9296875,-47.36328125,-42.48046875
-43.9453125,-96.19140625,-42.96875,-41.50390625
-49.31640625,-100.5859375,-44.921875,-55.6640625
-56.640625,-25.87890625,-48.33984375,-57.6171875
-50.29296875,-17.578125,-46.875,-51.7578125
-32.71484375,-29.78515625,-43.45703125,-39.55078125
-34.66796875,-56.15234375,-42.48046875,-34.66796875
-31.25,-87.40234375,-42.48046875,-44.43359375
-40.52734375,-74.21875,-44.43359375,-42.96875
-60.05859375,-13.671875,-49.31640625,-40.52734375
-51.7578125,0.48828125,-50.29296875,-35.64453125
-46.875,-56.15234375,-52.24609375,-36.1328125
-46.875,-92.28515625,-53.22265625,-38.0859375
-40.52734375,-65.4296875,-52.734375,-35.15625
-41.50390625,-21.484375,-52.734375,-40.0390625
-37.59765625,7.32421875,-46.38671875,-38.0859375
-36.1328125,-35.15625,-44.921875,-41.015625
-45.41015625,-125.0,-46.38671875,-47.8515625
-48.828125,-125.0,-42.96875,-47.8515625
-49.8046875,-40.52734375,-44.921875,-49.8046875
-46.38671875,-3.90625,-45.8984375,-51.26953125
-37.59765625,-33.203125,-41.9921875,-48.33984375
-49.8046875,-78.61328125,-44.43359375,-56.640625
-62.01171875,-73.2421875,-50.29296875,-65.4296875
-59.08203125,-22.4609375,-51.7578125,-57.6171875
-59.5703125,-20.01953125,-47.8515625,-49.8046875
-53.22265625,-37.59765625,-41.50390625,-48.828125
-43.45703125,-25.87890625,-41.50390625,-50.78125
-55.6640625,-90.33203125,-54.6875,-55.17578125
-60.546875,-87.890625,-59.5703125,-54.6875
-43.45703125,-1.46484375,-53.22265625,-43.9453125
-39.0625,-38.57421875,-55.6640625,-44.43359375
-49.31640625,-89.84375,-57.6171875,-55.6640625
-59.08203125,-89.35546875,-54.6875,-57.12890625
-57.6171875,-40.0390625,-51.7578125,-53.22265625
-44.921875,-6.8359375,-49.8046875,-51.7578125
-33.69140625,-27.34375,-47.8515625,-50.78125
-33.69140625,-72.265625,-45.41015625,-50.78125
-31.73828125,-83.49609375,-47.8515625,-52.734375
-30.76171875,-20.99609375,-51.26953125,-56.15234375
-49.31640625,-11.23046875,-47.8515625,-51.7578125
-47.8515625,-50.29296875,-37.109375,-49.8046875
-40.52734375,-63.96484375,-36.62109375,-56.15234375
-47.36328125,-69.3359375,-40.52734375,-50.29296875
-47.8515625,-65.4296875,-36.62109375,-41.9921875
-43.45703125,-15.13671875,-34.1796875,-36.62109375
-38.0859375,-31.25,-33.203125,-26.85546875
-40.52734375,-68.359375,-38.57421875,-27.83203125
-50.78125,-77.1484375,-46.38671875,-40.52734375
-61.5234375,-72.75390625,-45.8984375,-42.48046875
-67.3828125,-1.46484375,-41.50390625,-29.78515625
-56.15234375,21.484375,-42.96875,-34.1796875
-41.9921875,-57.12890625,-46.38671875,-40.52734375
-42.48046875,-92.7734375,-45.41015625,-33.203125
-52.734375,-90.33203125,-47.8515625,-39.0625
-53.22265625,-38.57421875,-53.22265625,-46.38671875
-46.875,-7.8125,-51.26953125,-46.875
-35.64453125,-34.66796875,-47.8515625,-40.52734375
-31.73828125,-68.84765625,-50.78125,-41.50390625
-36.62109375,-72.265625,-47.36328125,-41.9921875
-46.38671875,-11.23046875,-43.45703125,-41.50390625
-35.15625,-10.7421875,-47.36328125,-36.1328125
-22.94921875,-42.48046875,-48.828125,-39.55078125
-37.109375,-61.5234375,-46.875,-56.15234375
-45.41015625,-96.19140625,-49.8046875,-58.59375
-51.7578125,-61.5234375,-55.17578125,-56.640625
-56.15234375,-35.15625,-53.22265625,-53.22265625
-53.7109375,-49.31640625,-54.6875,-52.734375
-56.15234375,-56.15234375,-52.24609375,-57.6171875
-62.01171875,-71.2890625,-46.38671875,-58.59375
-72.265625,-55.6640625,-50.78125,-56.15234375
-64.453125,-8.7890625,-51.26953125,-53.22265625
-46.875,-12.20703125,-46.875,-47.36328125
-56.640625,-66.40625,-47.8515625,-46.38671875
-56.640625,-72.75390625,-49.8046875,-49.31640625
-46.875,-11.71875,-49.31640625,-42.96875
-43.45703125,-9.765625,-41.50390625,-33.69140625
-37.59765625,-58.10546875,-40.0390625,-40.52734375
-49.8046875,-95.21484375,-51.26953125,-58.10546875
-60.05859375,-86.9140625,-55.17578125,-59.08203125
-56.640625,-58.59375,-50.29296875,-53.22265625
-43.9453125,-3.90625,-47.8515625,-52.24609375
-41.015625,-8.7890625,-54.19921875,-57.6171875
-42.48046875,-69.3359375,-53.7109375,-62.98828125
-39.55078125,-69.82421875,-49.8046875,-58.59375
-39.55078125,-51.7578125,-50.29296875,-50.78125
-42.96875,4.8828125,-45.41015625,-42.48046875
-37.109375,24.90234375,-43.9453125,-39.0625
-31.73828125,-67.87109375,-43.9453125,-44.43359375
-48.33984375,-88.37890625,-43.45703125,-43.45703125
-55.6640625,-53.22265625,-48.828125,-36.62109375
-50.78125,-40.0390625,-49.8046875,-47.8515625
-47.36328125,-20.99609375,-46.875,-52.734375
-44.43359375,-42.48046875,-43.9453125,-46.38671875
-45.41015625,-54.19921875,-40.52734375,-44.43359375
-51.26953125,-56.15234375,-43.45703125,-41.50390625
-48.33984375,-37.59765625,-41.9921875,-37.109375
-29.78515625,-15.625,-41.9921875,-27.83203125
-26.85546875,-34.66796875,-47.36328125,-20.01953125
-36.1328125,-43.9453125,-44.43359375,-25.87890625
-48.828125,-97.65625,-40.0390625,-28.80859375
-61.5234375,-81.0546875,-41.9921875,-26.3671875
-53.22265625,-5.37109375,-42.96875,-30.2734375
-44.921875,-41.015625,-46.38671875,-35.64453125
-48.828125,-80.078125,-50.78125,-42.96875
-61.03515625,-56.15234375,-53.22265625,-49.8046875
-61.03515625,-43.9453125,-54.19921875,-47.8515625
-46.875,-21.484375,-48.33984375,-43.45703125
-41.015625,-36.1328125,-45.8984375,-45.8984375
-41.50390625,-72.75390625,-46.38671875,-47.36328125
-46.38671875,-61.5234375,-47.36328125,-47.8515625
-56.640625,-12.20703125,-46.38671875,-42.96875
-45.41015625,-22.4609375,-50.29296875,-36.1328125
-38.0859375,-55.6640625,-56.15234375,-41.015625
-43.45703125,-70.3125,-50.78125,-42.48046875
-45.8984375,-67.87109375,-46.38671875,-46.38671875
-50.78125,-34.66796875,-44.43359375,-42.96875
-46.875,10.25390625,-45.8984375,-36.62109375
-32.71484375,-8.7890625,-43.45703125,-41.9921875
-36.62109375,-61.5234375,-45.41015625,-51.26953125
-53.7109375,-46.875,-49.8046875,-53.22265625
-59.08203125,-27.83203125,-50.29296875,-52.734375
-51.26953125,-13.671875,-46.38671875,-53.7109375
-40.52734375,0.9765625,-40.52734375,-48.828125
-44.921875,-77.1484375,-42.96875,-44.921875
-51.7578125,-104.00390625,-46.875,-44.43359375
-50.29296875,-44.43359375,-44.43359375,-46.875
-48.33984375,-20.5078125,-43.45703125,-47.36328125
-41.015625,-10.25390625,-40.52734375,-45.8984375
-41.50390625,-55.6640625,-41.9921875,-49.31640625
-44.921875,-84.47265625,-47.8515625,-47.36328125
-53.22265625,-57.12890625,-47.36328125,-43.45703125
-57.12890625,-3.41796875,-43.9453125,-41.015625
-49.8046875,-12.20703125,-44.921875,-47.36328125
-54.19921875,-55.17578125,-44.921875,-56.640625
-51.26953125,-52.734375,-44.43359375,-51.7578125
-48.33984375,-53.22265625,-52.24609375,-41.9921875
-53.22265625,-49.31640625,-51.7578125,-41.015625
-41.9921875,-35.64453125,-46.875,-48.828125
-26.3671875,-40.0390625,-45.8984375,-50.78125
-28.80859375,-80.078125,-45.41015625,-51.26953125
-34.66796875,-60.546875,-43.45703125,-41.9921875
-36.1328125,-5.37109375,-44.921875,-34.66796875
-36.1328125,-3.41796875,-44.921875,-42.48046875
-43.9453125,-35.64453125,-44.921875,-43.9453125
-49.8046875,-83.984375,-44.43359375,-42.48046875
-62.01171875,-61.5234375,-45.41015625,-46.38671875
-64.94140625,2.9296875,-46.875,-43.9453125
-56.15234375,-20.5078125,-45.41015625,-44.43359375
-57.12890625,-55.6640625,-46.38671875,-53.22265625
-56.15234375,-77.63671875,-47.36328125,-52.24609375
-56.15234375,-90.8203125,-49.31640625,-44.921875
-60.546875,-49.31640625,-46.875,-47.8515625
-47.8515625,-5.859375,-44.43359375,-53.7109375
-42.48046875,-24.90234375,-49.31640625,-51.26953125
-51.7578125,-83.49609375,-50.78125,-52.734375
-60.546875,-84.47265625,-46.875,-55.6640625
-52.734375,-40.52734375,-46.875,-51.26953125
-45.41015625,7.32421875,-47.8515625,-54.6875
-44.921875,-14.6484375,-46.38671875,-51.26953125
-22.4609375,-81.0546875,-46.38671875,-23.92578125
-36.62109375,-87.40234375,-49.31640625,-39.55078125
-79.58984375,-39.0625,-49.8046875,-83.0078125
-90.33203125,-12.20703125,-51.26953125,-83.0078125
-86.9140625,-15.13671875,-50.78125,-83.984375
-88.37890625,-38.0859375,-46.38671875,-105.46875
-124.0234375,-100.5859375,-50.78125,-129.8828125
-144.04296875,-58.10546875,-51.7578125,-140.625
-144.53125,12.6953125,-51.7578125,-146.97265625
-145.01953125,6.8359375,-50.78125,-160.15625
-160.64453125,-22.4609375,-51.26953125,-180.6640625
-181.15234375,-27.34375,-60.05859375,-194.3359375
-182.6171875,-27.34375,-52.734375,-203.125
-192.87109375,3.90625,-48.828125,-213.37890625
-189.94140625,33.69140625,-47.8515625,-207.51953125
-188.4765625,-15.13671875,-42.48046875,-213.37890625
-200.1953125,-60.546875,-48.33984375,-220.703125
-208.984375,-18.5546875,-49.8046875,-218.75
-206.54296875,20.99609375,-49.31640625,-226.07421875
-181.15234375,34.66796875,-44.43359375,-213.8671875
-183.10546875,0.0,-38.0859375,-210.44921875
-194.3359375,-77.63671875,-46.38671875,-212.40234375
-190.91796875,-41.50390625,-53.22265625,-204.58984375
-183.59375,50.78125,-48.828125,-195.3125
-163.0859375,18.06640625,-51.7578125,-183.10546875
-167.96875,-53.7109375,-55.6640625,-186.5234375
-166.9921875,-76.66015625,-58.59375,-183.59375
-152.34375,-54.6875,-58.10546875,-168.45703125
-144.53125,-11.23046875,-54.6875,-149.4140625
-128.90625,20.99609375,-56.15234375,-134.765625
-125.0,6.8359375,-58.59375,-138.18359375
-115.234375,-56.640625,-58.10546875,-138.18359375
-104.98046875,-76.171875,-54.6875,-117.1875
-97.16796875,-31.73828125,-50.78125,-102.5390625
-86.9140625,7.8125,-45.8984375,-98.6328125
-78.61328125,7.32421875,-44.921875,-91.30859375
-76.171875,-57.6171875,-46.38671875,-88.37890625
-86.9140625,-137.20703125,-53.22265625,-86.9140625
-93.26171875,-70.3125,-58.59375,-83.984375
-75.68359375,-8.7890625,-53.22265625,-70.80078125
-61.5234375,-26.85546875,-48.828125,-59.5703125
-54.6875,-63.96484375,-49.31640625,-58.59375
-54.19921875,-76.66015625,-46.875,-53.22265625
-58.10546875,-42.48046875,-47.36328125,-43.9453125
-40.0390625,-14.16015625,-47.36328125,-30.76171875
-25.390625,-26.85546875,-48.828125,-30.2734375
-20.99609375,-75.1953125,-51.7578125,-34.66796875
-25.390625,-58.10546875,-51.7578125,-32.2265625
-26.3671875,-62.98828125,-53.7109375,-22.4609375
-22.94921875,-41.9921875,-54.6875,-17.578125
-17.578125,-12.20703125,-54.6875,-19.04296875
-18.06640625,-90.8203125,-54.6875,-22.4609375
-25.87890625,-97.16796875,-58.59375,-27.34375
-21.97265625,-59.5703125,-61.5234375,-20.99609375
-8.30078125,-37.109375,-55.6640625,-10.7421875
0.48828125,-21.97265625,-53.7109375,-11.23046875
-1.953125,-65.4296875,-53.7109375,-12.6953125
-6.34765625,-95.21484375,-47.8515625,-3.90625
-11.71875,-63.96484375,-47.36328125,8.30078125
-7.8125,9.27734375,-43.45703125,7.32421875
-5.37109375,-18.06640625,-42.96875,-5.37109375
-10.7421875,-94.23828125,-55.6640625,-12.20703125
-5.859375,-88.8671875,-62.5,-17.578125
-4.8828125,-67.3828125,-62.01171875,-17.578125
-0.9765625,3.90625,-58.10546875,-12.20703125
14.16015625,19.53125,-51.26953125,-5.859375
7.8125,-74.70703125,-47.8515625,-8.7890625
-0.9765625,-108.88671875,-48.828125,-2.9296875
0.9765625,-78.61328125,-51.26953125,4.8828125
-3.90625,-25.87890625,-47.8515625,2.9296875
-1.46484375,6.8359375,-48.33984375,-1.953125
0.9765625,-0.48828125,-52.734375,-4.39453125
3.41796875,-81.0546875,-48.33984375,-7.8125
-7.8125,-111.328125,-45.41015625,-14.6484375
-16.11328125,-44.921875,-48.33984375,-8.30078125
-6.8359375,-12.20703125,-48.33984375,-10.25390625
-6.34765625,-28.3203125,-46.38671875,-12.6953125
-11.23046875,-69.82421875,-46.38671875,-7.8125
-16.6015625,-81.0546875,-46.38671875,-4.39453125
-15.13671875,-33.203125,-45.8984375,0.0
-17.08984375,16.6015625,-42.96875,-4.8828125
-22.4609375,-43.9453125,-41.015625,-13.18359375
-21.97265625,-77.63671875,-42.96875,-10.7421875
-27.83203125,-32.71484375,-45.41015625,-9.27734375
-29.78515625,-55.6640625,-48.33984375,-13.671875
-21.97265625,-37.59765625,-46.875,-13.671875
-13.671875,-26.85546875,-44.921875,-11.23046875
-16.11328125,-62.5,-49.31640625,-19.04296875
-21.484375,-82.51953125,-51.7578125,-26.85546875
-25.87890625,-68.359375,-54.6875,-24.4140625
-31.25,-2.44140625,-51.7578125,-17.08984375
-30.2734375,-15.13671875,-43.45703125,-26.3671875
-29.78515625,-62.01171875,-45.41015625,-36.1328125
-33.69140625,-83.49609375,-46.875,-35.64453125
-42.48046875,-64.453125,-52.24609375,-40.0390625
-51.7578125,22.4609375,-56.640625,-30.76171875
-33.203125,2.9296875,-51.26953125,-25.390625
-27.34375,-100.09765625,-47.8515625,-34.66796875
-34.66796875,-110.3515625,-51.7578125,-38.57421875
-35.15625,-62.01171875,-53.22265625,-35.64453125
-40.0390625,-24.4140625,-52.24609375,-32.71484375
-40.52734375,-15.625,-59.08203125,-41.015625
-34.1796875,-54.19921875,-59.5703125,-35.15625
-38.57421875,-97.16796875,-58.59375,-26.3671875
-46.875,-83.49609375,-53.7109375,-36.1328125
-49.8046875,-35.64453125,-48.828125,-41.015625
-38.57421875,-7.8125,-50.29296875,-29.296875
-29.296875,-24.90234375,-52.24609375,-32.71484375
-41.015625,-116.2109375,-49.8046875,-35.64453125
-42.96875,-93.26171875,-43.45703125,-35.15625
-43.9453125,-17.578125,-44.43359375,-41.9921875
-39.0625,-45.41015625,-45.8984375,-39.0625
-22.94921875,-44.43359375,-38.57421875,-34.1796875
-22.94921875,-68.84765625,-37.109375,-31.73828125
-30.2734375,-88.8671875,-41.50390625,-34.66796875
-36.1328125,-34.1796875,-41.50390625,-27.34375
-26.85546875,20.99609375,-34.66796875,-18.5546875
-23.4375,-27.83203125,-34.66796875,-23.92578125
-28.80859375,-68.359375,-40.0390625,-34.1796875
-42.96875,-62.98828125,-38.57421875,-37.59765625
-53.22265625,-57.12890625,-40.0390625,-39.0625
-39.55078125,-24.90234375,-46.875,-39.55078125
-34.66796875,-25.87890625,-52.24609375,-41.015625
-36.1328125,-73.2421875,-52.734375,-45.8984375
-38.0859375,-72.265625,-48.828125,-44.43359375
-44.43359375,-32.2265625,-44.43359375,-41.015625
-34.66796875,-28.3203125,-41.015625,-41.9921875
-26.3671875,-32.71484375,-36.1328125,-33.203125
-35.15625,-66.89453125,-34.1796875,-32.71484375
-50.78125,-89.35546875,-39.0625,-45.41015625
-56.640625,-49.31640625,-49.8046875,-52.24609375
-43.45703125,30.2734375,-52.734375,-48.33984375
-35.64453125,-16.6015625,-52.24609375,-46.38671875
-46.875,-99.609375,-58.10546875,-55.17578125
-48.828125,-91.30859375,-56.15234375,-54.19921875
-53.7109375,-53.22265625,-58.59375,-51.26953125
-55.6640625,-9.765625,-59.08203125,-49.8046875
-38.57421875,7.8125,-50.29296875,-47.8515625
-42.48046875,-48.33984375,-48.828125,-46.38671875
-52.24609375,-85.9375,-48.33984375,-37.59765625
-58.59375,-46.38671875,-48.33984375,-34.1796875
-52.734375,-31.25,-53.7109375,-36.62109375
-44.921875,-3.90625,-48.33984375,-44.43359375
-41.9921875,-14.16015625,-42.96875,-49.8046875
-42.96875,-99.609375,-47.8515625,-46.875
-44.921875,-121.58203125,-45.8984375,-43.9453125
-48.33984375,-25.87890625,-41.50390625,-43.45703125
-36.1328125,22.94921875,-39.0625,-40.0390625
-34.66796875,-45.41015625,-39.0625,-40.0390625
-51.26953125,-101.5625,-44.43359375,-50.78125
-51.7578125,-83.49609375,-41.015625,-51.7578125
-53.7109375,-29.78515625,-40.52734375,-39.55078125
-54.6875,-18.5546875,-44.921875,-44.921875
-51.26953125,-49.8046875,-49.31640625,-52.734375
-49.31640625,-82.51953125,-54.19921875,-57.12890625
-52.734375,-39.55078125,-51.7578125,-57.6171875
-55.6640625,-26.3671875,-48.33984375,-54.6875
-45.41015625,-55.6640625,-49.8046875,-49.8046875
-41.9921875,-38.0859375,-50.29296875,-49.8046875
-45.8984375,-73.2421875,-49.8046875,-46.38671875
-46.38671875,-92.7734375,-49.31640625,-42.96875
-51.26953125,-40.52734375,-50.29296875,-47.8515625
-45.41015625,-8.7890625,-50.78125,-46.38671875
-43.9453125,-35.15625,-48.33984375,-46.38671875
-43.9453125,-70.3125,-49.31640625,-46.38671875
-49.31640625,-81.0546875,-46.875,-43.45703125
-51.7578125,-32.2265625,-46.875,-45.41015625
-41.015625,16.6015625,-48.33984375,-37.59765625
-41.9921875,-43.9453125,-45.8984375,-37.109375
-41.9921875,-88.37890625,-43.45703125,-42.48046875
-39.0625,-72.265625,-43.45703125,-39.0625
-48.33984375,-67.87109375,-47.8515625,-36.62109375
-44.43359375,-17.08984375,-51.26953125,-38.57421875
-28.80859375,-14.6484375,-50.29296875,-48.33984375
-31.25,-69.82421875,-50.29296875,-51.7578125
-43.45703125,-78.125,-50.29296875,-41.9921875
-49.8046875,-39.0625,-47.8515625,-43.45703125
-48.33984375,-8.7890625,-45.41015625,-47.36328125
-47.36328125,9.27734375,-41.015625,-41.015625
-47.36328125,-10.25390625,-39.55078125,-50.78125
-56.640625,-99.12109375,-42.96875,-52.24609375
-61.03515625,-90.33203125,-43.45703125,-50.29296875
-54.19921875,-14.6484375,-41.9921875,-48.33984375
-45.8984375,-14.6484375,-42.48046875,-36.62109375
-45.8984375,-45.8984375,-41.015625,-40.52734375
-49.31640625,-64.453125,-41.015625,-44.921875
-58.59375,-99.12109375,-46.38671875,-48.828125
-60.546875,-42.96875,-50.78125,-51.7578125
-49.8046875,-6.34765625,-49.31640625,-41.015625
-51.26953125,-48.33984375,-45.8984375,-36.62109375
-52.24609375,-57.12890625,-48.828125,-42.48046875
-57.12890625,-29.78515625,-50.29296875,-39.0625
-61.5234375,-40.0390625,-47.36328125,-39.55078125
-52.24609375,-40.52734375,-48.828125,-44.43359375
-40.52734375,-48.33984375,-50.78125,-50.78125
-43.9453125,-97.16796875,-54.19921875,-49.8046875
-55.6640625,-83.49609375,-55.6640625,-47.8515625
-51.26953125,-33.203125,-54.6875,-46.38671875
-35.15625,-6.34765625,-56.640625,-45.41015625
-22.4609375,-8.7890625,-56.640625,-49.31640625
-21.97265625,-40.0390625,-50.29296875,-41.50390625
-36.1328125,-92.7734375,-52.734375,-44.43359375
-44.43359375,-28.3203125,-55.17578125,-47.8515625
-48.33984375,18.5546875,-49.8046875,-41.015625
-54.19921875,-44.921875,-46.875,-40.52734375
-54.19921875,-83.0078125,-41.9921875,-39.55078125
-59.5703125,-79.58984375,-39.55078125,-36.1328125
-57.12890625,-38.57421875,-41.9921875,-37.59765625
-42.96875,-2.9296875,-41.9921875,-30.2734375
-35.64453125,-22.4609375,-41.015625,-26.85546875
-41.50390625,-71.77734375,-43.9453125,-39.55078125
-48.33984375,-80.078125,-46.38671875,-46.38671875
-48.828125,-39.55078125,-40.0390625,-35.15625
-44.921875,5.37109375,-37.59765625,-33.69140625
-37.109375,-1.953125,-37.59765625,-36.62109375
-32.71484375,-36.1328125,-41.50390625,-43.9453125
-41.015625,-67.3828125,-48.828125,-51.26953125
-52.24609375,-89.84375,-52.24609375,-47.36328125
-43.45703125,-40.52734375,-51.26953125,-45.41015625
-29.78515625,-7.8125,-47.8515625,-45.41015625
-23.4375,-44.921875,-47.36328125,-39.55078125
-35.15625,-78.125,-49.8046875,-34.1796875
-42.48046875,-63.4765625,-42.96875,-31.25
-27.34375,-1.46484375,-41.9921875,-32.2265625
-24.90234375,14.6484375,-44.43359375,-36.1328125
-30.76171875,-61.5234375,-44.921875,-36.1328125
-33.203125,-88.8671875,-51.26953125,-37.59765625
-42.48046875,-31.25,-53.7109375,-44.43359375
-46.875,-16.6015625,-54.19921875,-50.29296875
-48.33984375,-38.57421875,-54.19921875,-56.15234375
-40.0390625,-49.8046875,-49.8046875,-52.734375
-40.0390625,-98.14453125,-49.31640625,-42.48046875
-56.15234375,-81.0546875,-50.29296875,-38.0859375
-59.08203125,-2.9296875,-44.921875,-48.33984375
-43.9453125,16.6015625,-40.0390625,-60.05859375
-37.109375,-45.41015625,-37.59765625,-58.59375
-51.26953125,-94.23828125,-42.96875,-56.640625
-55.6640625,-86.9140625,-45.8984375,-54.19921875
-47.8515625,-14.6484375,-46.38671875,-49.31640625
-44.921875,41.9921875,-47.36328125,-41.9921875
-52.24609375,-56.15234375,-44.43359375,-44.921875
-51.7578125,-125.48828125,-44.43359375,-43.45703125
-51.26953125,-83.0078125,-43.9453125,-42.96875
-54.6875,-31.25,-44.921875,-44.921875
-51.26953125,-0.9765625,-49.8046875,-38.0859375
-50.78125,-25.87890625,-50.29296875,-41.015625
-45.8984375,-98.6328125,-50.78125,-44.43359375
-47.36328125,-115.72265625,-47.8515625,-40.52734375
-55.6640625,-46.875,-43.45703125,-42.48046875
-49.31640625,3.41796875,-42.96875,-45.41015625
-39.0625,-7.8125,-44.43359375,-47.8515625
-37.59765625,-46.875,-45.41015625,-46.38671875
-57.12890625,-112.79296875,-47.8515625,-46.38671875
-71.77734375,-70.80078125,-55.6640625,-53.22265625
-53.7109375,2.9296875,-51.7578125,-44.43359375
-46.38671875,-22.4609375,-42.48046875,-33.203125
-47.36328125,-56.15234375,-41.50390625,-37.109375
-52.24609375,-60.546875,-40.52734375,-38.57421875
-57.12890625,-46.875,-40.0390625,-29.78515625
-56.15234375,14.16015625,-44.921875,-36.62109375
-46.875,11.23046875,-46.38671875,-44.43359375
-41.015625,-92.7734375,-44.921875,-47.8515625
-40.0390625,-69.82421875,-46.38671875,-34.1796875
-33.203125,2.9296875,-48.828125,-23.4375
-39.0625,-25.87890625,-53.7109375,-42.48046875
-32.71484375,-31.73828125,-49.8046875,-50.78125
-33.203125,-36.62109375,-45.8984375,-57.6171875
-49.31640625,-63.4765625,-44.921875,-60.05859375
-44.921875,-22.94921875,-40.0390625,-46.38671875
-41.50390625,39.55078125,-41.015625,-41.9921875
-41.50390625,11.71875,-52.24609375,-60.05859375
-41.015625,-26.85546875,-62.01171875,-68.359375
-40.0390625,-35.15625,-63.4765625,-62.01171875
-44.921875,-50.29296875,-65.4296875,-67.87109375
-41.9921875,24.90234375,-62.98828125,-60.546875
-29.296875,56.15234375,-60.05859375,-48.828125
-27.83203125,-15.625,-63.96484375,-57.6171875
-39.55078125,-91.796875,-61.5234375,-61.03515625
-49.8046875,-77.1484375,-63.96484375,-55.6640625
-48.33984375,-8.7890625,-71.2890625,-49.8046875
-34.1796875,18.5546875,-64.94140625,-51.7578125
-32.2265625,-13.671875,-63.4765625,-55.17578125
-33.69140625,-70.80078125,-69.82421875,-53.7109375
-34.66796875,-58.10546875,-65.91796875,-53.22265625
-44.43359375,-19.04296875,-61.5234375,-58.10546875
-39.0625,6.8359375,-61.03515625,-52.734375
-32.71484375,-7.8125,-60.546875,-49.8046875
-34.1796875,-27.34375,-53.22265625,-57.6171875
-37.59765625,-75.68359375,-48.33984375,-60.05859375
-44.921875,-53.7109375,-47.36328125,-58.59375
-39.55078125,20.99609375,-42.48046875,-54.6875
-33.203125,-24.90234375,-45.41015625,-47.36328125
-38.57421875,-63.96484375,-49.8046875,-41.015625
-54.6875,-77.1484375,-48.828125,-46.875
-59.5703125,-44.43359375,-56.640625,-56.15234375
-42.48046875,-2.44140625,-62.98828125,-44.921875
-35.15625,-17.08984375,-58.59375,-39.55078125
-36.1328125,-46.875,-56.640625,-49.31640625
-43.45703125,-61.03515625,-58.10546875,-55.6640625
-44.43359375,-20.01953125,-56.15234375,-45.8984375
-34.1796875,11.23046875,-54.6875,-44.43359375
-31.73828125,-44.921875,-52.24609375,-50.29296875
-36.62109375,-82.03125,-48.828125,-47.36328125
-46.875,-88.37890625,-54.19921875,-52.24609375
-47.8515625,-45.8984375,-60.546875,-59.08203125
-44.921875,-3.41796875,-60.05859375,-55.6640625
-43.45703125,-30.76171875,-62.01171875,-45.41015625
-36.62109375,-61.5234375,-60.05859375,-42.48046875
-41.50390625,-94.23828125,-60.05859375,-51.26953125
-45.8984375,-71.2890625,-60.05859375,-49.31640625
-48.828125,-15.625,-58.59375,-47.36328125
-50.78125,6.8359375,-54.6875,-47.8515625
-52.24609375,-60.05859375,-50.29296875,-47.8515625
-57.6171875,-132.32421875,-55.6640625,-49.31640625
-59.08203125,-83.0078125,-57.12890625,-48.828125
-60.05859375,-8.7890625,-48.828125,-42.96875
-48.33984375,-9.765625,-45.41015625,-35.15625
-45.41015625,-54.6875,-45.41015625,-41.015625
-49.8046875,-79.58984375,-47.36328125,-50.78125
-45.41015625,-40.0390625,-48.33984375,-47.8515625
-41.015625,13.671875,-47.36328125,-43.45703125
-32.71484375,-5.37109375,-52.24609375,-44.921875
-35.15625,-33.203125,-56.15234375,-49.8046875
-44.921875,-38.57421875,-54.19921875,-52.734375
-46.38671875,-72.75390625,-54.6875,-44.921875
-50.29296875,-62.98828125,-56.640625,-41.015625
-32.71484375,-15.625,-48.828125,-34.1796875
-33.69140625,-29.78515625,-47.8515625,-34.66796875
-52.24609375,-79.1015625,-48.828125,-42.48046875
-58.59375,-81.54296875,-45.41015625,-46.38671875
-58.10546875,-34.66796875,-45.41015625,-45.8984375
-44.43359375,-24.4140625,-44.921875,-40.52734375
-45.8984375,-43.45703125,-46.38671875,-37.59765625
-58.10546875,-76.171875,-46.875,-40.52734375
-55.17578125,-82.51953125,-45.8984375,-45.41015625
-51.7578125,1.46484375,-44.921875,-44.43359375
-53.22265625,7.8125,-51.26953125,-47.8515625
-46.38671875,-66.40625,-53.7109375,-46.38671875
-43.45703125,-86.9140625,-50.78125,-43.9453125
-47.8515625,-79.1015625,-56.640625,-49.8046875
-48.33984375,-37.59765625,-59.08203125,-45.41015625
-36.62109375,-9.27734375,-51.26953125,-39.55078125
-33.203125,-25.390625,-43.9453125,-46.38671875
-40.52734375,-75.68359375,-40.52734375,-53.22265625
-48.828125,-92.28515625,-40.52734375,-51.26953125
-62.01171875,-42.48046875,-46.38671875,-53.7109375
-58.10546875,4.8828125,-50.78125,-56.15234375
-40.52734375,17.08984375,-50.29296875,-56.640625
-43.9453125,-78.61328125,-52.24609375,-54.19921875
-50.78125,-119.140625,-52.734375,-54.6875
-47.36328125,-29.296875,-47.36328125,-44.43359375
-44.43359375,-9.765625,-47.8515625,-34.66796875
-44.921875,-35.15625,-50.29296875,-39.0625
-40.0390625,-54.6875,-45.8984375,-46.38671875
-56.640625,-101.5625,-42.48046875,-57.12890625
-61.5234375,-84.9609375,-36.1328125,-50.29296875
-47.8515625,-16.11328125,-33.69140625,-38.0859375
-43.45703125,-20.99609375,-36.1328125,-42.48046875
-35.64453125,-36.62109375,-37.109375,-48.33984375
-33.69140625,-49.31640625,-39.55078125,-42.96875
-42.48046875,-86.42578125,-41.50390625,-41.50390625
-50.29296875,-47.36328125,-38.57421875,-42.96875
-42.96875,-1.953125,-35.64453125,-41.015625
-43.9453125,-46.38671875,-35.64453125,-45.8984375
-54.6875,-78.125,-39.0625,-51.7578125
-63.4765625,-68.359375,-47.8515625,-42.96875
-64.94140625,-52.24609375,-54.6875,-44.43359375
-58.10546875,-14.16015625,-48.33984375,-54.6875
-48.33984375,-15.13671875,-40.52734375,-51.7578125
-46.38671875,-83.49609375,-41.015625,-49.31640625
-57.12890625,-77.1484375,-42.48046875,-48.828125
-58.10546875,10.7421875,-35.64453125,-50.29296875
-48.828125,-7.8125,-33.69140625,-50.29296875
-46.38671875,-42.48046875,-39.55078125,-47.8515625
-42.96875,-75.68359375,-43.45703125,-47.8515625
-40.0390625,-86.42578125,-47.8515625,-46.38671875
-42.48046875,-7.32421875,-44.43359375,-45.41015625
-40.52734375,10.25390625,-44.43359375,-40.52734375
-34.1796875,-37.109375,-43.9453125,-41.50390625
-28.3203125,-51.7578125,-36.62109375,-46.875
-40.52734375,-61.5234375,-36.62109375,-43.9453125
