TP9,AF7,AF8,TP10
-38.0859375,-36.1328125,-44.43359375,-27.83203125
-41.015625,-53.7109375,-49.8046875,-36.62109375
-41.015625,-56.15234375,-49.31640625,-31.73828125
-36.1328125,-50.29296875,-47.8515625,-26.3671875
-28.3203125,-34.66796875,-46.875,-29.78515625
-18.5546875,-9.765625,-42.96875,-38.57421875
-31.25,-46.875,-41.015625,-43.9453125
-48.33984375,-80.56640625,-46.38671875,-51.26953125
-42.96875,-50.29296875,-45.8984375,-49.31640625
-40.0390625,-35.64453125,-41.015625,-44.921875
-42.96875,-39.0625,-42.48046875,-51.7578125
-47.36328125,-56.640625,-42.48046875,-55.17578125
-55.6640625,-69.3359375,-42.96875,-55.17578125
-57.12890625,-69.3359375,-44.43359375,-52.734375
-51.7578125,-45.8984375,-40.52734375,-45.41015625
-41.50390625,-25.390625,-35.64453125,-37.109375
-41.50390625,-40.0390625,-39.55078125,-44.43359375
-46.875,-51.7578125,-43.45703125,-49.8046875
-54.6875,-65.91796875,-44.43359375,-42.96875
-64.94140625,-52.24609375,-49.8046875,-43.45703125
-55.6640625,-42.48046875,-49.8046875,-48.33984375
-47.8515625,-53.7109375,-43.45703125,-49.8046875
-48.828125,-45.8984375,-48.33984375,-49.8046875
-53.7109375,-51.7578125,-51.7578125,-45.8984375
-54.19921875,-54.6875,-48.33984375,-41.9921875
-43.9453125,-34.66796875,-46.875,-43.45703125
-41.015625,-42.96875,-49.31640625,-47.36328125
-46.38671875,-63.4765625,-50.29296875,-49.8046875
-44.921875,-60.546875,-46.38671875,-43.9453125
-37.109375,-21.97265625,-46.875,-37.109375
-32.2265625,-19.04296875,-46.875,-32.71484375
-47.8515625,-45.41015625,-48.33984375,-41.9921875
-54.6875,-54.19921875,-52.24609375,-44.921875
-43.9453125,-59.08203125,-52.734375,-41.015625
-46.875,-46.875,-52.734375,-41.015625
-47.36328125,-24.90234375,-46.38671875,-36.1328125
-42.96875,-30.2734375,-45.8984375,-33.69140625
-46.38671875,-50.29296875,-49.8046875,-37.59765625
-44.921875,-45.8984375,-49.8046875,-40.0390625
-41.015625,-54.6875,-48.828125,-33.69140625
-44.921875,-35.64453125,-51.26953125,-34.1796875
-39.0625,-15.13671875,-49.31640625,-38.57421875
-34.1796875,-58.59375,-48.828125,-40.52734375
-44.43359375,-67.3828125,-49.31640625,-40.52734375
-47.36328125,-53.22265625,-51.26953125,-39.0625
-32.2265625,-33.69140625,-48.33984375,-33.203125
-34.1796875,-25.87890625,-44.43359375,-43.9453125
-58.10546875,-60.05859375,-47.8515625,-64.453125
-69.82421875,-74.21875,-47.8515625,-65.91796875
-67.3828125,-64.453125,-43.45703125,-60.546875
-65.4296875,-32.2265625,-42.48046875,-59.5703125
-62.5,-33.203125,-45.8984375,-62.01171875
-62.98828125,-53.7109375,-47.36328125,-60.546875
-63.4765625,-38.0859375,-43.45703125,-59.08203125
-57.12890625,-48.33984375,-39.55078125,-52.24609375
-56.15234375,-55.6640625,-43.9453125,-51.7578125
-54.19921875,-34.1796875,-52.24609375,-58.59375
-52.734375,-41.015625,-49.8046875,-59.5703125
-58.59375,-62.01171875,-43.9453125,-59.5703125
-56.640625,-62.98828125,-49.8046875,-60.05859375
-53.22265625,-35.15625,-51.26953125,-54.6875
-55.17578125,-28.3203125,-46.875,-49.31640625
-52.24609375,-44.43359375,-47.8515625,-51.7578125
-59.08203125,-59.5703125,-49.8046875,-53.7109375
-66.40625,-58.10546875,-45.41015625,-49.8046875
-53.22265625,-19.04296875,-44.43359375,-48.33984375
-43.9453125,-27.83203125,-47.36328125,-49.31640625
-49.8046875,-50.78125,-49.31640625,-56.15234375
-51.7578125,-66.40625,-48.828125,-58.59375
-46.38671875,-80.078125,-46.38671875,-54.19921875
-48.828125,-48.828125,-44.921875,-49.8046875
-45.8984375,-23.4375,-44.43359375,-46.38671875
-38.57421875,-36.62109375,-43.45703125,-44.921875
-42.96875,-71.2890625,-44.43359375,-49.31640625
-50.29296875,-64.453125,-43.9453125,-43.9453125
-54.19921875,-40.52734375,-42.96875,-31.25
-51.26953125,-20.5078125,-43.45703125,-36.1328125
-47.36328125,-18.5546875,-45.8984375,-43.9453125
-57.12890625,-64.94140625,-51.26953125,-55.17578125
-62.98828125,-82.51953125,-50.29296875,-57.12890625
-58.10546875,-61.5234375,-51.26953125,-47.8515625
-48.33984375,-43.9453125,-50.29296875,-47.8515625
-44.921875,-41.9921875,-49.31640625,-50.29296875
-49.8046875,-62.01171875,-47.36328125,-50.29296875
-50.78125,-78.125,-45.8984375,-42.48046875
-52.24609375,-69.3359375,-45.8984375,-40.0390625
-57.12890625,-35.15625,-47.8515625,-44.43359375
-59.08203125,-28.80859375,-49.31640625,-48.33984375
-62.98828125,-52.734375,-44.921875,-50.78125
-64.94140625,-56.15234375,-43.45703125,-49.8046875
-62.5,-59.5703125,-44.921875,-47.8515625
-54.6875,-43.45703125,-45.41015625,-38.0859375
-54.19921875,-32.2265625,-42.96875,-31.73828125
-54.6875,-50.78125,-42.48046875,-41.015625
-53.7109375,-73.2421875,-43.9453125,-41.9921875
-58.10546875,-64.94140625,-41.50390625,-40.0390625
-52.734375,-42.48046875,-43.9453125,-44.921875
-50.78125,-29.296875,-48.828125,-51.26953125
-57.6171875,-29.296875,-47.36328125,-60.05859375
-57.12890625,-73.2421875,-48.33984375,-62.5
-56.15234375,-67.87109375,-52.24609375,-57.12890625
-61.03515625,-27.34375,-50.78125,-54.6875
-62.5,-43.45703125,-48.828125,-53.22265625
-56.15234375,-61.5234375,-51.7578125,-55.17578125
-51.26953125,-53.7109375,-49.8046875,-54.19921875
-53.22265625,-57.6171875,-50.29296875,-49.8046875
-50.78125,-34.66796875,-53.7109375,-43.45703125
-48.33984375,-22.4609375,-52.24609375,-41.9921875
-47.8515625,-39.55078125,-49.8046875,-41.9921875
-41.9921875,-52.24609375,-48.828125,-43.9453125
-44.43359375,-64.453125,-49.31640625,-50.78125
-48.33984375,-46.38671875,-47.8515625,-49.31640625
-35.15625,-28.80859375,-43.9453125,-33.203125
-44.43359375,-23.92578125,-41.50390625,-36.62109375
-57.12890625,-37.109375,-42.48046875,-56.15234375
-45.41015625,-76.66015625,-43.45703125,-49.8046875
-40.52734375,-54.19921875,-47.36328125,-41.9921875
-44.43359375,-20.5078125,-48.33984375,-50.78125
-48.828125,-34.66796875,-45.8984375,-56.640625
-46.875,-53.7109375,-47.8515625,-52.734375
-50.78125,-53.7109375,-48.828125,-52.24609375
-56.640625,-41.50390625,-47.36328125,-54.6875
-57.6171875,-35.64453125,-51.26953125,-53.22265625
-52.24609375,-37.59765625,-47.8515625,-51.7578125
-49.31640625,-53.22265625,-41.9921875,-52.24609375
-54.19921875,-42.96875,-48.33984375,-47.8515625
-57.6171875,-60.05859375,-52.734375,-47.36328125
-43.9453125,-42.48046875,-48.828125,-44.921875
-36.1328125,-20.5078125,-45.8984375,-44.43359375
-39.0625,-56.640625,-45.41015625,-47.8515625
-37.59765625,-60.05859375,-47.8515625,-44.43359375
-36.1328125,-53.7109375,-46.875,-41.50390625
-37.59765625,-28.3203125,-41.50390625,-41.015625
-37.109375,-20.01953125,-40.0390625,-40.52734375
-41.015625,-43.45703125,-42.96875,-49.31640625
-48.33984375,-55.17578125,-43.9453125,-52.24609375
-49.31640625,-48.33984375,-47.8515625,-47.8515625
-49.31640625,-16.11328125,-48.828125,-43.9453125
-56.15234375,-32.71484375,-46.38671875,-51.7578125
-65.91796875,-70.3125,-50.78125,-58.10546875
-62.98828125,-73.2421875,-50.78125,-56.15234375
-54.19921875,-62.01171875,-43.9453125,-55.17578125
-40.52734375,-21.484375,-42.48046875,-52.24609375
-36.62109375,-9.27734375,-41.9921875,-46.38671875
-53.22265625,-47.36328125,-41.015625,-47.8515625
-46.875,-63.96484375,-44.921875,-51.26953125
-41.9921875,-58.59375,-44.921875,-47.8515625
-50.29296875,-32.2265625,-42.48046875,-43.9453125
-45.41015625,-15.625,-40.52734375,-44.43359375
-43.45703125,-20.01953125,-37.109375,-46.875
-46.875,-62.98828125,-40.52734375,-51.26953125
-45.8984375,-69.3359375,-46.38671875,-51.26953125
-44.921875,-32.2265625,-44.43359375,-41.015625
-43.9453125,-33.203125,-46.875,-45.8984375
-47.36328125,-52.24609375,-49.31640625,-54.6875
-53.22265625,-64.453125,-48.33984375,-51.26953125
-55.17578125,-67.87109375,-50.78125,-46.875
-56.15234375,-38.57421875,-50.78125,-42.48046875
-52.24609375,-20.01953125,-43.9453125,-45.41015625
-45.41015625,-56.15234375,-40.52734375,-47.8515625
-51.26953125,-63.4765625,-45.8984375,-48.828125
-55.17578125,-43.45703125,-46.875,-48.828125
-52.734375,-47.36328125,-43.9453125,-42.48046875
-49.31640625,-41.50390625,-42.48046875,-47.36328125
-47.8515625,-36.1328125,-41.015625,-54.19921875
-49.8046875,-52.734375,-45.8984375,-58.10546875
-47.8515625,-57.6171875,-45.41015625,-56.15234375
-47.8515625,-41.9921875,-42.48046875,-48.828125
-47.8515625,-25.87890625,-43.45703125,-46.875
-48.828125,-39.0625,-44.43359375,-47.8515625
-46.38671875,-66.40625,-47.8515625,-52.734375
-46.38671875,-68.359375,-43.9453125,-50.29296875
-47.8515625,-55.6640625,-42.48046875,-41.015625
-43.45703125,-26.3671875,-42.48046875,-40.52734375
-36.62109375,-14.16015625,-43.9453125,-48.33984375
-36.62109375,-59.5703125,-43.45703125,-51.7578125
-35.15625,-77.63671875,-40.0390625,-48.828125
-44.43359375,-54.19921875,-39.0625,-40.0390625
-44.43359375,-31.73828125,-39.55078125,-35.15625
-41.50390625,-29.296875,-44.921875,-40.52734375
-51.26953125,-52.734375,-42.96875,-43.45703125
-60.05859375,-66.89453125,-44.921875,-41.9921875
-57.12890625,-59.08203125,-53.7109375,-41.015625
-52.734375,-36.1328125,-53.22265625,-44.921875
-46.875,-25.87890625,-53.22265625,-49.31640625
-43.9453125,-22.94921875,-51.7578125,-47.8515625
-47.36328125,-64.94140625,-51.26953125,-45.41015625
-40.52734375,-73.2421875,-53.22265625,-49.31640625
-29.78515625,-30.76171875,-56.640625,-50.78125
-29.296875,-34.66796875,-56.15234375,-46.875
-40.52734375,-49.8046875,-54.19921875,-50.78125
-36.62109375,-65.91796875,-51.7578125,-52.24609375
-40.52734375,-53.7109375,-47.8515625,-46.875
-45.8984375,-28.3203125,-50.29296875,-45.41015625
-40.0390625,-20.01953125,-51.7578125,-43.45703125
-41.50390625,-42.48046875,-52.24609375,-41.9921875
-42.96875,-60.05859375,-48.828125,-46.38671875
-50.29296875,-52.24609375,-47.36328125,-45.8984375
-53.22265625,-48.33984375,-50.78125,-41.015625
-50.29296875,-38.57421875,-42.48046875,-41.015625
-51.7578125,-41.015625,-44.43359375,-48.33984375
-55.17578125,-53.7109375,-46.38671875,-54.6875
-58.10546875,-49.8046875,-41.9921875,-51.7578125
-56.640625,-31.73828125,-40.52734375,-45.8984375
-52.734375,-28.80859375,-39.0625,-46.875
-54.19921875,-31.25,-42.96875,-60.05859375
-54.19921875,-47.36328125,-45.41015625,-70.3125
-69.3359375,-63.4765625,-48.33984375,-73.2421875
-78.61328125,-38.57421875,-44.921875,-68.84765625
-82.51953125,-11.71875,-44.921875,-75.1953125
-88.8671875,-31.25,-45.41015625,-83.984375
-94.23828125,-58.10546875,-41.9921875,-94.7265625
-110.3515625,-57.6171875,-44.43359375,-106.93359375
-115.72265625,-36.62109375,-48.828125,-109.375
-116.2109375,-12.6953125,-47.8515625,-106.93359375
-109.375,-11.23046875,-46.875,-106.93359375
-125.0,-34.1796875,-53.7109375,-131.34765625
-145.5078125,-35.64453125,-55.17578125,-147.4609375
-145.99609375,-26.3671875,-45.8984375,-138.18359375
-156.25,-16.11328125,-44.921875,-141.11328125
-161.62109375,5.37109375,-48.828125,-158.203125
-151.3671875,-1.46484375,-45.8984375,-155.2734375
-150.87890625,-31.73828125,-47.8515625,-153.3203125
-160.15625,-28.3203125,-51.7578125,-157.2265625
-145.99609375,3.90625,-43.45703125,-151.3671875
-136.23046875,9.27734375,-33.69140625,-148.4375
-152.34375,-16.6015625,-41.50390625,-156.25
-153.3203125,-42.48046875,-45.41015625,-154.296875
-145.01953125,-30.76171875,-40.52734375,-141.6015625
-141.11328125,-6.8359375,-39.0625,-134.765625
-132.32421875,-1.953125,-36.62109375,-137.20703125
-140.13671875,-20.99609375,-38.57421875,-147.94921875
-143.5546875,-42.96875,-44.43359375,-146.484375
-138.18359375,-25.390625,-50.29296875,-140.13671875
-127.44140625,-5.37109375,-55.6640625,-131.8359375
-121.58203125,-19.53125,-47.36328125,-126.46484375
-136.23046875,-28.80859375,-40.0390625,-135.25390625
-144.04296875,-45.41015625,-42.96875,-139.6484375
-138.18359375,-48.828125,-43.9453125,-126.46484375
-136.71875,-25.390625,-42.48046875,-122.55859375
-132.8125,-15.625,-39.0625,-125.9765625
-126.46484375,-26.85546875,-40.52734375,-127.44140625
-126.953125,-53.7109375,-44.43359375,-127.44140625
-130.37109375,-65.4296875,-44.43359375,-127.9296875
-122.0703125,-32.2265625,-39.0625,-114.2578125
-106.93359375,-3.41796875,-33.69140625,-101.5625
-103.515625,-38.0859375,-34.66796875,-106.4453125
-101.5625,-73.2421875,-36.62109375,-110.83984375
-102.5390625,-61.5234375,-39.55078125,-108.3984375
-94.7265625,-62.01171875,-40.0390625,-95.703125
-80.078125,-38.0859375,-40.0390625,-89.84375
-75.68359375,-23.92578125,-41.9921875,-90.8203125
-66.89453125,-49.31640625,-41.015625,-83.0078125
-68.359375,-64.94140625,-41.9921875,-73.2421875
-65.91796875,-42.96875,-47.36328125,-65.4296875
-61.5234375,-33.203125,-51.26953125,-62.98828125
-60.05859375,-35.15625,-53.22265625,-62.5
-50.29296875,-43.45703125,-52.24609375,-57.12890625
-54.6875,-85.9375,-48.828125,-54.6875
-56.640625,-62.98828125,-43.45703125,-48.828125
-40.0390625,-29.296875,-42.96875,-43.45703125
-23.4375,-35.15625,-47.36328125,-40.52734375
-33.203125,-54.6875,-44.43359375,-43.45703125
-34.1796875,-67.3828125,-43.45703125,-46.875
-35.64453125,-70.3125,-44.921875,-41.9921875
-36.62109375,-49.8046875,-40.52734375,-28.80859375
-23.4375,-24.4140625,-40.52734375,-31.25
-31.25,-44.43359375,-39.0625,-33.69140625
-40.52734375,-65.4296875,-41.50390625,-29.296875
-41.015625,-53.22265625,-44.921875,-25.390625
-41.9921875,-45.8984375,-41.9921875,-27.34375
-29.78515625,-41.015625,-46.38671875,-36.62109375
-34.1796875,-44.43359375,-45.8984375,-38.57421875
-51.7578125,-72.75390625,-45.8984375,-44.921875
-54.19921875,-61.5234375,-48.33984375,-42.96875
-57.6171875,-28.3203125,-44.921875,-38.57421875
-56.640625,-28.3203125,-47.36328125,-40.52734375
-54.19921875,-40.52734375,-44.43359375,-45.41015625
-53.7109375,-48.33984375,-40.0390625,-54.19921875
-57.6171875,-67.3828125,-41.50390625,-53.7109375
-56.15234375,-33.203125,-41.50390625,-48.33984375
-54.6875,5.37109375,-40.0390625,-43.9453125
-62.98828125,-38.0859375,-41.015625,-58.59375
-70.80078125,-67.3828125,-42.96875,-72.265625
-75.68359375,-62.01171875,-45.8984375,-75.68359375
-68.84765625,-42.48046875,-45.8984375,-73.2421875
-46.38671875,-16.11328125,-39.0625,-60.05859375
-45.41015625,-22.94921875,-40.0390625,-68.84765625
-58.59375,-41.015625,-41.015625,-79.58984375
-63.96484375,-48.828125,-34.66796875,-82.03125
-75.1953125,-38.57421875,-30.2734375,-86.42578125
-76.66015625,-17.578125,-32.71484375,-85.44921875
-76.66015625,-23.92578125,-31.25,-85.9375
-76.66015625,-47.36328125,-28.80859375,-83.0078125
-66.89453125,-67.87109375,-30.2734375,-76.171875
-60.546875,-64.453125,-31.73828125,-64.453125
-60.546875,-40.52734375,-31.73828125,-70.80078125
-62.01171875,-32.71484375,-29.296875,-72.265625
-63.96484375,-58.10546875,-34.1796875,-71.2890625
-69.82421875,-78.125,-36.1328125,-69.3359375
-54.6875,-53.22265625,-40.52734375,-48.828125
-34.1796875,-21.484375,-41.50390625,-33.69140625
-33.203125,-32.2265625,-31.25,-28.80859375
-37.109375,-59.5703125,-37.59765625,-33.69140625
-31.25,-63.96484375,-50.29296875,-32.2265625
-20.01953125,-44.43359375,-51.7578125,-22.94921875
-7.8125,-45.41015625,-46.875,-16.6015625
-1.46484375,-49.8046875,-42.48046875,-20.5078125
-2.9296875,-59.5703125,-41.015625,-22.94921875
-4.39453125,-88.37890625,-43.45703125,-17.578125
1.953125,-84.47265625,-45.8984375,-15.625
9.27734375,-52.734375,-49.31640625,-9.27734375
13.18359375,-42.96875,-45.41015625,2.9296875
15.625,-52.24609375,-44.921875,-0.48828125
18.5546875,-74.70703125,-52.24609375,-3.41796875
16.11328125,-92.28515625,-51.26953125,7.32421875
13.671875,-50.78125,-46.38671875,14.6484375
23.4375,-24.90234375,-49.8046875,14.16015625
25.87890625,-59.5703125,-53.22265625,12.6953125
10.7421875,-94.23828125,-54.19921875,4.8828125
0.9765625,-81.54296875,-54.6875,6.8359375
6.8359375,-49.31640625,-53.7109375,7.32421875
18.5546875,-26.3671875,-50.78125,4.39453125
10.25390625,-41.015625,-52.24609375,-1.953125
6.34765625,-84.47265625,-60.05859375,-11.71875
4.8828125,-98.14453125,-61.5234375,-6.8359375
4.39453125,-56.640625,-54.6875,6.34765625
21.97265625,-18.5546875,-56.640625,1.46484375
29.78515625,-31.73828125,-61.03515625,-6.8359375
13.18359375,-60.546875,-56.640625,1.46484375
-6.34765625,-83.49609375,-52.24609375,9.27734375
0.0,-73.2421875,-56.640625,11.23046875
6.34765625,-36.1328125,-57.6171875,6.34765625
4.8828125,-37.109375,-56.15234375,-3.90625
7.32421875,-66.40625,-58.59375,-9.27734375
0.48828125,-70.3125,-63.96484375,-11.71875
-4.39453125,-57.12890625,-63.96484375,-6.34765625
0.9765625,-26.3671875,-57.6171875,-7.32421875
-6.34765625,-30.76171875,-54.6875,-22.4609375
-17.08984375,-82.51953125,-49.8046875,-29.296875
-23.4375,-83.984375,-49.8046875,-26.3671875
-24.90234375,-44.921875,-49.31640625,-21.484375
-16.11328125,-33.69140625,-43.9453125,-12.20703125
-11.71875,-39.55078125,-42.96875,-11.71875
-13.671875,-55.6640625,-45.41015625,-23.92578125
-25.390625,-82.03125,-49.8046875,-28.80859375
-29.296875,-54.19921875,-47.8515625,-27.34375
-22.4609375,-17.08984375,-41.9921875,-22.4609375
-21.484375,-28.3203125,-38.57421875,-21.484375
-30.76171875,-57.6171875,-41.50390625,-28.3203125
-42.96875,-81.0546875,-44.921875,-27.34375
-45.8984375,-82.03125,-45.8984375,-28.80859375
-35.15625,-31.25,-41.015625,-32.71484375
-27.83203125,-7.32421875,-39.0625,-30.76171875
-42.48046875,-49.8046875,-50.29296875,-41.50390625
-49.31640625,-100.5859375,-50.29296875,-53.22265625
-53.22265625,-85.44921875,-41.50390625,-49.31640625
-62.98828125,-41.015625,-43.9453125,-46.38671875
-55.6640625,-33.69140625,-48.828125,-49.8046875
-50.29296875,-53.7109375,-47.8515625,-55.17578125
-51.26953125,-78.125,-46.38671875,-55.6640625
-62.98828125,-82.03125,-42.48046875,-54.6875
-58.10546875,-37.109375,-43.45703125,-53.22265625
-41.50390625,-33.69140625,-44.921875,-56.640625
-45.41015625,-43.9453125,-41.015625,-64.453125
-51.7578125,-45.8984375,-43.9453125,-66.40625
-55.6640625,-83.49609375,-48.828125,-70.80078125
-48.828125,-54.6875,-47.36328125,-62.01171875
-31.73828125,-18.06640625,-42.48046875,-45.8984375
-39.0625,-56.640625,-41.9921875,-49.8046875
-46.875,-70.3125,-48.828125,-55.17578125
-40.52734375,-67.3828125,-46.875,-48.33984375
-43.9453125,-55.6640625,-45.8984375,-47.36328125
-33.69140625,-20.5078125,-47.36328125,-43.45703125
-27.34375,-33.203125,-41.015625,-39.55078125
-38.57421875,-55.17578125,-43.9453125,-54.19921875
-46.875,-53.22265625,-44.921875,-56.15234375
-54.6875,-37.59765625,-46.875,-45.41015625
-43.45703125,-32.2265625,-49.8046875,-43.45703125
-26.3671875,-39.55078125,-49.31640625,-57.12890625
-37.109375,-62.98828125,-52.24609375,-64.94140625
-55.6640625,-71.77734375,-50.29296875,-52.734375
-46.875,-48.828125,-47.36328125,-47.36328125
-39.0625,-17.578125,-46.875,-46.875
-35.64453125,-32.2265625,-51.26953125,-56.640625
-34.1796875,-64.453125,-54.19921875,-64.453125
-46.875,-64.453125,-47.36328125,-59.08203125
-53.7109375,-53.22265625,-45.41015625,-49.31640625
-41.015625,-17.578125,-48.828125,-42.96875
-31.73828125,0.48828125,-50.78125,-46.38671875
-40.52734375,-58.10546875,-54.6875,-52.734375
-52.734375,-86.9140625,-49.31640625,-49.8046875
-53.7109375,-59.08203125,-48.828125,-40.0390625
-52.24609375,-21.484375,-52.734375,-41.9921875
-52.24609375,-14.16015625,-48.33984375,-55.6640625
-59.08203125,-47.8515625,-48.828125,-60.546875
-69.3359375,-67.3828125,-50.29296875,-70.80078125
-78.61328125,-41.015625,-47.36328125,-80.56640625
-68.84765625,-9.27734375,-49.8046875,-73.2421875
-67.87109375,-13.18359375,-50.29296875,-81.54296875
-81.54296875,-25.87890625,-51.7578125,-102.05078125
-95.21484375,-33.69140625,-54.19921875,-120.1171875
-105.95703125,-32.2265625,-59.08203125,-133.7890625
-109.375,-6.8359375,-58.59375,-126.953125
-103.02734375,2.9296875,-51.7578125,-124.0234375
-118.1640625,-12.20703125,-47.36328125,-137.20703125
-140.625,-14.6484375,-49.31640625,-156.25
-147.94921875,-26.85546875,-45.8984375,-155.2734375
-149.4140625,-5.859375,-33.69140625,-141.6015625
-145.99609375,30.2734375,-30.2734375,-141.6015625
-148.4375,15.13671875,-38.0859375,-150.87890625
-147.94921875,-26.85546875,-34.1796875,-149.4140625
-167.96875,-32.2265625,-31.73828125,-157.71484375
-182.12890625,19.04296875,-36.1328125,-162.109375
-163.57421875,32.2265625,-35.15625,-154.78515625
-147.94921875,-6.34765625,-34.66796875,-155.2734375
-164.0625,-32.2265625,-38.57421875,-174.8046875
-168.45703125,-44.921875,-40.0390625,-186.03515625
-163.0859375,-22.94921875,-35.15625,-166.50390625
-148.92578125,12.20703125,-30.76171875,-151.3671875
-129.8828125,0.9765625,-28.3203125,-148.4375
-148.92578125,-34.66796875,-33.203125,-165.0390625
-150.87890625,-49.8046875,-34.66796875,-164.55078125
-137.20703125,-32.71484375,-31.25,-134.765625
-119.140625,9.765625,-24.90234375,-120.60546875
-109.86328125,26.3671875,-28.80859375,-122.0703125
-120.60546875,-47.36328125,-35.15625,-127.44140625
-130.859375,-84.47265625,-32.2265625,-126.46484375
-125.0,-30.2734375,-33.203125,-112.3046875
-116.2109375,-20.01953125,-39.0625,-111.328125
-93.26171875,-16.11328125,-38.57421875,-111.328125
-88.37890625,-21.97265625,-37.59765625,-116.2109375
-102.5390625,-60.05859375,-48.33984375,-125.9765625
-107.421875,-55.6640625,-47.36328125,-116.2109375
-102.5390625,-7.32421875,-47.8515625,-103.515625
-79.58984375,4.8828125,-53.22265625,-107.421875
-68.84765625,-27.34375,-42.48046875,-99.609375
-91.796875,-39.55078125,-38.57421875,-106.4453125
-113.28125,-53.7109375,-42.48046875,-113.28125
-86.9140625,-33.69140625,-39.55078125,-87.890625
-65.4296875,-2.44140625,-42.96875,-81.54296875
-60.05859375,-28.3203125,-48.828125,-90.8203125
-56.640625,-59.08203125,-37.59765625,-77.1484375
-69.82421875,-41.9921875,-37.59765625,-68.359375
-67.3828125,-17.08984375,-41.50390625,-75.68359375
-49.31640625,-1.46484375,-37.59765625,-64.453125
-42.48046875,-18.06640625,-40.0390625,-62.5
-65.4296875,-63.4765625,-43.45703125,-81.0546875
-68.359375,-52.24609375,-44.921875,-70.3125
-56.640625,-2.9296875,-46.875,-52.24609375
-51.7578125,-0.9765625,-53.7109375,-54.6875
-42.96875,-22.94921875,-50.29296875,-58.59375
-61.5234375,-67.87109375,-48.828125,-62.5
-84.9609375,-69.82421875,-54.6875,-72.75390625
-79.1015625,-20.99609375,-52.24609375,-64.453125
-65.4296875,-4.8828125,-45.8984375,-51.7578125
-68.84765625,-35.15625,-45.8984375,-68.359375
-72.75390625,-58.59375,-50.29296875,-81.54296875
-76.66015625,-64.94140625,-51.7578125,-65.91796875
-73.2421875,-51.26953125,-50.29296875,-40.52734375
-39.0625,-5.859375,-49.8046875,-35.15625
-28.80859375,1.953125,-48.828125,-37.59765625
-32.2265625,-69.3359375,-52.24609375,-35.15625
-34.66796875,-96.6796875,-55.6640625,-31.73828125
-25.87890625,-62.98828125,-59.08203125,-14.16015625
0.48828125,-25.390625,-55.6640625,16.6015625
8.7890625,-33.69140625,-51.26953125,26.85546875
-1.953125,-89.84375,-58.10546875,12.6953125
-8.7890625,-112.3046875,-60.05859375,20.5078125
-5.859375,-85.44921875,-57.12890625,31.73828125
21.97265625,-39.55078125,-56.15234375,30.76171875
38.0859375,-42.96875,-54.19921875,29.78515625
17.578125,-82.51953125,-57.12890625,23.4375
8.30078125,-76.66015625,-59.5703125,23.92578125
6.34765625,-84.47265625,-54.19921875,27.83203125
18.5546875,-78.61328125,-55.17578125,22.94921875
22.4609375,-68.84765625,-61.03515625,15.625
15.13671875,-87.890625,-60.546875,10.7421875
10.25390625,-103.02734375,-56.640625,13.671875
-0.48828125,-105.46875,-48.33984375,24.90234375
10.25390625,-54.6875,-43.9453125,39.0625
27.83203125,-47.8515625,-42.48046875,47.8515625
38.0859375,-83.984375,-43.45703125,51.26953125
35.15625,-102.05078125,-46.875,51.7578125
23.92578125,-97.65625,-47.36328125,51.7578125
19.53125,-46.875,-52.24609375,54.6875
40.0390625,-35.64453125,-58.10546875,51.7578125
49.31640625,-60.05859375,-53.7109375,47.36328125
26.85546875,-86.42578125,-47.36328125,47.8515625
16.11328125,-93.26171875,-52.24609375,46.38671875
26.85546875,-46.875,-56.15234375,41.9921875
39.55078125,-34.1796875,-52.24609375,39.55078125
36.62109375,-47.36328125,-53.22265625,26.3671875
27.34375,-74.70703125,-53.22265625,15.625
9.765625,-83.49609375,-50.78125,6.8359375
0.48828125,-43.9453125,-54.19921875,-4.39453125
23.92578125,-30.76171875,-50.78125,3.90625
35.15625,-33.203125,-47.36328125,1.46484375
22.94921875,-72.75390625,-53.7109375,-13.671875
2.44140625,-98.6328125,-57.6171875,-15.625
-6.34765625,-59.08203125,-50.78125,-3.41796875
0.9765625,-39.55078125,-47.36328125,5.859375
2.44140625,-45.8984375,-44.43359375,7.32421875
-9.765625,-69.3359375,-48.33984375,-8.7890625
-13.671875,-104.98046875,-50.78125,-6.8359375
-15.625,-77.63671875,-47.8515625,5.37109375
-4.39453125,-32.2265625,-44.921875,8.30078125
3.41796875,-50.78125,-45.8984375,2.44140625
-3.90625,-82.51953125,-50.78125,-6.34765625
-11.71875,-72.75390625,-51.7578125,-4.39453125
-15.625,-75.1953125,-55.6640625,-11.71875
-4.39453125,-35.64453125,-54.6875,-14.6484375
8.30078125,-14.16015625,-53.22265625,-8.7890625
-4.8828125,-56.640625,-61.03515625,-22.4609375
-23.92578125,-82.03125,-63.96484375,-40.52734375
-20.99609375,-49.8046875,-59.08203125,-35.15625
-12.20703125,-10.7421875,-58.10546875,-27.34375
-5.37109375,-19.53125,-57.12890625,-34.1796875
-19.53125,-55.17578125,-56.640625,-42.96875
-41.015625,-89.84375,-51.26953125,-39.55078125
-42.48046875,-62.5,-50.78125,-38.0859375
-30.2734375,-7.32421875,-48.828125,-33.69140625
-18.06640625,-35.15625,-45.41015625,-29.78515625
-26.85546875,-65.4296875,-47.36328125,-35.64453125
-26.85546875,-77.1484375,-46.875,-37.109375
-39.0625,-88.37890625,-46.38671875,-34.1796875
-49.8046875,-41.015625,-43.9453125,-21.484375
-36.1328125,-17.08984375,-40.0390625,-15.13671875
-30.2734375,-43.9453125,-41.015625,-29.296875
-41.015625,-73.2421875,-36.1328125,-29.78515625
-55.17578125,-67.87109375,-41.015625,-34.1796875
-50.78125,-43.45703125,-40.52734375,-30.76171875
-41.50390625,-20.99609375,-38.57421875,-20.99609375
-41.015625,-21.484375,-38.57421875,-26.3671875
-57.6171875,-73.73046875,-40.0390625,-42.96875
-55.6640625,-95.703125,-52.24609375,-48.33984375
-42.48046875,-49.8046875,-47.8515625,-29.296875
-31.73828125,-26.3671875,-41.50390625,-21.484375
-23.4375,-41.50390625,-39.55078125,-23.92578125
-47.36328125,-70.80078125,-39.0625,-34.1796875
-59.5703125,-78.61328125,-38.57421875,-47.36328125
-47.36328125,-44.43359375,-38.0859375,-37.59765625
-31.73828125,-20.5078125,-38.57421875,-30.2734375
-36.62109375,-42.48046875,-36.62109375,-39.55078125
-49.31640625,-62.5,-37.109375,-46.38671875
-51.26953125,-60.546875,-38.57421875,-45.41015625
-52.734375,-61.03515625,-41.50390625,-42.96875
-30.2734375,-37.109375,-43.45703125,-38.57421875
-25.390625,-17.578125,-42.48046875,-39.55078125
-41.015625,-64.453125,-44.921875,-46.875
-37.59765625,-86.42578125,-49.31640625,-47.8515625
-52.24609375,-55.17578125,-47.36328125,-37.109375
-51.26953125,-10.7421875,-48.828125,-34.1796875
-35.15625,-13.18359375,-50.29296875,-50.29296875
-52.24609375,-66.40625,-48.828125,-57.12890625
-80.56640625,-80.078125,-51.26953125,-63.4765625
-85.44921875,-47.36328125,-52.24609375,-60.05859375
-72.75390625,0.48828125,-47.8515625,-47.8515625
-58.59375,-18.5546875,-44.921875,-45.41015625
-62.98828125,-73.73046875,-43.45703125,-54.19921875
-74.70703125,-82.03125,-46.875,-57.6171875
-73.73046875,-61.03515625,-49.31640625,-54.19921875
-61.03515625,-33.203125,-48.828125,-53.7109375
-46.38671875,-15.625,-50.78125,-55.6640625
-45.8984375,-56.640625,-47.36328125,-60.546875
-61.03515625,-81.54296875,-46.875,-65.91796875
-62.5,-60.05859375,-44.921875,-48.33984375
-54.19921875,-35.64453125,-45.8984375,-34.1796875
-37.109375,-21.484375,-45.41015625,-46.875
-20.5078125,-28.80859375,-41.9921875,-57.6171875
-45.41015625,-72.265625,-45.8984375,-54.19921875
-56.640625,-90.33203125,-46.875,-46.38671875
-30.2734375,-37.59765625,-50.78125,-42.96875
-14.16015625,-15.625,-50.29296875,-35.64453125
-18.5546875,-41.9921875,-48.828125,-43.9453125
-29.78515625,-66.40625,-49.8046875,-53.22265625
-42.48046875,-69.3359375,-43.45703125,-49.8046875
-38.57421875,-37.109375,-38.0859375,-43.9453125
-20.5078125,-20.5078125,-39.0625,-41.50390625
-21.97265625,-46.38671875,-36.62109375,-42.48046875
-36.62109375,-71.2890625,-36.62109375,-50.29296875
-53.7109375,-56.640625,-38.0859375,-46.875
-65.91796875,-48.828125,-41.015625,-38.0859375
-48.33984375,-37.59765625,-41.015625,-37.59765625
-32.71484375,-22.94921875,-35.64453125,-45.41015625
-42.96875,-71.77734375,-37.59765625,-47.8515625
-50.29296875,-83.0078125,-43.9453125,-52.734375
-53.22265625,-36.1328125,-50.29296875,-61.03515625
-47.8515625,-8.30078125,-45.8984375,-54.6875
-26.85546875,-23.92578125,-46.38671875,-50.29296875
-28.80859375,-53.7109375,-59.5703125,-67.3828125
-45.8984375,-65.4296875,-57.6171875,-70.3125
-48.828125,-48.828125,-53.7109375,-63.4765625
-34.66796875,-8.30078125,-55.6640625,-67.87109375
-27.34375,-23.92578125,-52.734375,-71.77734375
-44.43359375,-87.890625,-51.7578125,-72.75390625
-45.8984375,-80.078125,-51.26953125,-74.21875
-42.48046875,-53.22265625,-43.45703125,-56.15234375
-42.48046875,-31.73828125,-40.52734375,-41.50390625
-24.90234375,-22.4609375,-39.0625,-42.48046875
-20.5078125,-45.8984375,-35.64453125,-43.9453125
-35.64453125,-65.91796875,-36.62109375,-51.26953125
-48.828125,-62.01171875,-38.0859375,-39.0625
-37.59765625,-28.3203125,-33.203125,-26.85546875
-22.4609375,-12.6953125,-30.76171875,-26.3671875
-23.92578125,-27.83203125,-35.64453125,-23.92578125
-22.94921875,-76.66015625,-39.55078125,-16.11328125
-6.8359375,-76.66015625,-35.64453125,-2.9296875
5.37109375,-21.484375,-35.15625,-18.06640625
-11.23046875,-25.87890625,-40.52734375,-29.78515625
-19.53125,-51.7578125,-40.0390625,-18.5546875
2.9296875,-77.1484375,-35.64453125,-20.01953125
-18.5546875,-74.70703125,-40.0390625,-28.80859375
-26.3671875,-31.73828125,-39.55078125,-1.46484375
3.41796875,-15.13671875,-33.69140625,6.8359375
-21.484375,-53.22265625,-36.62109375,-45.41015625
-41.9921875,-75.68359375,-31.25,-54.6875
-51.26953125,-70.80078125,-32.71484375,-33.203125
-40.52734375,-52.24609375,-34.1796875,-31.73828125
-16.6015625,-41.015625,-30.76171875,-25.390625
-15.13671875,-60.05859375,-24.4140625,-19.04296875
-40.0390625,-90.8203125,-27.34375,-34.66796875
-50.29296875,-77.1484375,-28.3203125,-24.4140625
-29.296875,-36.1328125,-21.484375,-4.39453125
-9.27734375,-31.73828125,-25.390625,-14.6484375
-10.7421875,-41.9921875,-32.2265625,-23.4375
-16.11328125,-69.3359375,-32.2265625,-10.7421875
-44.921875,-77.1484375,-28.3203125,-15.13671875
-54.19921875,-40.0390625,-33.69140625,-40.52734375
-30.2734375,-7.32421875,-33.203125,-31.25
-25.87890625,-48.828125,-37.109375,-20.01953125
-39.0625,-84.9609375,-43.45703125,-44.921875
-52.24609375,-82.03125,-43.45703125,-58.10546875
-57.12890625,-56.15234375,-46.38671875,-45.41015625
-47.36328125,-19.04296875,-43.9453125,-32.71484375
-25.390625,-23.4375,-43.45703125,-24.4140625
-36.1328125,-63.96484375,-40.0390625,-36.1328125
-63.4765625,-71.77734375,-43.45703125,-51.7578125
-56.15234375,-31.73828125,-51.7578125,-44.921875
-56.640625,-27.83203125,-48.828125,-52.24609375
-29.78515625,-26.3671875,-41.50390625,-57.6171875
-25.87890625,-38.0859375,-34.66796875,-58.59375
-54.19921875,-69.3359375,-31.73828125,-36.62109375
-42.96875,-62.5,-28.80859375,-19.53125
-27.34375,-20.99609375,-35.15625,-33.69140625
-34.1796875,-21.484375,-39.55078125,-46.38671875
-32.2265625,-50.29296875,-40.0390625,-55.17578125
-36.62109375,-62.5,-43.9453125,-58.10546875
-50.78125,-52.734375,-37.109375,-50.78125
-33.69140625,-17.08984375,-34.66796875,-31.73828125
-30.2734375,-16.6015625,-44.921875,-38.57421875
-22.4609375,-33.69140625,-45.8984375,-51.26953125
-47.36328125,-56.640625,-40.52734375,-46.38671875
-70.3125,-40.52734375,-44.921875,-50.78125
-51.26953125,-15.13671875,-48.33984375,-51.26953125
-38.0859375,-44.43359375,-47.8515625,-58.10546875
-51.7578125,-62.98828125,-54.19921875,-62.98828125
-57.12890625,-60.05859375,-63.4765625,-68.84765625
-35.64453125,-52.734375,-63.4765625,-53.7109375
-3.41796875,-14.6484375,-47.36328125,-29.78515625
-1.953125,-10.25390625,-40.52734375,-44.921875
-33.203125,-40.0390625,-39.55078125,-54.6875
-41.50390625,-54.6875,-42.48046875,-53.22265625
-44.921875,-64.94140625,-43.9453125,-52.24609375
-59.08203125,-38.0859375,-43.45703125,-51.7578125
-47.36328125,-4.8828125,-42.96875,-59.5703125
-49.8046875,-40.0390625,-46.38671875,-79.58984375
-88.37890625,-76.66015625,-45.41015625,-81.54296875
-107.421875,-81.0546875,-42.48046875,-78.61328125
-94.7265625,-65.4296875,-45.8984375,-59.08203125
-65.4296875,-24.4140625,-40.52734375,-42.96875
-48.828125,-33.69140625,-41.015625,-55.17578125
-45.41015625,-59.5703125,-43.9453125,-48.828125
-55.6640625,-63.4765625,-41.015625,-51.26953125
-63.96484375,-41.015625,-38.0859375,-43.9453125
-55.17578125,-29.78515625,-43.45703125,-44.921875
-47.8515625,-26.85546875,-41.50390625,-46.38671875
-56.640625,-42.96875,-40.0390625,-43.9453125
-83.984375,-86.42578125,-51.7578125,-74.21875
-84.47265625,-72.265625,-49.8046875,-65.4296875
-47.8515625,-8.30078125,-45.8984375,-63.96484375
-26.85546875,-17.08984375,-49.8046875,-66.89453125
-40.52734375,-59.5703125,-51.26953125,-74.70703125
-55.6640625,-72.265625,-52.734375,-71.77734375
-59.08203125,-71.77734375,-49.31640625,-59.5703125
-65.91796875,-20.99609375,-48.828125,-71.77734375
-51.7578125,-23.4375,-49.8046875,-72.75390625
-64.94140625,-65.91796875,-45.8984375,-86.9140625
-73.73046875,-64.453125,-43.45703125,-71.2890625
-75.68359375,-60.05859375,-49.31640625,-62.5
-52.734375,-50.78125,-48.33984375,-61.5234375
-29.296875,-35.15625,-36.62109375,-41.9921875
-41.50390625,-54.19921875,-35.64453125,-45.41015625
-37.59765625,-83.0078125,-39.55078125,-32.71484375
-43.9453125,-80.078125,-38.57421875,-31.25
-36.1328125,-31.73828125,-35.15625,-48.33984375
-14.6484375,-16.11328125,-39.55078125,-49.31640625
-44.43359375,-58.59375,-43.45703125,-40.52734375
-51.7578125,-77.63671875,-38.0859375,-23.92578125
-55.17578125,-85.44921875,-37.109375,-20.99609375
-75.1953125,-45.8984375,-43.45703125,-31.25
-10.25390625,2.44140625,-43.9453125,-21.97265625
-17.08984375,-53.7109375,-47.36328125,-39.55078125
-39.55078125,-92.28515625,-42.96875,-58.10546875
-33.203125,-73.2421875,-41.9921875,-59.08203125
-79.58984375,-50.78125,-60.05859375,-81.0546875
-78.61328125,-28.3203125,-67.87109375,-100.5859375
-44.43359375,-34.66796875,-50.78125,-92.7734375
-20.01953125,-66.89453125,-59.5703125,-100.5859375
5.37109375,-70.3125,-67.3828125,-74.21875
-49.8046875,-42.48046875,-68.84765625,-82.03125
-49.31640625,-25.87890625,-60.546875,-86.9140625
-55.17578125,-37.59765625,-50.78125,-58.59375
-57.6171875,-57.12890625,-58.10546875,-92.7734375
-13.18359375,-70.80078125,-63.96484375,-86.42578125
-46.38671875,-70.80078125,-88.37890625,-65.91796875
-22.4609375,-38.0859375,-68.359375,-66.40625
-18.5546875,-40.52734375,-48.828125,-44.43359375
-35.15625,-72.265625,-57.6171875,-48.33984375
-48.33984375,-78.125,-61.03515625,-111.328125
-111.81640625,-79.1015625,-72.265625,-118.65234375
-64.94140625,-30.2734375,-51.7578125,-75.68359375
-21.484375,-35.64453125,-44.921875,-73.73046875
-40.52734375,-80.078125,-62.98828125,-90.8203125
-32.71484375,-85.9375,-54.6875,-75.68359375
-51.26953125,-51.7578125,-51.7578125,-63.96484375
-23.92578125,-35.15625,-61.03515625,-83.49609375
-3.90625,-34.1796875,-52.734375,-84.47265625
8.30078125,-45.41015625,-46.875,-56.15234375
-22.94921875,-90.33203125,-55.17578125,-55.6640625
-77.1484375,-70.80078125,-49.8046875,-67.87109375
-63.4765625,-41.50390625,-54.6875,-89.35546875
-23.92578125,-31.25,-60.05859375,-91.796875
-18.06640625,-57.6171875,-59.5703125,-100.5859375
-30.2734375,-79.1015625,-64.453125,-121.09375
-89.35546875,-83.49609375,-62.98828125,-90.33203125
-105.95703125,-38.0859375,-64.453125,-93.26171875
-38.57421875,-4.39453125,-64.94140625,-104.4921875
-0.9765625,-62.98828125,-63.4765625,-102.05078125
-69.82421875,-108.3984375,-62.01171875,-153.3203125
-96.19140625,-73.73046875,-60.05859375,-148.4375
-39.0625,-21.484375,-56.640625,-124.0234375
-66.89453125,-33.69140625,-52.734375,-111.328125
-47.36328125,-50.78125,-51.26953125,-75.68359375
-29.78515625,-73.2421875,-58.59375,-101.07421875
-66.89453125,-76.66015625,-66.40625,-140.625
-83.49609375,-45.8984375,-69.3359375,-120.60546875
-1.46484375,-34.66796875,-58.10546875,-75.68359375
-23.4375,-52.734375,-58.10546875,-118.65234375
-111.81640625,-61.03515625,-72.265625,-131.34765625
-72.75390625,-81.54296875,-64.453125,-110.83984375
-62.98828125,-61.03515625,-72.265625,-138.18359375
-74.70703125,3.41796875,-64.94140625,-115.234375
-38.0859375,-8.30078125,-43.45703125,-91.30859375
-26.85546875,-78.125,-54.6875,-111.328125
-45.8984375,-91.796875,-56.15234375,-122.55859375
-49.31640625,-57.6171875,-57.12890625,-112.3046875
-49.8046875,1.953125,-61.5234375,-104.00390625
-1.953125,-17.578125,-58.10546875,-86.42578125
-34.66796875,-100.09765625,-66.40625,-120.60546875
-85.44921875,-80.078125,-60.546875,-130.37109375
-7.8125,-28.3203125,-41.50390625,-80.078125
-10.7421875,-41.50390625,-47.36328125,-92.28515625
-33.203125,-50.29296875,-46.38671875,-79.1015625
-45.41015625,-75.1953125,-61.5234375,-109.375
-86.9140625,-90.33203125,-58.59375,-127.9296875
-64.94140625,-32.71484375,-42.48046875,-60.05859375
-87.40234375,72.75390625,-67.3828125,-70.80078125
-44.921875,-11.71875,-62.98828125,-58.10546875
26.85546875,-131.34765625,-45.8984375,-42.96875
50.29296875,-85.44921875,-38.57421875,-15.13671875
13.671875,-80.078125,-36.1328125,-15.13671875
-29.296875,-42.48046875,-42.96875,-21.97265625
2.9296875,-1.46484375,-48.828125,-21.484375
41.015625,-73.2421875,-59.5703125,-26.3671875
-29.296875,-124.51171875,-67.87109375,-43.9453125
-107.421875,-97.65625,-64.94140625,-79.58984375
12.20703125,-39.0625,-50.78125,5.859375
62.5,-16.6015625,-47.36328125,40.0390625
4.8828125,-57.6171875,-42.48046875,-15.13671875
-40.0390625,-59.08203125,-51.7578125,-49.31640625
-23.92578125,-37.109375,-52.734375,-16.6015625
18.06640625,-34.66796875,-45.41015625,24.4140625
-26.85546875,-22.94921875,-62.98828125,-24.4140625
7.32421875,-43.9453125,-49.8046875,-22.94921875
35.15625,-62.98828125,-37.59765625,0.0
-24.90234375,-50.29296875,-48.33984375,-11.23046875
-4.39453125,-4.39453125,-55.17578125,-10.7421875
60.05859375,-24.90234375,-52.734375,-13.18359375
-42.96875,-30.2734375,-62.5,-8.30078125
-119.140625,-96.6796875,-83.49609375,-58.10546875
15.13671875,-143.06640625,-58.10546875,4.39453125
94.23828125,-46.875,-37.59765625,97.16796875
120.60546875,-55.17578125,-39.0625,85.9375
76.171875,-55.17578125,-29.296875,96.19140625
19.53125,-72.265625,-39.0625,57.12890625
-18.06640625,-84.9609375,-51.26953125,33.69140625
17.08984375,-18.06640625,-45.8984375,43.9453125
16.11328125,-6.8359375,-49.31640625,23.4375
-21.97265625,-68.84765625,-50.78125,39.0625
17.578125,-88.37890625,-48.33984375,58.59375
65.91796875,-99.609375,-45.41015625,53.7109375
-46.875,-58.10546875,-33.69140625,62.5
-74.21875,19.53125,-45.8984375,26.3671875
-115.234375,-62.98828125,-25.87890625,-4.39453125
-392.08984375,-93.26171875,-27.34375,-111.328125
-344.7265625,17.08984375,-55.17578125,-174.31640625
-114.2578125,19.53125,-35.64453125,-52.734375
30.76171875,-70.3125,-32.71484375,158.203125
271.97265625,-116.2109375,-35.15625,274.4140625
385.7421875,-145.01953125,-48.33984375,212.890625
251.953125,-128.41796875,-59.5703125,168.45703125
153.80859375,-84.9609375,-64.94140625,140.13671875
131.8359375,-33.69140625,-61.5234375,135.7421875
60.546875,-22.4609375,-51.7578125,108.3984375
9.765625,-74.21875,-46.38671875,118.65234375
57.6171875,-82.51953125,-46.38671875,125.0
90.33203125,-33.69140625,-43.9453125,114.74609375
-45.41015625,-2.9296875,-34.66796875,104.00390625
-81.0546875,-8.7890625,-40.52734375,73.73046875
-39.55078125,-34.1796875,-31.25,84.47265625
-81.0546875,-52.734375,-40.52734375,78.125
-126.953125,-9.765625,-54.19921875,73.2421875
-112.79296875,3.41796875,-28.80859375,97.16796875
62.01171875,-41.9921875,-21.97265625,140.13671875
142.578125,-27.83203125,-41.015625,92.7734375
105.95703125,-48.828125,-56.15234375,95.21484375
77.63671875,-92.28515625,-33.203125,150.87890625
132.32421875,-65.91796875,-34.1796875,186.03515625
163.57421875,-30.76171875,-40.52734375,212.40234375
113.76953125,-42.48046875,-45.41015625,183.59375
139.16015625,-71.77734375,-47.8515625,154.78515625
31.73828125,-70.80078125,-20.5078125,121.58203125
-76.171875,7.8125,-11.71875,96.6796875
5.37109375,3.41796875,-31.25,122.55859375
52.734375,-57.6171875,-33.69140625,142.08984375
6.34765625,-69.3359375,-56.15234375,148.92578125
-89.35546875,-47.36328125,-49.8046875,60.05859375
-164.55078125,-31.73828125,-23.4375,35.64453125
-48.828125,-16.6015625,-40.0390625,100.09765625
62.01171875,21.97265625,-63.96484375,127.9296875
-13.671875,-93.75,-40.0390625,84.9609375
11.23046875,-86.9140625,-41.015625,35.64453125
-156.25,0.9765625,-47.36328125,44.43359375
-245.1171875,31.25,-71.2890625,30.76171875
16.6015625,-24.90234375,-38.57421875,91.796875
142.08984375,-115.234375,-29.296875,162.109375
131.34765625,-80.56640625,-67.87109375,151.3671875
101.5625,-45.8984375,-32.2265625,121.09375
-5.37109375,-22.94921875,-10.7421875,62.01171875
-101.5625,-5.859375,-44.921875,14.16015625
-22.4609375,-25.390625,-68.84765625,73.2421875
-99.12109375,-64.453125,-55.17578125,32.71484375
-2.44140625,-67.3828125,-33.203125,0.48828125
48.828125,-7.8125,-45.41015625,5.859375
9.765625,-14.16015625,-52.734375,39.55078125
119.140625,-69.3359375,-51.7578125,54.19921875
-9.765625,-66.40625,-30.76171875,-39.55078125
-140.13671875,3.90625,-51.7578125,-103.02734375
-125.0,-7.8125,-60.05859375,-107.91015625
16.11328125,-82.03125,-19.53125,-132.8125
137.6953125,-48.828125,-53.22265625,-66.89453125
51.7578125,-48.828125,-63.96484375,-23.92578125
40.0390625,-35.15625,-54.19921875,-75.68359375
-3.90625,0.9765625,-55.17578125,-109.375
-144.04296875,57.12890625,-52.24609375,-175.78125
-9.27734375,-0.48828125,-48.828125,-158.203125
52.734375,-91.30859375,-44.43359375,-119.62890625
1.46484375,-78.61328125,-36.1328125,-121.58203125
-26.85546875,1.953125,-40.0390625,-144.53125
-37.59765625,13.18359375,-48.828125,-155.76171875
-61.03515625,-56.640625,-45.41015625,-162.109375
-131.34765625,-49.31640625,-55.17578125,-175.29296875
-147.4609375,-31.73828125,-54.6875,-191.89453125
-72.75390625,-24.4140625,-43.9453125,-168.9453125
-75.1953125,-0.9765625,-38.0859375,-156.25
-101.07421875,3.90625,-42.48046875,-170.41015625
-104.00390625,-37.109375,-44.43359375,-179.19921875
-133.30078125,-61.03515625,-46.875,-175.29296875
-169.43359375,-4.39453125,-55.6640625,-187.01171875
-190.91796875,27.83203125,-53.7109375,-202.1484375
-123.53515625,0.0,-40.52734375,-165.0390625
-131.8359375,-60.05859375,-42.96875,-172.8515625
-169.43359375,-66.40625,-48.828125,-194.82421875
-173.33984375,-11.71875,-45.8984375,-182.6171875
-167.96875,12.6953125,-40.52734375,-185.546875
-192.87109375,15.13671875,-49.31640625,-222.65625
-203.125,-25.390625,-54.19921875,-242.1875
-216.30859375,-49.31640625,-45.41015625,-217.28515625
-215.8203125,-4.39453125,-43.45703125,-190.91796875
-188.4765625,38.0859375,-41.50390625,-182.12890625
-179.19921875,17.578125,-35.15625,-160.64453125
-188.4765625,-37.109375,-34.1796875,-149.90234375
-196.2890625,-22.94921875,-37.109375,-168.9453125
-220.21484375,-3.41796875,-41.9921875,-177.24609375
-246.58203125,-16.11328125,-36.1328125,-187.01171875
-193.359375,-1.46484375,-38.57421875,-184.5703125
-127.44140625,-35.15625,-45.41015625,-140.625
-135.25390625,-61.5234375,-40.52734375,-127.9296875
-136.71875,-33.69140625,-49.8046875,-126.953125
-130.37109375,10.7421875,-49.8046875,-127.9296875
-133.7890625,3.41796875,-46.875,-122.0703125
-112.79296875,-45.41015625,-47.8515625,-111.81640625
-121.58203125,-76.66015625,-40.0390625,-98.6328125
-119.62890625,-50.78125,-38.57421875,-79.1015625
-92.28515625,9.765625,-48.828125,-94.7265625
-67.3828125,-18.5546875,-50.78125,-53.7109375
-64.94140625,-49.8046875,-41.50390625,-30.2734375
-92.28515625,-68.359375,-49.31640625,-65.4296875
-111.328125,-111.328125,-42.96875,-65.4296875
-114.2578125,-60.05859375,-36.1328125,-56.15234375
-67.3828125,-25.390625,-43.9453125,-38.57421875
-41.50390625,-64.94140625,-45.8984375,-38.57421875
-67.87109375,-96.19140625,-49.31640625,-39.55078125
-82.51953125,-96.19140625,-43.9453125,-33.203125
-57.6171875,-44.43359375,-47.8515625,-23.4375
-25.390625,-17.578125,-51.7578125,-11.71875
-27.34375,-44.921875,-45.41015625,-24.4140625
-44.43359375,-107.91015625,-44.43359375,-22.4609375
-54.19921875,-109.375,-45.8984375,-17.08984375
-46.38671875,-48.33984375,-51.26953125,-22.94921875
-26.85546875,-29.78515625,-48.828125,-11.23046875
-30.76171875,-45.41015625,-41.50390625,-13.18359375
-33.69140625,-78.61328125,-36.1328125,-25.390625
-31.25,-87.890625,-41.9921875,-37.59765625
-27.83203125,-50.29296875,-51.26953125,-28.3203125
6.34765625,-15.625,-42.48046875,7.8125
10.7421875,-38.0859375,-41.50390625,0.9765625
-5.37109375,-67.3828125,-40.0390625,-22.4609375
-25.87890625,-59.08203125,-40.0390625,-28.80859375
-32.71484375,-53.22265625,-46.38671875,-16.6015625
-29.296875,-30.2734375,-47.36328125,-24.4140625
-24.90234375,-38.57421875,-49.31640625,-23.92578125
-21.97265625,-66.40625,-57.12890625,-30.76171875
-37.59765625,-76.66015625,-60.546875,-56.640625
-49.8046875,-54.6875,-51.26953125,-26.85546875
-39.55078125,-19.53125,-50.29296875,-19.53125
-25.87890625,-3.41796875,-52.734375,-40.0390625
-34.66796875,-46.38671875,-56.640625,-46.38671875
-55.17578125,-100.09765625,-63.96484375,-66.40625
-51.26953125,-53.22265625,-59.08203125,-62.5
-27.83203125,-3.41796875,-46.38671875,-34.1796875
-19.04296875,-40.52734375,-47.8515625,-55.17578125
-21.484375,-81.54296875,-61.03515625,-65.91796875
-27.83203125,-90.8203125,-56.640625,-39.0625
-42.96875,-62.98828125,-44.921875,-35.64453125
-31.25,-9.765625,-47.36328125,-40.52734375
-17.08984375,-10.7421875,-51.7578125,-54.6875
-59.5703125,-49.8046875,-52.24609375,-91.796875
-95.21484375,-82.51953125,-49.31640625,-84.47265625
-101.5625,-78.61328125,-45.8984375,-74.21875
-60.546875,-43.9453125,-50.29296875,-75.68359375
-2.9296875,-10.7421875,-45.8984375,-25.87890625
-5.37109375,-28.80859375,-46.38671875,-30.2734375
-17.578125,-59.5703125,-56.640625,-50.29296875
-49.31640625,-72.265625,-50.29296875,-65.4296875
-81.54296875,-41.9921875,-34.66796875,-73.2421875
-62.98828125,-13.671875,-42.96875,-55.17578125
-16.6015625,-29.296875,-52.734375,-65.4296875
-34.66796875,-68.84765625,-53.7109375,-82.51953125
-65.4296875,-71.77734375,-51.7578125,-61.03515625
-43.45703125,-11.23046875,-47.36328125,-33.69140625
-19.53125,11.23046875,-47.8515625,-30.2734375
-35.15625,-30.2734375,-41.50390625,-44.921875
-57.12890625,-65.4296875,-44.921875,-66.89453125
-59.5703125,-42.48046875,-45.8984375,-62.01171875
-56.640625,-37.109375,-40.0390625,-65.4296875
-32.2265625,-3.41796875,-42.48046875,-64.94140625
-18.5546875,7.8125,-36.62109375,-33.69140625
-47.8515625,-66.40625,-39.55078125,-59.08203125
-58.59375,-63.4765625,-42.48046875,-55.17578125
-51.7578125,-20.01953125,-44.43359375,-23.4375
-58.10546875,-8.30078125,-46.38671875,-45.8984375
-53.22265625,-17.578125,-39.55078125,-48.828125
-41.50390625,-33.69140625,-49.31640625,-41.50390625
-61.5234375,-55.17578125,-55.6640625,-63.4765625
-62.5,-39.0625,-54.19921875,-68.359375
-42.48046875,9.765625,-54.19921875,-69.3359375
-30.2734375,-1.953125,-57.12890625,-76.171875
-36.62109375,-71.77734375,-53.7109375,-67.3828125
-49.31640625,-71.77734375,-48.828125,-65.91796875
-46.875,-37.109375,-52.734375,-64.94140625
-33.203125,9.27734375,-53.7109375,-68.84765625
-39.0625,1.46484375,-50.29296875,-72.265625
-49.8046875,-53.22265625,-49.8046875,-68.84765625
-63.96484375,-52.734375,-51.7578125,-62.98828125
-73.73046875,-37.59765625,-49.8046875,-51.7578125
-50.78125,-4.8828125,-43.9453125,-56.640625
-30.76171875,7.8125,-41.015625,-60.546875
-41.9921875,-25.390625,-40.0390625,-58.10546875
-57.12890625,-71.2890625,-46.38671875,-56.15234375
-54.6875,-63.4765625,-51.7578125,-46.875
-53.7109375,-13.18359375,-44.921875,-44.921875
-47.36328125,2.9296875,-45.41015625,-45.8984375
-48.828125,-47.8515625,-46.875,-62.01171875
-65.4296875,-84.47265625,-45.8984375,-71.77734375
-71.2890625,-63.4765625,-47.36328125,-54.19921875
-59.08203125,-5.37109375,-47.8515625,-33.203125
-39.55078125,13.18359375,-49.8046875,-35.64453125
-32.2265625,-36.1328125,-45.41015625,-44.921875
-32.71484375,-57.6171875,-41.015625,-52.734375
-37.109375,-43.45703125,-39.55078125,-43.9453125
-29.78515625,-20.5078125,-40.52734375,-32.71484375
-12.6953125,-14.6484375,-43.9453125,-31.25
-17.578125,-34.1796875,-45.41015625,-36.62109375
-26.85546875,-57.6171875,-47.8515625,-53.7109375
-30.2734375,-63.96484375,-50.29296875,-60.546875
-34.66796875,-29.296875,-52.24609375,-57.6171875
-41.9921875,-3.41796875,-52.734375,-52.24609375
-42.96875,-28.80859375,-52.734375,-57.6171875
-43.45703125,-64.453125,-47.8515625,-61.5234375
-53.7109375,-73.2421875,-44.43359375,-60.05859375
-45.41015625,-38.57421875,-46.38671875,-54.6875
-38.0859375,-2.44140625,-49.8046875,-46.875
-43.9453125,-25.390625,-51.7578125,-49.8046875
-61.5234375,-88.37890625,-44.43359375,-61.5234375
-85.9375,-90.8203125,-40.0390625,-72.75390625
-80.56640625,-47.8515625,-37.109375,-61.5234375
-60.05859375,-35.15625,-36.62109375,-54.6875
-59.08203125,-44.921875,-41.9921875,-61.5234375
-74.70703125,-60.546875,-45.41015625,-69.3359375
-90.33203125,-84.47265625,-49.8046875,-73.73046875
-89.84375,-64.94140625,-48.828125,-62.01171875
-64.453125,-16.11328125,-45.41015625,-57.12890625
-46.875,-15.625,-44.43359375,-66.89453125
-60.546875,-47.8515625,-46.875,-72.265625
-67.87109375,-92.28515625,-51.26953125,-75.68359375
-62.5,-76.66015625,-51.7578125,-73.73046875
-52.24609375,-27.83203125,-47.8515625,-66.40625
-37.59765625,-37.59765625,-42.48046875,-64.453125
-37.59765625,-65.4296875,-40.52734375,-72.75390625
-63.4765625,-80.078125,-42.96875,-78.125
-83.0078125,-67.87109375,-49.31640625,-70.80078125
-73.2421875,-23.4375,-46.875,-60.05859375
-65.91796875,-35.15625,-41.015625,-63.96484375
-70.3125,-64.94140625,-41.9921875,-73.73046875
-83.984375,-71.77734375,-41.50390625,-79.58984375
-95.21484375,-63.4765625,-46.875,-80.56640625
-82.03125,-37.59765625,-50.78125,-74.21875
-60.05859375,-31.73828125,-48.828125,-67.87109375
-65.4296875,-53.22265625,-46.875,-62.98828125
-84.47265625,-83.49609375,-47.8515625,-67.3828125
-93.75,-76.66015625,-49.31640625,-72.75390625
-92.7734375,-43.45703125,-49.8046875,-69.3359375
-78.61328125,-37.109375,-44.43359375,-66.89453125
-69.3359375,-43.9453125,-37.59765625,-74.21875
-70.80078125,-66.89453125,-41.50390625,-82.51953125
-79.58984375,-80.56640625,-45.41015625,-70.80078125
-71.2890625,-25.87890625,-45.41015625,-59.5703125
-45.41015625,16.6015625,-43.45703125,-58.10546875
-48.33984375,-44.43359375,-45.8984375,-59.5703125
-64.94140625,-73.73046875,-47.8515625,-67.3828125
-66.89453125,-62.98828125,-44.921875,-72.75390625
-65.4296875,-52.734375,-43.9453125,-61.03515625
-63.4765625,-28.3203125,-41.015625,-52.24609375
-64.453125,-26.3671875,-38.0859375,-62.98828125
-75.1953125,-63.4765625,-39.0625,-69.3359375
-74.70703125,-78.125,-44.921875,-74.70703125
-68.359375,-34.66796875,-45.8984375,-71.2890625
-64.94140625,-21.97265625,-40.52734375,-62.98828125
-65.4296875,-38.57421875,-46.38671875,-72.75390625
-72.265625,-47.36328125,-53.22265625,-84.9609375
-87.890625,-68.359375,-49.8046875,-81.0546875
-91.30859375,-72.75390625,-46.38671875,-65.4296875
-65.4296875,-28.80859375,-43.9453125,-53.22265625
-66.89453125,-28.80859375,-44.921875,-64.94140625
-93.75,-69.82421875,-43.45703125,-77.63671875
-109.375,-85.44921875,-45.8984375,-69.3359375
-112.3046875,-66.40625,-48.828125,-61.5234375
-90.8203125,-39.55078125,-44.921875,-53.7109375
-77.63671875,-29.78515625,-47.36328125,-49.8046875
-95.21484375,-53.22265625,-52.734375,-75.1953125
-84.9609375,-84.47265625,-48.33984375,-82.03125
-75.68359375,-51.7578125,-48.33984375,-77.1484375
-76.171875,-10.25390625,-52.734375,-56.640625
-50.78125,-39.0625,-43.9453125,-38.57421875
-44.43359375,-64.453125,-44.43359375,-61.5234375
-94.7265625,-62.5,-46.875,-84.9609375
-87.890625,-55.17578125,-47.8515625,-80.078125
-61.03515625,-26.3671875,-45.8984375,-54.19921875
-73.73046875,-22.94921875,-39.55078125,-51.7578125
-59.5703125,-54.6875,-43.45703125,-68.84765625
-83.984375,-64.94140625,-48.33984375,-93.75
-122.0703125,-57.12890625,-53.22265625,-84.9609375
-118.65234375,-6.34765625,-50.78125,-77.63671875
-81.54296875,29.78515625,-40.52734375,-98.6328125
-119.62890625,-41.015625,-39.0625,-129.8828125
-150.390625,-71.77734375,-32.71484375,-147.94921875
-149.90234375,-34.1796875,-38.0859375,-166.50390625
-177.734375,-19.04296875,-45.41015625,-147.4609375
-177.24609375,-8.7890625,-36.1328125,-137.6953125
-154.78515625,-32.2265625,-33.69140625,-162.59765625
-147.4609375,-46.38671875,-40.52734375,-173.828125
-199.21875,-39.55078125,-42.96875,-184.08203125
-197.75390625,-11.23046875,-31.25,-159.66796875
-141.11328125,22.4609375,-20.99609375,-154.296875
-158.203125,-4.39453125,-20.99609375,-172.36328125
-178.22265625,-24.4140625,-20.01953125,-172.8515625
-185.546875,-56.640625,-22.4609375,-155.76171875
-197.75390625,-40.52734375,-29.78515625,-169.921875
-169.43359375,23.92578125,-24.4140625,-180.6640625
-156.73828125,15.625,-20.5078125,-164.0625
-173.33984375,-34.66796875,-23.4375,-164.55078125
-178.22265625,-52.24609375,-27.34375,-177.734375
-166.9921875,-26.3671875,-23.92578125,-160.64453125
-160.64453125,1.46484375,-19.53125,-162.109375
-146.97265625,4.8828125,-25.87890625,-164.0625
-125.48828125,-44.921875,-25.390625,-132.8125
-139.6484375,-71.2890625,-23.92578125,-145.01953125
-141.6015625,-20.99609375,-26.3671875,-138.18359375
-116.2109375,-6.34765625,-26.3671875,-109.86328125
-96.6796875,-23.92578125,-28.3203125,-101.07421875
-92.28515625,-32.2265625,-34.1796875,-109.375
-109.86328125,-46.875,-34.66796875,-106.4453125
-120.60546875,-41.9921875,-38.57421875,-103.515625
-97.65625,-1.46484375,-35.15625,-87.40234375
-81.54296875,6.8359375,-41.015625,-83.49609375
-92.28515625,-37.109375,-45.8984375,-96.19140625
-109.86328125,-64.94140625,-44.43359375,-80.078125
-102.5390625,-66.40625,-51.26953125,-69.3359375
-86.9140625,-18.5546875,-42.48046875,-62.98828125
-67.3828125,9.765625,-37.109375,-48.33984375
-78.125,-63.4765625,-43.45703125,-57.12890625
-85.9375,-83.984375,-47.36328125,-54.19921875
-85.44921875,-66.40625,-48.33984375,-47.8515625
-86.9140625,-31.73828125,-48.33984375,-51.7578125
-57.12890625,-4.39453125,-48.828125,-47.8515625
-35.64453125,-40.0390625,-49.8046875,-33.69140625
-46.38671875,-83.49609375,-52.734375,-44.921875
-55.17578125,-72.75390625,-55.17578125,-41.9921875
-37.109375,-21.97265625,-53.22265625,-33.203125
-11.23046875,-27.34375,-54.6875,-51.26953125
-18.06640625,-45.8984375,-55.6640625,-51.7578125
-25.390625,-55.6640625,-51.26953125,-49.8046875
-36.62109375,-79.1015625,-50.78125,-41.9921875
-41.015625,-71.2890625,-51.7578125,-26.3671875
-18.06640625,-40.52734375,-46.875,-18.06640625
-10.7421875,-47.36328125,-47.8515625,-8.7890625
-23.92578125,-82.03125,-44.43359375,-6.34765625
-43.9453125,-101.07421875,-49.8046875,-22.4609375
-40.52734375,-69.3359375,-58.59375,-11.23046875
-12.20703125,-38.57421875,-55.6640625,13.18359375
-25.390625,-51.7578125,-52.734375,-0.9765625
-36.62109375,-89.35546875,-51.26953125,-27.34375
-41.50390625,-87.40234375,-44.921875,-20.99609375
-39.0625,-42.48046875,-41.9921875,6.34765625
-12.6953125,-46.875,-43.45703125,8.7890625
-14.16015625,-56.15234375,-44.921875,-14.6484375
-34.66796875,-79.1015625,-52.24609375,-13.671875
-41.015625,-104.4921875,-56.15234375,-2.9296875
-29.78515625,-69.3359375,-58.10546875,-9.27734375
-9.765625,-28.3203125,-53.7109375,-0.9765625
7.32421875,-33.69140625,-50.78125,-7.32421875
-1.46484375,-79.1015625,-44.43359375,-12.20703125
-9.765625,-89.84375,-44.921875,-19.04296875
-23.4375,-56.15234375,-57.12890625,-12.20703125
-12.6953125,-20.99609375,-53.7109375,1.46484375
13.671875,-12.20703125,-46.875,5.859375
-8.30078125,-70.3125,-45.41015625,3.90625
-12.6953125,-101.07421875,-57.6171875,-3.41796875
-12.20703125,-71.2890625,-56.15234375,5.37109375
-23.92578125,-33.203125,-45.8984375,12.6953125
-3.41796875,-19.04296875,-48.33984375,17.578125
-9.765625,-52.734375,-43.9453125,-1.46484375
-14.6484375,-93.26171875,-49.8046875,-6.8359375
-21.97265625,-71.2890625,-59.5703125,-10.7421875
-34.66796875,-30.2734375,-53.7109375,-5.37109375
-10.7421875,-19.04296875,-54.19921875,11.23046875
-5.37109375,-38.0859375,-57.12890625,-18.5546875
-24.4140625,-56.15234375,-55.17578125,-21.97265625
-38.57421875,-67.87109375,-53.22265625,-4.39453125
-30.2734375,-40.52734375,-52.24609375,-1.46484375
-10.25390625,-8.30078125,-49.31640625,6.8359375
-6.8359375,-36.62109375,-45.8984375,0.48828125
2.9296875,-82.03125,-46.38671875,-12.6953125
-18.5546875,-87.890625,-54.19921875,-27.34375
-32.2265625,-39.55078125,-50.29296875,-29.78515625
-6.8359375,-5.859375,-34.66796875,-12.20703125
4.39453125,-17.08984375,-40.52734375,-1.46484375
-14.6484375,-81.54296875,-52.24609375,-19.04296875
-31.73828125,-85.9375,-57.6171875,-24.4140625
-27.83203125,-7.32421875,-52.24609375,-11.23046875
-15.13671875,-13.671875,-43.9453125,-8.30078125
-9.27734375,-51.26953125,-49.8046875,-11.71875
-11.71875,-67.87109375,-48.33984375,-19.53125
-27.34375,-81.0546875,-49.8046875,-25.87890625
-37.59765625,-48.33984375,-48.33984375,-14.16015625
-21.97265625,-9.27734375,-44.43359375,-5.859375
-16.11328125,-30.76171875,-45.41015625,-23.92578125
-43.45703125,-82.51953125,-47.8515625,-30.2734375
-58.10546875,-82.51953125,-52.24609375,-21.484375
-54.6875,-54.6875,-53.7109375,-17.578125
-41.50390625,-18.5546875,-56.15234375,-19.04296875
-18.06640625,-1.46484375,-53.7109375,-24.4140625
-30.2734375,-56.640625,-52.734375,-26.3671875
-56.640625,-105.95703125,-51.26953125,-38.57421875
-53.7109375,-66.89453125,-48.33984375,-30.76171875
-30.76171875,-19.53125,-49.8046875,-13.671875
-16.11328125,-22.4609375,-47.36328125,-7.32421875
-17.578125,-56.15234375,-49.31640625,-25.87890625
-27.83203125,-74.70703125,-48.828125,-30.76171875
-32.2265625,-52.734375,-48.33984375,-20.99609375
-23.92578125,-19.53125,-47.8515625,-24.4140625
-22.4609375,-11.71875,-47.36328125,-27.34375
-31.25,-48.33984375,-50.29296875,-39.55078125
-40.52734375,-61.5234375,-46.38671875,-42.48046875
-50.29296875,-63.96484375,-47.8515625,-41.9921875
-43.45703125,-31.25,-51.7578125,-40.0390625
-42.48046875,-0.48828125,-51.7578125,-41.015625
-50.78125,-54.6875,-54.19921875,-49.8046875
-54.19921875,-87.40234375,-58.59375,-52.734375
-60.05859375,-67.87109375,-54.6875,-46.875
-50.29296875,-24.4140625,-53.7109375,-43.45703125
-36.1328125,-10.7421875,-56.15234375,-39.55078125
-43.45703125,-35.15625,-56.640625,-43.9453125
-60.546875,-73.73046875,-53.7109375,-55.17578125
-64.453125,-75.1953125,-49.8046875,-49.31640625
-56.15234375,-27.83203125,-53.22265625,-38.57421875
-48.828125,-34.66796875,-52.24609375,-43.9453125
-45.41015625,-68.359375,-51.7578125,-51.26953125
-52.734375,-85.9375,-51.7578125,-56.15234375
-67.3828125,-91.30859375,-56.640625,-56.640625
-63.4765625,-44.921875,-56.15234375,-43.45703125
-40.0390625,-13.18359375,-50.78125,-30.76171875
-30.76171875,-44.43359375,-48.33984375,-35.64453125
-44.43359375,-64.94140625,-46.875,-48.33984375
-60.546875,-80.56640625,-46.875,-53.22265625
-64.453125,-44.43359375,-52.734375,-46.38671875
-48.33984375,-4.8828125,-53.7109375,-40.52734375
-38.57421875,-18.5546875,-51.7578125,-44.43359375
-44.43359375,-77.63671875,-53.22265625,-58.10546875
-62.01171875,-86.42578125,-53.7109375,-68.359375
-70.80078125,-44.43359375,-52.24609375,-62.01171875
-49.31640625,-17.578125,-46.875,-56.15234375
-35.64453125,-16.11328125,-41.015625,-60.546875
-47.36328125,-54.6875,-42.96875,-71.2890625
-64.453125,-86.42578125,-50.29296875,-84.47265625
-62.98828125,-59.08203125,-52.24609375,-76.66015625
-44.43359375,-14.16015625,-50.29296875,-63.4765625
-43.9453125,-34.66796875,-54.6875,-63.96484375
-62.98828125,-66.40625,-56.640625,-72.75390625
-79.1015625,-60.546875,-56.15234375,-86.9140625
-77.63671875,-68.84765625,-58.10546875,-92.7734375
-59.5703125,-49.31640625,-54.19921875,-67.3828125
-46.38671875,-26.85546875,-42.96875,-44.921875
-46.38671875,-62.01171875,-41.50390625,-62.01171875
-47.8515625,-84.9609375,-55.6640625,-77.1484375
-56.15234375,-57.6171875,-52.734375,-41.9921875
-45.41015625,-22.4609375,-40.0390625,-18.06640625
-22.94921875,-18.06640625,-46.875,-32.2265625
-28.3203125,-55.17578125,-50.78125,-53.22265625
-37.59765625,-87.890625,-51.7578125,-42.96875
-40.0390625,-72.75390625,-52.24609375,-24.90234375
-36.1328125,-10.25390625,-50.29296875,-32.2265625
-26.3671875,-6.34765625,-52.734375,-30.2734375
-31.25,-75.68359375,-47.36328125,-32.2265625
-47.36328125,-95.703125,-47.36328125,-46.875
-51.26953125,-75.68359375,-52.24609375,-33.69140625
-41.50390625,-37.109375,-52.734375,-27.34375
-35.15625,-15.625,-49.8046875,-23.92578125
-37.59765625,-41.50390625,-47.8515625,-27.34375
-48.828125,-86.42578125,-41.9921875,-38.57421875
-58.59375,-88.8671875,-37.59765625,-31.25
-47.36328125,-37.109375,-45.41015625,-22.94921875
-21.484375,-12.6953125,-43.9453125,-29.78515625
-18.06640625,-19.04296875,-37.59765625,-37.109375
-39.55078125,-69.82421875,-40.0390625,-40.0390625
-44.921875,-79.1015625,-45.41015625,-41.015625
-36.62109375,-37.109375,-49.31640625,-37.59765625
-31.25,-38.0859375,-46.875,-25.390625
-25.87890625,-34.66796875,-46.875,-30.2734375
-42.96875,-66.40625,-43.9453125,-42.96875
-59.5703125,-82.51953125,-47.36328125,-38.57421875
-46.875,-40.52734375,-50.29296875,-31.25
-32.71484375,-11.23046875,-50.29296875,-19.53125
-39.55078125,-26.85546875,-53.22265625,-20.5078125
-53.7109375,-57.12890625,-51.26953125,-37.59765625
-52.734375,-52.734375,-56.640625,-49.31640625
-54.6875,-45.8984375,-60.05859375,-49.31640625
-46.38671875,-33.69140625,-59.5703125,-41.50390625
-32.71484375,-22.94921875,-54.6875,-34.66796875
-43.9453125,-55.6640625,-48.33984375,-37.109375
-61.5234375,-62.98828125,-48.828125,-38.57421875
-57.6171875,-41.50390625,-46.875,-31.73828125
-42.48046875,-34.66796875,-53.22265625,-27.83203125
-34.66796875,-20.01953125,-58.10546875,-33.69140625
-32.71484375,-43.45703125,-55.17578125,-35.64453125
-43.45703125,-93.26171875,-51.7578125,-38.0859375
-57.6171875,-70.3125,-47.8515625,-34.66796875
-47.8515625,-9.27734375,-49.8046875,-33.203125
-40.0390625,-30.2734375,-53.22265625,-38.0859375
-47.8515625,-82.03125,-47.8515625,-44.43359375
-55.6640625,-92.28515625,-44.43359375,-48.33984375
-59.08203125,-72.75390625,-45.8984375,-39.0625
-53.22265625,-30.76171875,-44.43359375,-36.1328125
-35.64453125,-25.390625,-44.43359375,-40.52734375
-30.2734375,-58.59375,-43.9453125,-42.96875
-50.78125,-89.35546875,-47.36328125,-46.38671875
-62.5,-71.77734375,-48.33984375,-44.921875
-57.6171875,-44.921875,-46.875,-46.875
-48.33984375,-18.06640625,-42.48046875,-49.31640625
-49.31640625,-27.34375,-46.875,-57.12890625
-55.6640625,-90.33203125,-48.33984375,-64.94140625
-64.453125,-97.65625,-44.921875,-56.640625
-60.05859375,-45.41015625,-47.36328125,-51.26953125
-46.38671875,-25.390625,-51.7578125,-52.734375
-50.29296875,-39.55078125,-55.17578125,-56.640625
-58.59375,-68.359375,-48.33984375,-52.734375
-63.96484375,-82.51953125,-43.9453125,-48.33984375
-51.26953125,-42.48046875,-41.015625,-43.45703125
-32.2265625,-15.625,-34.1796875,-26.3671875
-32.2265625,-29.78515625,-39.0625,-32.2265625
-56.15234375,-66.89453125,-48.828125,-60.05859375
-70.3125,-65.4296875,-47.8515625,-52.734375
-61.03515625,-45.41015625,-45.41015625,-43.9453125
-41.015625,-41.015625,-49.31640625,-51.7578125
-31.25,-51.26953125,-44.43359375,-38.0859375
-42.96875,-64.94140625,-41.50390625,-46.38671875
-53.22265625,-70.80078125,-46.875,-51.26953125
-62.98828125,-50.78125,-44.921875,-48.828125
-51.26953125,-7.32421875,-41.015625,-41.015625
-34.1796875,-20.01953125,-44.921875,-41.9921875
-44.43359375,-62.98828125,-47.8515625,-49.31640625
-57.6171875,-76.171875,-47.8515625,-49.31640625
-54.6875,-37.59765625,-50.29296875,-54.19921875
-36.62109375,5.859375,-44.921875,-44.43359375
-27.34375,-20.5078125,-46.875,-45.41015625
-40.52734375,-61.5234375,-54.19921875,-69.82421875
-54.6875,-75.1953125,-58.10546875,-74.21875
-65.91796875,-69.82421875,-59.08203125,-50.78125
-57.6171875,-29.78515625,-59.08203125,-52.734375
-37.59765625,-21.97265625,-55.17578125,-59.5703125
-46.875,-56.15234375,-50.78125,-51.26953125
-49.8046875,-72.75390625,-52.24609375,-54.19921875
-50.78125,-64.453125,-52.734375,-55.17578125
-52.734375,-38.0859375,-48.828125,-36.62109375
-49.31640625,-19.04296875,-44.43359375,-37.109375
-52.24609375,-39.0625,-50.29296875,-53.7109375
-60.546875,-81.54296875,-56.15234375,-58.10546875
-63.96484375,-74.21875,-55.17578125,-54.6875
-50.29296875,-31.73828125,-55.17578125,-44.921875
-38.0859375,-22.4609375,-54.19921875,-45.41015625
-38.0859375,-47.36328125,-58.10546875,-54.6875
-39.0625,-81.54296875,-63.96484375,-64.94140625
-44.43359375,-86.42578125,-58.10546875,-57.6171875
-46.875,-35.64453125,-48.828125,-42.48046875
-34.1796875,-12.20703125,-50.29296875,-33.69140625
-36.1328125,-41.9921875,-50.29296875,-36.62109375
-55.17578125,-69.3359375,-45.41015625,-48.828125
-66.89453125,-62.5,-47.36328125,-50.78125
-65.91796875,-50.29296875,-53.22265625,-45.41015625
-53.7109375,-27.83203125,-50.29296875,-44.43359375
-53.22265625,-36.1328125,-52.24609375,-52.734375
-65.91796875,-82.51953125,-53.22265625,-45.41015625
-64.94140625,-89.35546875,-56.15234375,-41.015625
-54.19921875,-46.875,-57.12890625,-33.203125
-43.45703125,-12.20703125,-53.7109375,-33.203125
-41.015625,-19.53125,-50.29296875,-43.9453125
-43.45703125,-56.640625,-51.26953125,-52.24609375
-57.12890625,-94.23828125,-54.19921875,-58.10546875
-71.77734375,-61.03515625,-51.26953125,-45.8984375
-54.19921875,-2.9296875,-49.8046875,-37.59765625
-36.1328125,-35.15625,-50.29296875,-50.29296875
-41.9921875,-91.30859375,-50.78125,-64.94140625
-52.24609375,-79.58984375,-50.78125,-62.98828125
-57.12890625,-53.22265625,-52.734375,-56.640625
-42.96875,-24.90234375,-52.24609375,-51.26953125
-28.80859375,-22.4609375,-56.15234375,-45.8984375
-29.78515625,-55.6640625,-52.734375,-48.33984375
-44.43359375,-78.125,-45.8984375,-52.734375
-46.875,-61.03515625,-49.31640625,-47.36328125
-30.2734375,-24.90234375,-53.22265625,-37.59765625
-23.4375,-20.99609375,-53.22265625,-38.0859375
-33.203125,-37.109375,-46.875,-41.50390625
-47.8515625,-63.4765625,-41.9921875,-49.31640625
-58.59375,-81.0546875,-41.9921875,-49.31640625
-45.8984375,-27.83203125,-38.57421875,-41.9921875
-30.2734375,-9.27734375,-40.52734375,-40.52734375
-42.48046875,-56.15234375,-44.921875,-46.38671875
-58.59375,-68.359375,-50.29296875,-61.5234375
-64.453125,-48.828125,-49.8046875,-56.640625
-52.734375,-16.6015625,-45.41015625,-46.38671875
-37.59765625,-4.8828125,-43.45703125,-57.6171875
-40.52734375,-41.9921875,-43.9453125,-59.5703125
-54.19921875,-70.3125,-49.8046875,-63.4765625
-55.6640625,-41.015625,-48.33984375,-60.546875
-43.45703125,-24.4140625,-38.57421875,-42.96875
-29.78515625,-20.5078125,-41.9921875,-36.1328125
-27.83203125,-20.99609375,-42.96875,-38.0859375
-42.96875,-68.359375,-41.9921875,-44.921875
-59.08203125,-71.77734375,-41.9921875,-41.9921875
-61.03515625,-34.66796875,-39.0625,-33.203125
-43.9453125,-22.94921875,-41.015625,-36.62109375
-34.1796875,-24.4140625,-41.9921875,-46.38671875
-47.8515625,-59.08203125,-46.875,-48.33984375
-66.89453125,-83.0078125,-56.15234375,-52.734375
-63.96484375,-39.0625,-52.24609375,-54.19921875
-45.41015625,3.41796875,-48.33984375,-51.7578125
-35.15625,-30.2734375,-49.8046875,-58.59375
-51.26953125,-83.49609375,-53.22265625,-67.87109375
-72.265625,-81.54296875,-54.6875,-69.82421875
-67.3828125,-46.875,-53.7109375,-62.01171875
-45.41015625,-7.8125,-49.31640625,-50.29296875
-41.50390625,-15.13671875,-54.6875,-44.43359375
-39.0625,-77.63671875,-62.98828125,-32.2265625
-46.875,-84.47265625,-57.6171875,-41.9921875
-79.58984375,-47.36328125,-52.734375,-62.5
-81.54296875,-21.97265625,-53.22265625,-65.91796875
-71.2890625,-18.06640625,-54.19921875,-71.77734375
-82.03125,-42.48046875,-51.7578125,-79.58984375
-116.69921875,-77.1484375,-52.24609375,-89.35546875
-139.16015625,-64.453125,-47.36328125,-90.8203125
-122.0703125,-25.390625,-44.921875,-89.35546875
-110.3515625,-19.04296875,-47.36328125,-94.7265625
-118.1640625,-61.5234375,-42.48046875,-103.515625
-125.0,-83.49609375,-46.875,-112.79296875
-121.09375,-63.96484375,-48.33984375,-104.98046875
-92.28515625,-27.34375,-41.9921875,-85.9375
-70.80078125,-12.20703125,-41.50390625,-83.984375
-78.61328125,-70.3125,-49.31640625,-94.7265625
-88.37890625,-82.03125,-51.26953125,-92.28515625
-86.9140625,-42.48046875,-43.9453125,-78.125
-73.2421875,-30.76171875,-47.8515625,-67.87109375
-57.12890625,-28.3203125,-55.17578125,-62.01171875
-61.5234375,-48.828125,-50.29296875,-60.546875
-74.70703125,-83.49609375,-46.38671875,-59.5703125
-79.1015625,-69.3359375,-47.36328125,-52.24609375
-67.87109375,-28.80859375,-47.8515625,-46.875
-48.828125,-12.6953125,-50.29296875,-46.875
-45.41015625,-41.50390625,-55.6640625,-56.640625
-56.640625,-80.56640625,-58.10546875,-66.89453125
-60.546875,-72.75390625,-57.6171875,-66.40625
-51.7578125,-31.25,-61.03515625,-64.453125
-37.59765625,7.32421875,-60.546875,-57.6171875
-36.62109375,-25.87890625,-57.6171875,-58.59375
-51.26953125,-100.5859375,-60.546875,-66.89453125
-62.5,-90.8203125,-60.05859375,-62.5
-57.6171875,-34.1796875,-59.08203125,-48.33984375
-41.50390625,-18.5546875,-62.5,-43.45703125
-38.0859375,-35.15625,-62.01171875,-44.921875
-51.26953125,-70.80078125,-60.05859375,-51.26953125
-60.546875,-80.56640625,-61.03515625,-54.19921875
-57.6171875,-47.36328125,-59.5703125,-44.43359375
-39.0625,-26.85546875,-50.29296875,-37.109375
-24.90234375,-30.2734375,-47.8515625,-42.96875
-33.203125,-39.55078125,-49.8046875,-48.828125
-55.17578125,-85.44921875,-56.15234375,-49.31640625
-48.828125,-64.453125,-55.6640625,-37.109375
-28.80859375,-4.8828125,-54.19921875,-21.484375
-27.34375,-31.73828125,-57.6171875,-25.390625
-39.55078125,-65.91796875,-56.640625,-38.57421875
-52.734375,-77.63671875,-52.24609375,-41.50390625
-53.7109375,-54.19921875,-47.8515625,-33.69140625
-44.43359375,-11.71875,-47.36328125,-33.69140625
-31.25,-7.32421875,-44.921875,-35.64453125
-39.55078125,-50.29296875,-47.8515625,-43.9453125
-66.40625,-62.98828125,-52.24609375,-55.6640625
-76.66015625,-33.203125,-50.29296875,-52.24609375
-64.453125,-27.34375,-45.41015625,-52.734375
-60.546875,-25.87890625,-42.96875,-62.98828125
-73.2421875,-38.57421875,-44.43359375,-75.1953125
-90.33203125,-66.40625,-41.50390625,-82.51953125
-121.58203125,-50.78125,-37.109375,-101.07421875
-134.27734375,7.8125,-40.0390625,-120.1171875
-115.72265625,-2.9296875,-37.109375,-121.09375
-137.20703125,-45.41015625,-31.25,-143.06640625
-177.24609375,-56.15234375,-34.66796875,-176.7578125
-185.546875,-38.0859375,-36.1328125,-177.24609375
-179.6875,12.20703125,-33.203125,-169.921875
-165.0390625,26.85546875,-40.52734375,-169.43359375
-166.50390625,-28.3203125,-48.33984375,-171.875
-184.08203125,-64.453125,-47.8515625,-176.7578125
-189.453125,-47.8515625,-46.875,-174.8046875
-164.55078125,2.9296875,-43.9453125,-163.0859375
-138.671875,18.06640625,-46.875,-162.109375
-135.7421875,-14.16015625,-51.7578125,-165.0390625
-137.6953125,-49.8046875,-49.8046875,-155.76171875
-153.3203125,-57.6171875,-49.31640625,-154.296875
-159.66796875,-13.18359375,-53.22265625,-148.4375
-134.765625,-8.30078125,-52.734375,-127.9296875
-118.65234375,-24.4140625,-48.828125,-124.0234375
-122.55859375,-40.52734375,-50.29296875,-131.34765625
-122.55859375,-72.265625,-50.78125,-128.41796875
-111.328125,-40.0390625,-48.33984375,-119.62890625
-90.33203125,-7.32421875,-54.6875,-109.86328125
-75.68359375,-24.90234375,-58.59375,-102.5390625
-71.77734375,-62.5,-53.7109375,-100.09765625
-81.0546875,-69.82421875,-55.17578125,-95.703125
-83.984375,-41.9921875,-61.03515625,-83.984375
-61.5234375,-16.6015625,-60.546875,-75.1953125
-44.43359375,-28.80859375,-54.6875,-64.453125
-50.78125,-78.61328125,-59.08203125,-65.4296875
-58.10546875,-88.8671875,-56.640625,-65.4296875
-44.43359375,-40.52734375,-51.7578125,-46.875
-27.34375,-18.5546875,-57.12890625,-40.52734375
-18.5546875,-55.17578125,-57.6171875,-40.0390625
-25.390625,-85.9375,-52.734375,-41.015625
-37.109375,-86.9140625,-47.36328125,-41.9921875
-42.96875,-71.2890625,-49.8046875,-34.66796875
-29.78515625,-26.3671875,-56.15234375,-29.78515625
-19.53125,-21.97265625,-56.640625,-32.2265625
-26.85546875,-66.89453125,-56.640625,-39.0625
-42.48046875,-88.37890625,-57.12890625,-37.59765625
-47.8515625,-73.2421875,-56.15234375,-24.90234375
-32.2265625,-26.85546875,-52.734375,-13.18359375
-6.34765625,-6.34765625,-45.41015625,-8.7890625
-1.46484375,-63.4765625,-42.96875,-16.6015625
-8.7890625,-90.8203125,-47.36328125,-22.4609375
-9.27734375,-69.3359375,-50.78125,-9.765625
0.48828125,-40.52734375,-48.33984375,3.90625
7.8125,-23.92578125,-50.29296875,5.859375
-3.90625,-52.24609375,-50.78125,-1.953125
-20.01953125,-80.56640625,-49.8046875,-13.671875
-33.69140625,-82.03125,-54.6875,-13.671875
-27.83203125,-43.45703125,-52.734375,-8.30078125
-9.765625,-28.3203125,-53.22265625,-9.765625
-13.18359375,-53.22265625,-56.640625,-19.53125
-27.83203125,-75.1953125,-56.15234375,-30.2734375
-36.1328125,-84.9609375,-55.6640625,-31.25
-27.34375,-55.6640625,-51.26953125,-22.4609375
-5.37109375,-18.06640625,-47.8515625,-11.71875
-5.37109375,-30.76171875,-46.875,-8.7890625
-21.484375,-63.4765625,-52.24609375,-19.53125
-29.296875,-66.40625,-52.734375,-17.578125
-27.34375,-50.29296875,-47.36328125,-6.34765625
-14.6484375,-25.390625,-50.78125,-10.7421875
-8.7890625,-37.109375,-51.26953125,-17.08984375
-25.390625,-73.73046875,-50.29296875,-29.296875
-44.43359375,-73.73046875,-48.33984375,-31.25
-34.1796875,-27.83203125,-45.8984375,-13.18359375
-10.25390625,-14.6484375,-44.921875,-8.30078125
0.0,-42.96875,-41.50390625,-16.6015625
-9.765625,-74.70703125,-44.43359375,-21.97265625
-24.4140625,-82.03125,-48.828125,-20.99609375
-20.01953125,-51.26953125,-47.36328125,-11.23046875
-1.953125,-14.16015625,-45.8984375,-4.39453125
2.9296875,-28.3203125,-47.8515625,-14.16015625
-9.27734375,-63.96484375,-49.8046875,-21.97265625
-24.90234375,-59.5703125,-48.828125,-25.87890625
-34.1796875,-67.87109375,-49.8046875,-26.85546875
-20.5078125,-18.5546875,-52.24609375,-27.83203125
-14.16015625,4.39453125,-46.875,-31.25
-31.73828125,-68.84765625,-44.921875,-42.48046875
-51.26953125,-98.14453125,-49.8046875,-54.19921875
-54.6875,-67.3828125,-51.26953125,-46.38671875
-35.64453125,-17.578125,-51.26953125,-38.0859375
-16.11328125,-13.18359375,-49.8046875,-36.62109375
-14.6484375,-48.828125,-42.96875,-33.203125
-26.3671875,-74.21875,-40.52734375,-33.69140625
-39.0625,-62.98828125,-47.36328125,-31.25
-26.3671875,-21.484375,-48.828125,-19.04296875
-3.90625,-1.953125,-43.45703125,-12.20703125
-10.7421875,-35.64453125,-39.0625,-16.6015625
-28.80859375,-56.15234375,-47.36328125,-30.76171875
-41.015625,-67.3828125,-51.7578125,-30.76171875
-33.69140625,-33.69140625,-49.31640625,-19.53125
-17.578125,-5.859375,-45.41015625,-23.4375
-25.87890625,-55.6640625,-43.45703125,-40.0390625
-39.0625,-78.125,-45.8984375,-46.38671875
-46.38671875,-72.75390625,-45.41015625,-40.0390625
-42.96875,-29.296875,-48.828125,-38.57421875
-26.3671875,-17.578125,-50.29296875,-41.9921875
-28.3203125,-46.38671875,-45.41015625,-42.96875
-37.109375,-74.21875,-43.9453125,-48.828125
-34.66796875,-69.3359375,-44.43359375,-46.875
-31.25,-12.6953125,-44.43359375,-34.66796875
-10.7421875,-22.94921875,-49.8046875,-9.27734375
-6.34765625,-49.31640625,-50.78125,-18.5546875
-45.41015625,-58.59375,-53.7109375,-59.08203125
-75.68359375,-83.49609375,-65.4296875,-69.82421875
-65.4296875,-51.26953125,-70.80078125,-55.6640625
-38.0859375,-6.34765625,-57.6171875,-44.921875
-43.45703125,-0.9765625,-56.15234375,-59.5703125
-67.87109375,-34.66796875,-62.98828125,-83.49609375
-86.9140625,-55.6640625,-61.03515625,-88.37890625
-74.70703125,-23.4375,-62.01171875,-73.2421875
-47.36328125,15.13671875,-68.84765625,-70.80078125
-41.9921875,13.671875,-63.4765625,-75.68359375
-46.38671875,-43.9453125,-55.6640625,-77.63671875
-54.19921875,-65.91796875,-59.08203125,-72.75390625
-52.24609375,-26.85546875,-58.59375,-61.5234375
-38.0859375,10.7421875,-54.19921875,-55.17578125
-34.66796875,1.953125,-53.7109375,-51.7578125
-47.36328125,-53.22265625,-57.12890625,-58.59375
-58.59375,-76.171875,-56.15234375,-66.40625
-56.15234375,-48.828125,-51.26953125,-53.22265625
-42.48046875,-11.71875,-51.26953125,-42.96875
-30.2734375,-2.44140625,-51.26953125,-43.45703125
-33.69140625,-33.69140625,-51.7578125,-50.78125
-37.109375,-47.8515625,-59.08203125,-53.7109375
-35.64453125,-54.6875,-56.640625,-43.45703125
-31.25,-27.34375,-53.22265625,-38.0859375
-21.484375,-6.8359375,-55.17578125,-41.50390625
-27.34375,-40.52734375,-54.19921875,-47.36328125
-48.33984375,-73.2421875,-58.59375,-58.59375
-61.03515625,-62.98828125,-62.01171875,-56.640625
-48.828125,-22.4609375,-58.59375,-47.36328125
-34.1796875,-16.6015625,-66.40625,-49.8046875
-47.36328125,-36.1328125,-73.2421875,-57.12890625
-64.94140625,-69.82421875,-63.96484375,-66.40625
-67.87109375,-62.5,-57.12890625,-60.05859375
-60.05859375,0.48828125,-54.19921875,-51.7578125
-47.8515625,-19.53125,-60.546875,-49.31640625
-35.64453125,-52.24609375,-65.91796875,-47.8515625
-44.43359375,-66.40625,-61.03515625,-49.8046875
-60.546875,-77.63671875,-64.94140625,-47.36328125
-48.828125,-30.76171875,-68.84765625,-36.62109375
-20.99609375,-1.953125,-59.08203125,-27.34375
-10.7421875,-28.80859375,-57.12890625,-29.296875
-24.90234375,-54.19921875,-59.5703125,-29.78515625
-38.57421875,-62.5,-57.12890625,-29.296875
-35.15625,-44.921875,-51.26953125,-26.85546875
-20.01953125,-9.765625,-51.7578125,-23.4375
-20.5078125,-5.37109375,-52.734375,-23.4375
-34.1796875,-67.87109375,-50.29296875,-31.73828125
-49.31640625,-103.515625,-48.33984375,-38.57421875
-51.7578125,-51.7578125,-45.8984375,-29.78515625
-37.109375,-15.13671875,-46.875,-27.34375
-38.0859375,-38.57421875,-49.31640625,-42.48046875
-48.828125,-72.265625,-55.17578125,-53.7109375
-56.640625,-76.171875,-59.08203125,-52.734375
-59.5703125,-54.19921875,-53.7109375,-47.8515625
-50.78125,-24.4140625,-52.24609375,-47.36328125
-39.55078125,-32.71484375,-50.29296875,-51.26953125
-48.828125,-55.17578125,-49.8046875,-59.5703125
-62.5,-51.7578125,-58.10546875,-65.4296875
-68.359375,-73.2421875,-57.6171875,-60.546875
-53.22265625,-38.57421875,-47.36328125,-49.31640625
-29.296875,-11.23046875,-44.43359375,-44.43359375
-35.64453125,-59.5703125,-49.8046875,-49.8046875
-49.8046875,-78.125,-51.7578125,-46.38671875
-49.8046875,-66.89453125,-49.31640625,-37.59765625
-31.25,-17.578125,-43.45703125,-32.2265625
-19.04296875,-10.25390625,-47.36328125,-36.1328125
-30.76171875,-51.26953125,-54.6875,-48.33984375
-45.41015625,-76.171875,-44.921875,-50.29296875
-55.17578125,-60.05859375,-39.0625,-44.921875
-49.8046875,-14.6484375,-46.38671875,-39.0625
-33.69140625,-33.69140625,-48.33984375,-36.1328125
-36.62109375,-68.84765625,-47.8515625,-43.9453125
-50.29296875,-76.66015625,-53.7109375,-50.78125
-55.6640625,-69.3359375,-53.7109375,-48.828125
-47.8515625,-26.3671875,-48.33984375,-40.0390625
-39.55078125,-7.32421875,-44.921875,-39.0625
-34.1796875,-42.48046875,-46.38671875,-43.9453125
-44.921875,-73.2421875,-50.78125,-50.29296875
-53.22265625,-66.40625,-48.33984375,-48.33984375
-38.57421875,-30.76171875,-45.8984375,-35.64453125
-16.11328125,-1.46484375,-48.33984375,-35.15625
-14.6484375,-0.9765625,-50.29296875,-42.48046875
-31.73828125,-61.5234375,-55.17578125,-49.31640625
-42.48046875,-94.23828125,-53.22265625,-41.9921875
-41.9921875,-47.8515625,-50.29296875,-31.73828125
-28.3203125,-13.671875,-51.26953125,-36.1328125
-32.2265625,-33.69140625,-52.24609375,-50.29296875
-48.33984375,-77.63671875,-51.7578125,-59.08203125
-54.19921875,-80.56640625,-51.7578125,-53.7109375
-50.29296875,-36.62109375,-50.78125,-38.0859375
-38.57421875,-14.6484375,-49.8046875,-30.2734375
-39.55078125,-42.96875,-49.8046875,-39.55078125
-49.8046875,-70.3125,-54.19921875,-46.38671875
-64.94140625,-70.3125,-57.12890625,-49.8046875
-64.94140625,-61.5234375,-50.29296875,-47.8515625
-42.48046875,-37.59765625,-43.9453125,-45.8984375
-34.66796875,-24.4140625,-43.9453125,-50.78125
-42.96875,-58.10546875,-55.17578125,-57.6171875
-50.78125,-76.171875,-62.5,-53.7109375
-46.38671875,-57.12890625,-55.17578125,-40.0390625
-38.57421875,-17.578125,-50.78125,-41.50390625
-32.71484375,-14.16015625,-43.9453125,-45.8984375
-42.48046875,-58.59375,-40.52734375,-51.26953125
-64.94140625,-78.125,-42.48046875,-57.6171875
-67.87109375,-63.96484375,-44.43359375,-51.7578125
-57.6171875,-7.32421875,-48.828125,-50.78125
-41.015625,-9.27734375,-49.8046875,-45.41015625
-47.36328125,-84.47265625,-51.7578125,-51.7578125
-67.87109375,-80.078125,-56.15234375,-63.4765625
-66.89453125,-60.05859375,-54.6875,-55.6640625
-49.8046875,-21.484375,-54.19921875,-45.41015625
-40.0390625,-10.25390625,-54.6875,-41.9921875
-45.8984375,-44.921875,-52.734375,-52.24609375
-58.59375,-70.80078125,-53.22265625,-60.546875
-69.82421875,-67.87109375,-53.7109375,-52.24609375
-61.5234375,-26.3671875,-51.7578125,-46.875
-40.52734375,-7.32421875,-50.29296875,-47.36328125
-39.55078125,-15.13671875,-54.19921875,-55.17578125
-57.12890625,-84.47265625,-61.03515625,-66.40625
-64.94140625,-91.30859375,-58.10546875,-67.87109375
-58.59375,-22.94921875,-55.6640625,-62.5
-39.0625,-34.1796875,-49.8046875,-53.7109375
-29.78515625,-50.78125,-41.9921875,-46.38671875
-39.55078125,-80.078125,-45.8984375,-47.36328125
-46.875,-83.49609375,-48.828125,-41.50390625
-43.9453125,-36.62109375,-46.875,-33.69140625
-29.296875,-17.08984375,-45.41015625,-33.203125
-29.296875,-31.73828125,-41.50390625,-38.57421875
-46.875,-65.4296875,-41.50390625,-48.33984375
-55.17578125,-64.453125,-46.875,-42.48046875
-49.8046875,-52.734375,-47.36328125,-38.57421875
-31.25,-21.97265625,-41.50390625,-39.0625
-23.92578125,-16.6015625,-43.45703125,-38.0859375
-39.55078125,-67.87109375,-46.38671875,-46.38671875
-61.03515625,-76.171875,-50.29296875,-52.734375
-60.546875,-40.52734375,-57.12890625,-45.8984375
-41.015625,-22.4609375,-51.7578125,-41.9921875
-37.109375,-25.87890625,-44.921875,-47.36328125
-45.8984375,-59.08203125,-47.8515625,-59.08203125
-63.96484375,-77.63671875,-50.78125,-67.3828125
-70.3125,-40.0390625,-51.26953125,-54.6875
-50.78125,-0.9765625,-49.8046875,-45.8984375
-39.55078125,-27.34375,-44.43359375,-48.828125
-44.43359375,-69.3359375,-46.38671875,-52.24609375
-61.5234375,-73.73046875,-47.36328125,-56.15234375
-62.98828125,-52.24609375,-40.52734375,-41.50390625
-37.109375,-23.4375,-43.9453125,-26.3671875
-27.34375,-17.08984375,-49.8046875,-33.203125
-40.52734375,-50.78125,-41.50390625,-37.59765625
-55.17578125,-69.3359375,-40.0390625,-39.0625
-65.91796875,-51.7578125,-48.33984375,-41.50390625
-56.15234375,-39.55078125,-47.8515625,-40.0390625
-41.50390625,-31.25,-40.0390625,-41.50390625
-48.828125,-49.31640625,-45.8984375,-51.7578125
-58.10546875,-91.30859375,-53.7109375,-54.19921875
-58.59375,-87.890625,-51.7578125,-43.9453125
-45.8984375,-28.80859375,-48.828125,-41.9921875
-26.3671875,-17.578125,-44.921875,-49.8046875
-31.73828125,-51.7578125,-46.38671875,-59.5703125
-55.17578125,-69.3359375,-51.26953125,-69.3359375
-69.3359375,-71.77734375,-52.734375,-68.359375
-59.08203125,-43.9453125,-53.7109375,-60.05859375
-43.9453125,-16.6015625,-56.15234375,-58.10546875
-46.38671875,-39.0625,-57.6171875,-54.6875
-61.03515625,-76.66015625,-55.6640625,-55.17578125
-69.82421875,-63.96484375,-53.22265625,-52.734375
-59.5703125,-32.2265625,-58.10546875,-38.0859375
-38.0859375,-30.2734375,-60.546875,-32.71484375
-32.2265625,-49.31640625,-46.875,-33.203125
-56.640625,-77.1484375,-37.109375,-38.0859375
-80.078125,-84.9609375,-46.875,-46.38671875
-71.2890625,-44.921875,-48.828125,-34.1796875
-44.43359375,-10.25390625,-40.52734375,-19.53125
-36.1328125,-32.2265625,-45.8984375,-27.34375
-41.9921875,-72.265625,-51.7578125,-40.52734375
-49.31640625,-83.49609375,-52.24609375,-46.38671875
-55.17578125,-45.41015625,-48.828125,-41.9921875
-41.9921875,-4.8828125,-50.78125,-39.0625
-35.15625,-37.59765625,-57.6171875,-44.921875
-47.36328125,-74.70703125,-59.08203125,-53.7109375
-63.96484375,-76.66015625,-57.6171875,-57.6171875
-66.40625,-72.75390625,-58.59375,-54.19921875
-44.921875,-32.71484375,-55.6640625,-44.921875
-35.64453125,-16.6015625,-55.17578125,-45.8984375
-45.41015625,-53.7109375,-54.19921875,-54.6875
-57.6171875,-71.2890625,-53.7109375,-60.05859375
-61.5234375,-46.38671875,-58.10546875,-55.17578125
-42.96875,-24.90234375,-52.734375,-42.96875
-38.0859375,-27.83203125,-48.828125,-45.8984375
-46.38671875,-30.2734375,-46.875,-54.19921875
-51.26953125,-63.4765625,-48.828125,-58.59375
-62.01171875,-71.77734375,-54.19921875,-56.640625
-53.7109375,-18.5546875,-54.19921875,-53.22265625
-38.57421875,-20.99609375,-52.24609375,-50.78125
-45.41015625,-46.875,-51.7578125,-61.03515625
-64.453125,-59.5703125,-51.7578125,-75.1953125
-71.77734375,-79.58984375,-51.7578125,-66.40625
-62.01171875,-47.36328125,-53.7109375,-51.26953125
-45.8984375,-25.87890625,-52.24609375,-47.8515625
-46.875,-52.734375,-48.33984375,-47.36328125
-58.10546875,-76.66015625,-46.38671875,-54.6875
-61.5234375,-60.546875,-43.9453125,-52.734375
-56.640625,-41.9921875,-50.78125,-43.9453125
-38.57421875,-31.73828125,-56.15234375,-43.9453125
-36.1328125,-36.62109375,-55.6640625,-49.8046875
-45.8984375,-66.89453125,-61.03515625,-52.24609375
-55.17578125,-71.77734375,-61.5234375,-49.8046875
-45.41015625,-33.69140625,-55.6640625,-43.45703125
-24.90234375,-11.23046875,-52.24609375,-40.52734375
-17.08984375,-25.87890625,-53.7109375,-41.015625
-23.92578125,-57.6171875,-52.734375,-39.55078125
-41.50390625,-75.1953125,-49.8046875,-34.66796875
-47.8515625,-22.4609375,-50.29296875,-30.76171875
-28.80859375,0.48828125,-47.8515625,-31.25
-24.4140625,-42.48046875,-51.7578125,-34.1796875
-44.921875,-75.1953125,-56.640625,-45.8984375
-63.96484375,-68.359375,-55.6640625,-52.24609375
-63.4765625,-46.38671875,-51.7578125,-48.828125
-40.52734375,-12.20703125,-49.8046875,-41.50390625
-40.0390625,-18.06640625,-50.29296875,-41.50390625
-50.29296875,-63.96484375,-49.8046875,-56.640625
-51.26953125,-76.171875,-50.29296875,-56.15234375
-52.734375,-45.8984375,-52.24609375,-47.8515625
-34.66796875,-7.8125,-44.43359375,-40.52734375
-21.97265625,-5.859375,-40.52734375,-39.0625
-31.25,-42.48046875,-47.8515625,-45.8984375
-45.41015625,-72.75390625,-54.19921875,-45.41015625
-49.8046875,-66.40625,-56.15234375,-41.50390625
-32.71484375,-18.06640625,-53.22265625,-32.71484375
-21.484375,-6.34765625,-51.26953125,-33.203125
-32.2265625,-50.29296875,-52.734375,-36.1328125
-50.29296875,-63.96484375,-56.640625,-41.9921875
-59.5703125,-47.8515625,-54.19921875,-40.0390625
-42.48046875,-22.94921875,-50.29296875,-32.71484375
-22.94921875,-6.8359375,-48.828125,-37.59765625
-34.66796875,-43.9453125,-47.8515625,-50.29296875
-58.10546875,-69.3359375,-49.31640625,-62.98828125
-67.3828125,-48.828125,-48.828125,-62.01171875
-59.08203125,-28.80859375,-49.8046875,-54.19921875
-48.828125,-27.83203125,-47.8515625,-56.640625
-50.29296875,-51.26953125,-44.43359375,-62.5
-62.98828125,-83.49609375,-47.36328125,-64.94140625
-70.80078125,-85.9375,-54.19921875,-63.4765625
-62.98828125,-46.38671875,-57.12890625,-54.6875
-41.9921875,-20.5078125,-54.19921875,-49.8046875
-41.015625,-44.43359375,-50.29296875,-56.15234375
-50.78125,-77.63671875,-41.9921875,-56.640625
-54.19921875,-86.42578125,-39.0625,-47.8515625
-44.43359375,-32.71484375,-39.0625,-37.59765625
-23.92578125,-0.9765625,-41.015625,-34.66796875
-29.78515625,-57.12890625,-48.33984375,-45.41015625
-44.921875,-99.609375,-53.22265625,-54.19921875
-52.24609375,-83.49609375,-56.640625,-56.640625
-46.38671875,-39.55078125,-49.8046875,-51.7578125
-20.99609375,0.0,-43.9453125,-42.48046875
-19.53125,-22.94921875,-48.33984375,-48.828125
-42.48046875,-82.03125,-56.15234375,-64.453125
-54.6875,-70.80078125,-58.10546875,-63.96484375
-52.24609375,-35.15625,-60.546875,-52.24609375
-36.62109375,-19.04296875,-61.03515625,-48.828125
-33.69140625,-15.13671875,-52.734375,-53.7109375
-42.48046875,-34.66796875,-44.921875,-60.546875
-60.05859375,-76.66015625,-46.875,-68.359375
-62.01171875,-52.734375,-51.7578125,-63.96484375
-40.0390625,-1.953125,-48.33984375,-52.734375
-30.76171875,-28.3203125,-46.875,-55.17578125
-44.921875,-59.5703125,-46.38671875,-57.6171875
-56.640625,-75.68359375,-41.9921875,-48.33984375
-55.17578125,-60.546875,-40.0390625,-35.64453125
-39.55078125,-8.7890625,-45.8984375,-28.80859375
-28.80859375,-5.859375,-48.828125,-29.78515625
-41.9921875,-68.84765625,-52.24609375,-40.0390625
-59.08203125,-84.47265625,-55.17578125,-52.734375
-63.96484375,-39.55078125,-53.7109375,-48.828125
-47.8515625,-23.4375,-59.08203125,-43.9453125
-31.73828125,-41.50390625,-54.19921875,-48.828125
-48.33984375,-63.4765625,-43.9453125,-55.17578125
-57.6171875,-79.1015625,-45.41015625,-55.6640625
-52.734375,-60.05859375,-50.29296875,-48.828125
-48.33984375,-18.06640625,-56.15234375,-43.9453125
-32.2265625,-6.34765625,-53.22265625,-41.50390625
-39.55078125,-42.96875,-51.26953125,-48.33984375
-59.08203125,-84.9609375,-61.03515625,-59.08203125
-62.98828125,-79.1015625,-65.4296875,-59.08203125
-50.78125,-30.76171875,-57.12890625,-50.29296875
-30.76171875,3.41796875,-50.29296875,-48.828125
-34.1796875,-30.2734375,-51.26953125,-58.59375
-45.8984375,-88.37890625,-48.33984375,-59.5703125
-60.05859375,-85.9375,-42.48046875,-49.31640625
-56.640625,-31.25,-45.8984375,-38.0859375
-34.66796875,-12.20703125,-42.96875,-32.71484375
-33.203125,-46.875,-41.015625,-36.1328125
-48.828125,-65.4296875,-44.921875,-39.0625
-62.01171875,-72.265625,-44.43359375,-38.0859375
-62.98828125,-35.15625,-43.45703125,-36.62109375
-52.24609375,-16.11328125,-44.43359375,-38.0859375
-43.45703125,-33.203125,-45.41015625,-39.0625
-50.29296875,-51.7578125,-47.8515625,-46.38671875
-55.17578125,-86.9140625,-49.31640625,-48.828125
-48.828125,-47.8515625,-48.33984375,-36.62109375
-34.66796875,-1.46484375,-47.8515625,-33.203125
-21.97265625,-41.50390625,-49.31640625,-39.0625
-37.109375,-74.70703125,-47.36328125,-48.828125
-58.10546875,-69.82421875,-44.43359375,-50.78125
-57.12890625,-39.55078125,-45.8984375,-44.921875
-41.9921875,-16.6015625,-43.45703125,-41.50390625
-34.1796875,-19.53125,-38.57421875,-43.9453125
-43.9453125,-61.03515625,-42.96875,-53.22265625
-59.08203125,-75.68359375,-48.828125,-56.640625
-59.08203125,-24.4140625,-50.78125,-47.8515625
-36.1328125,-11.71875,-49.8046875,-40.0390625
-26.3671875,-29.78515625,-50.78125,-42.96875
-41.50390625,-53.22265625,-54.19921875,-53.22265625
-53.7109375,-70.3125,-50.29296875,-56.15234375
-47.8515625,-39.0625,-44.43359375,-42.48046875
-38.0859375,2.44140625,-47.36328125,-37.109375
-23.92578125,-21.97265625,-49.31640625,-45.8984375
-24.90234375,-71.2890625,-49.8046875,-52.24609375
-42.48046875,-71.2890625,-51.7578125,-46.875
-53.22265625,-57.6171875,-53.7109375,-40.52734375
-47.36328125,-21.484375,-55.6640625,-43.45703125
-29.78515625,-3.90625,-52.24609375,-40.0390625
-40.52734375,-55.17578125,-52.734375,-43.9453125
-62.98828125,-82.51953125,-50.78125,-55.17578125
-68.359375,-64.94140625,-46.875,-52.24609375
-59.08203125,-19.53125,-48.828125,-46.38671875
-39.0625,-3.41796875,-51.26953125,-41.9921875
-41.50390625,-41.015625,-56.15234375,-51.26953125
-57.12890625,-78.125,-55.6640625,-63.96484375
-63.4765625,-74.70703125,-51.26953125,-58.59375
-47.8515625,-21.97265625,-50.29296875,-44.921875
-35.15625,-22.94921875,-50.78125,-41.9921875
-48.33984375,-46.875,-50.78125,-50.29296875
-62.98828125,-58.59375,-51.26953125,-55.17578125
-73.2421875,-87.890625,-58.10546875,-55.6640625
-64.94140625,-56.640625,-64.94140625,-51.26953125
-40.52734375,-18.06640625,-61.5234375,-52.734375
-31.73828125,-40.0390625,-61.03515625,-58.59375
-44.921875,-69.3359375,-64.453125,-67.3828125
-54.6875,-69.82421875,-56.15234375,-66.40625
-49.31640625,-36.62109375,-47.36328125,-58.10546875
-28.80859375,-13.671875,-46.38671875,-51.26953125
-21.97265625,-37.59765625,-50.29296875,-52.24609375
-41.015625,-74.21875,-51.26953125,-53.7109375
-58.59375,-75.1953125,-45.8984375,-47.36328125
-49.31640625,-28.3203125,-48.33984375,-34.1796875
-36.1328125,-11.71875,-54.6875,-27.34375
-35.15625,-48.828125,-56.640625,-32.71484375
-40.0390625,-74.21875,-50.78125,-48.33984375
-58.59375,-76.66015625,-53.22265625,-55.17578125
-65.91796875,-55.17578125,-51.26953125,-48.33984375
-46.38671875,-18.5546875,-41.50390625,-42.48046875
-30.2734375,-29.78515625,-44.43359375,-40.0390625
-42.48046875,-60.546875,-46.38671875,-49.31640625
-59.08203125,-67.87109375,-50.78125,-57.6171875
-62.5,-55.17578125,-55.17578125,-51.7578125
-48.828125,-20.99609375,-48.828125,-42.96875
-37.109375,-4.8828125,-49.31640625,-42.96875
-43.9453125,-61.03515625,-61.5234375,-49.31640625
-61.5234375,-87.890625,-60.05859375,-53.7109375
-58.59375,-46.38671875,-53.7109375,-48.828125
-39.55078125,-33.69140625,-50.78125,-38.57421875
-23.4375,-25.87890625,-42.96875,-39.0625
-30.2734375,-48.33984375,-38.57421875,-46.875
-50.29296875,-76.171875,-39.0625,-51.7578125
-57.12890625,-56.640625,-46.875,-50.78125
-47.8515625,-15.625,-50.29296875,-45.41015625
-29.78515625,-4.39453125,-45.41015625,-37.59765625
-39.55078125,-36.62109375,-48.828125,-42.48046875
-58.10546875,-59.5703125,-46.875,-46.875
-61.03515625,-70.80078125,-42.48046875,-39.55078125
-50.29296875,-51.7578125,-40.52734375,-38.0859375
-39.0625,-23.4375,-49.31640625,-42.48046875
-38.57421875,-45.8984375,-51.26953125,-53.7109375
-46.875,-62.01171875,-41.9921875,-59.08203125
-57.12890625,-48.33984375,-45.41015625,-56.15234375
-44.921875,-30.76171875,-49.31640625,-46.38671875
-27.34375,-16.6015625,-49.8046875,-41.9921875
-36.62109375,-41.015625,-47.8515625,-53.7109375
-58.10546875,-78.125,-50.78125,-70.3125
-66.40625,-81.0546875,-55.6640625,-71.2890625
-55.17578125,-21.484375,-41.015625,-61.5234375
-43.9453125,-16.11328125,-34.66796875,-59.08203125
-49.31640625,-52.734375,-48.828125,-63.4765625
-55.6640625,-65.91796875,-54.19921875,-67.87109375
-62.5,-80.078125,-52.24609375,-67.3828125
-65.91796875,-45.41015625,-50.78125,-59.5703125
-42.96875,-11.23046875,-47.36328125,-49.31640625
-37.109375,-35.15625,-45.41015625,-51.7578125
-49.8046875,-64.453125,-48.828125,-61.03515625
-54.19921875,-73.2421875,-52.734375,-62.01171875
-64.453125,-70.3125,-43.9453125,-51.26953125
-48.828125,-25.390625,-42.48046875,-46.875
-34.66796875,-4.8828125,-48.828125,-53.22265625
-42.48046875,-75.1953125,-45.41015625,-62.98828125
-54.19921875,-99.12109375,-43.45703125,-63.96484375
-55.6640625,-48.33984375,-46.38671875,-57.6171875
-39.0625,-24.90234375,-48.33984375,-49.31640625
-34.66796875,-28.3203125,-51.26953125,-46.875
-40.52734375,-51.7578125,-52.24609375,-55.17578125
-45.8984375,-64.94140625,-50.78125,-59.5703125
-48.828125,-47.8515625,-52.24609375,-49.8046875
-37.59765625,-2.9296875,-46.875,-42.96875
-25.87890625,-1.46484375,-41.015625,-42.96875
-39.0625,-47.36328125,-49.8046875,-50.78125
-51.26953125,-51.7578125,-55.17578125,-56.640625
-49.8046875,-39.55078125,-47.8515625,-46.38671875
-41.9921875,-39.55078125,-54.19921875,-41.50390625
-30.2734375,-29.296875,-60.546875,-44.43359375
-37.109375,-42.96875,-57.6171875,-46.38671875
-58.10546875,-71.77734375,-55.6640625,-53.7109375
-69.3359375,-69.82421875,-49.31640625,-48.828125
-51.7578125,-23.92578125,-45.41015625,-41.015625
-34.1796875,-11.23046875,-47.36328125,-43.45703125
-45.41015625,-52.24609375,-50.78125,-54.6875
-61.03515625,-79.58984375,-52.24609375,-66.89453125
-66.89453125,-66.40625,-53.7109375,-60.546875
-55.17578125,-14.6484375,-60.05859375,-48.33984375
-36.62109375,-22.94921875,-55.6640625,-45.41015625
-38.57421875,-53.22265625,-44.921875,-51.26953125
-51.7578125,-57.12890625,-44.921875,-56.15234375
-64.94140625,-75.1953125,-51.26953125,-56.15234375
-66.89453125,-53.22265625,-53.22265625,-55.17578125
-54.19921875,-20.5078125,-48.828125,-52.734375
-53.7109375,-37.59765625,-49.8046875,-53.22265625
-58.10546875,-76.171875,-49.31640625,-58.59375
-61.03515625,-76.66015625,-49.8046875,-59.5703125
-51.26953125,-38.57421875,-57.12890625,-48.33984375
-36.1328125,-13.18359375,-59.08203125,-39.55078125
-31.73828125,-19.53125,-48.828125,-35.15625
-41.50390625,-71.2890625,-43.45703125,-36.62109375
-57.6171875,-90.8203125,-44.43359375,-41.015625
-49.31640625,-51.26953125,-44.43359375,-39.55078125
-32.2265625,-29.296875,-44.43359375,-38.57421875
-28.3203125,-25.87890625,-46.38671875,-41.015625
-40.52734375,-58.10546875,-49.8046875,-53.22265625
-61.03515625,-84.47265625,-52.734375,-56.640625
-60.546875,-48.828125,-50.29296875,-46.38671875
-42.96875,-20.5078125,-44.43359375,-40.0390625
-39.0625,-33.69140625,-41.015625,-43.9453125
-47.8515625,-60.05859375,-42.96875,-50.78125
-61.5234375,-61.03515625,-44.921875,-54.6875
-68.359375,-55.17578125,-45.8984375,-50.29296875
-48.828125,-27.34375,-43.45703125,-40.0390625
-40.0390625,-31.25,-43.45703125,-43.9453125
-45.41015625,-60.05859375,-43.45703125,-54.6875
-57.6171875,-78.125,-42.48046875,-57.12890625
-70.3125,-67.3828125,-50.29296875,-54.19921875
-59.5703125,-30.2734375,-53.22265625,-48.828125
-39.0625,-17.578125,-47.36328125,-47.36328125
-31.73828125,-45.41015625,-45.41015625,-48.828125
-42.96875,-82.51953125,-45.41015625,-51.7578125
-52.24609375,-63.96484375,-42.48046875,-49.31640625
-44.921875,-8.7890625,-46.38671875,-41.015625
-33.203125,-27.34375,-45.8984375,-41.50390625
-34.66796875,-62.01171875,-39.55078125,-48.33984375
-47.36328125,-72.265625,-41.9921875,-53.22265625
-58.10546875,-71.77734375,-47.36328125,-51.7578125
-47.8515625,-26.85546875,-51.26953125,-46.38671875
-36.1328125,-8.7890625,-55.17578125,-44.921875
-38.57421875,-40.0390625,-58.10546875,-48.33984375
-46.875,-68.359375,-50.29296875,-50.78125
-55.6640625,-70.3125,-48.828125,-49.8046875
-49.31640625,-35.15625,-51.26953125,-45.8984375
-39.55078125,-19.04296875,-47.8515625,-50.78125
-36.1328125,-20.5078125,-48.828125,-52.734375
-41.015625,-62.01171875,-48.828125,-54.19921875
-55.6640625,-101.07421875,-50.78125,-56.640625
-56.640625,-48.828125,-53.7109375,-49.31640625
-41.50390625,-11.71875,-52.734375,-44.43359375
-30.2734375,-36.1328125,-48.828125,-47.8515625
-42.48046875,-72.75390625,-47.36328125,-57.12890625
-56.640625,-78.61328125,-51.26953125,-58.10546875
-48.828125,-38.57421875,-51.7578125,-46.38671875
-33.69140625,-5.859375,-54.6875,-42.96875
-21.484375,-31.73828125,-54.6875,-45.8984375
-31.73828125,-52.734375,-56.640625,-50.78125
-49.8046875,-43.9453125,-58.59375,-58.59375
-53.7109375,-55.6640625,-49.31640625,-48.828125
-39.55078125,-38.57421875,-47.8515625,-39.0625
-36.62109375,-22.4609375,-52.24609375,-49.31640625
-50.78125,-64.453125,-45.8984375,-57.12890625
-63.96484375,-84.9609375,-44.43359375,-52.24609375
-66.89453125,-58.59375,-48.828125,-43.9453125
-53.22265625,-30.76171875,-44.921875,-48.33984375
-42.48046875,-27.83203125,-48.828125,-58.10546875
-50.78125,-63.4765625,-50.29296875,-62.01171875
-61.5234375,-80.56640625,-48.33984375,-60.546875
-63.4765625,-54.19921875,-49.31640625,-55.6640625
-47.8515625,0.0,-47.36328125,-51.7578125
-27.34375,-9.765625,-45.8984375,-49.8046875
-38.57421875,-69.82421875,-50.29296875,-57.12890625
-55.17578125,-75.1953125,-52.734375,-60.546875
-53.7109375,-62.01171875,-52.734375,-51.7578125
-41.50390625,-22.4609375,-50.78125,-41.015625
-25.390625,-0.9765625,-46.875,-37.109375
-27.83203125,-48.828125,-44.921875,-40.0390625
-47.36328125,-80.56640625,-44.43359375,-43.45703125
-58.10546875,-66.40625,-43.45703125,-44.43359375
-46.875,-23.4375,-43.45703125,-43.9453125
-26.85546875,-16.11328125,-41.9921875,-37.109375
-31.25,-31.25,-41.9921875,-37.59765625
-45.8984375,-73.73046875,-44.921875,-49.31640625
-58.59375,-80.078125,-44.43359375,-51.7578125
-53.22265625,-29.296875,-38.0859375,-48.828125
-35.15625,-14.6484375,-41.015625,-43.45703125
-38.0859375,-38.57421875,-41.50390625,-47.36328125
-42.48046875,-65.4296875,-38.0859375,-55.17578125
-51.7578125,-76.171875,-40.0390625,-56.640625
-56.15234375,-26.85546875,-43.9453125,-49.31640625
-39.55078125,-10.25390625,-42.96875,-40.0390625
-38.0859375,-56.640625,-43.9453125,-44.43359375
-48.33984375,-75.68359375,-52.734375,-55.17578125
-52.734375,-62.98828125,-46.38671875,-51.7578125
-45.8984375,-48.33984375,-38.57421875,-38.0859375
-30.2734375,-37.109375,-42.48046875,-35.64453125
-29.296875,-40.52734375,-43.45703125,-45.41015625
-43.9453125,-71.2890625,-48.828125,-57.12890625
-57.12890625,-78.125,-47.8515625,-55.17578125
-56.15234375,-58.59375,-45.8984375,-50.29296875
-38.57421875,-26.3671875,-50.78125,-48.33984375
-29.296875,-26.85546875,-47.8515625,-48.33984375
-39.55078125,-66.40625,-46.38671875,-61.5234375
-52.734375,-81.54296875,-49.31640625,-67.3828125
-55.17578125,-51.26953125,-50.29296875,-56.15234375
-42.48046875,-18.06640625,-49.8046875,-48.828125
-36.1328125,-38.57421875,-52.24609375,-46.38671875
-41.015625,-77.63671875,-51.7578125,-49.8046875
-58.59375,-85.44921875,-49.31640625,-51.26953125
-67.3828125,-70.3125,-50.78125,-45.8984375
-48.828125,-21.484375,-52.734375,-44.43359375
-32.2265625,-3.41796875,-54.19921875,-48.33984375
-34.66796875,-50.29296875,-44.921875,-54.6875
-49.31640625,-83.49609375,-42.48046875,-59.08203125
-56.15234375,-58.59375,-45.8984375,-51.7578125
-36.62109375,-16.11328125,-41.9921875,-41.50390625
-25.390625,-5.859375,-38.0859375,-42.48046875
-33.203125,-30.76171875,-39.0625,-45.41015625
-48.33984375,-92.28515625,-41.9921875,-46.38671875
-59.08203125,-68.84765625,-41.50390625,-43.9453125
-50.78125,-4.8828125,-40.52734375,-39.55078125
-38.57421875,-17.578125,-45.41015625,-41.9921875
-46.875,-50.29296875,-47.8515625,-48.828125
-61.03515625,-80.56640625,-49.8046875,-57.12890625
-61.5234375,-65.4296875,-58.10546875,-54.19921875
-51.7578125,-23.4375,-61.03515625,-48.33984375
-41.015625,-20.5078125,-56.15234375,-48.828125
-37.109375,-51.7578125,-54.19921875,-55.17578125
-40.52734375,-68.84765625,-50.78125,-60.05859375
-49.31640625,-65.4296875,-41.50390625,-52.734375
-52.24609375,-42.96875,-39.0625,-40.52734375
-46.38671875,-25.87890625,-38.57421875,-37.109375
-44.43359375,-36.1328125,-36.62109375,-40.52734375
-52.24609375,-69.82421875,-41.9921875,-47.8515625
-56.640625,-68.84765625,-45.8984375,-44.43359375
-44.43359375,-25.390625,-40.52734375,-31.73828125
-23.4375,-17.08984375,-44.43359375,-30.76171875
-19.53125,-24.90234375,-51.7578125,-41.015625
-31.25,-63.4765625,-51.26953125,-54.19921875
-45.8984375,-93.26171875,-50.29296875,-55.17578125
-44.921875,-43.45703125,-48.33984375,-45.41015625
-27.34375,5.859375,-46.875,-43.45703125
-28.3203125,-33.69140625,-48.828125,-45.41015625
-46.38671875,-84.9609375,-50.78125,-46.875
-54.19921875,-76.171875,-51.7578125,-43.45703125
-51.7578125,-41.50390625,-54.6875,-38.0859375
-37.109375,-21.484375,-54.19921875,-34.1796875
-27.34375,-23.92578125,-51.7578125,-34.66796875
-42.96875,-64.94140625,-52.24609375,-38.57421875
-70.3125,-79.58984375,-55.17578125,-46.875
-70.3125,-56.15234375,-51.26953125,-42.48046875
-51.26953125,-42.96875,-41.50390625,-39.55078125
-32.71484375,-29.296875,-38.0859375,-42.96875
-32.71484375,-30.2734375,-39.0625,-44.921875
-50.29296875,-68.84765625,-47.36328125,-59.5703125
-59.08203125,-71.77734375,-52.734375,-61.5234375
-52.734375,-15.625,-51.26953125,-53.22265625
-40.0390625,-16.11328125,-54.19921875,-53.7109375
-41.015625,-50.29296875,-48.33984375,-60.546875
-53.7109375,-74.21875,-49.8046875,-66.40625
-58.10546875,-68.359375,-55.17578125,-63.96484375
-42.96875,-17.08984375,-51.26953125,-57.6171875
-32.71484375,-11.23046875,-44.921875,-56.15234375
-42.48046875,-59.08203125,-37.59765625,-65.4296875
-51.7578125,-77.63671875,-36.62109375,-71.2890625
-60.05859375,-53.22265625,-38.0859375,-64.94140625
-51.26953125,-25.390625,-40.52734375,-56.640625
-38.57421875,-47.36328125,-46.875,-57.12890625
-43.9453125,-59.08203125,-48.828125,-60.05859375
-58.10546875,-72.75390625,-45.41015625,-62.5
-66.40625,-73.2421875,-46.875,-58.10546875
-60.546875,-34.1796875,-49.8046875,-48.828125
-37.109375,-19.04296875,-45.41015625,-41.015625
-33.69140625,-41.50390625,-44.921875,-49.8046875
-46.875,-69.3359375,-49.31640625,-60.546875
-53.7109375,-67.3828125,-49.8046875,-51.7578125
-45.8984375,-36.62109375,-47.36328125,-36.1328125
-25.87890625,-1.953125,-37.59765625,-25.390625
-24.90234375,-30.76171875,-39.0625,-29.296875
-31.73828125,-68.359375,-40.0390625,-42.48046875
-46.875,-66.89453125,-43.45703125,-50.78125
-44.43359375,-59.08203125,-45.8984375,-47.36328125
-20.5078125,-23.92578125,-42.96875,-42.96875
-18.5546875,-32.2265625,-43.45703125,-52.734375
-29.78515625,-59.5703125,-44.43359375,-62.5
-52.734375,-71.77734375,-45.8984375,-59.08203125
-54.6875,-42.48046875,-46.875,-51.26953125
-36.1328125,-8.30078125,-48.828125,-48.33984375
-28.80859375,-17.578125,-52.734375,-49.8046875
-40.0390625,-49.31640625,-51.7578125,-52.734375
-50.78125,-79.1015625,-54.19921875,-52.734375
-57.12890625,-68.84765625,-59.5703125,-43.45703125
-47.36328125,-16.11328125,-57.12890625,-32.71484375
-40.52734375,-17.08984375,-51.7578125,-32.71484375
-49.8046875,-57.12890625,-43.9453125,-40.0390625
-60.05859375,-55.6640625,-41.015625,-50.29296875
-64.94140625,-48.828125,-50.78125,-49.8046875
-49.31640625,-25.87890625,-58.59375,-43.45703125
-32.2265625,-12.20703125,-52.24609375,-45.8984375
-32.2265625,-46.38671875,-49.31640625,-53.7109375
-50.78125,-55.17578125,-47.8515625,-61.5234375
-65.91796875,-37.109375,-43.45703125,-54.6875
-50.29296875,-33.203125,-45.8984375,-46.875
-35.15625,-28.80859375,-44.921875,-47.8515625
-34.1796875,-45.8984375,-47.36328125,-46.38671875
-58.10546875,-72.265625,-51.26953125,-50.29296875
-70.80078125,-68.359375,-57.6171875,-48.33984375
-57.6171875,-25.390625,-57.6171875,-44.921875
-46.38671875,-23.4375,-49.8046875,-43.9453125
-47.36328125,-59.5703125,-49.8046875,-46.875
-66.89453125,-69.3359375,-53.22265625,-56.15234375
-68.84765625,-83.49609375,-56.640625,-51.7578125
-48.828125,-36.1328125,-50.78125,-40.52734375
-30.2734375,2.44140625,-43.45703125,-37.109375
-36.1328125,-50.78125,-49.8046875,-47.36328125
-61.03515625,-83.0078125,-56.640625,-62.01171875
-74.70703125,-72.75390625,-53.7109375,-53.22265625
-64.94140625,-40.0390625,-50.78125,-38.0859375
-41.50390625,-8.30078125,-51.26953125,-38.0859375
-31.73828125,-31.73828125,-50.78125,-42.96875
-45.8984375,-76.66015625,-52.734375,-53.22265625
-63.4765625,-82.03125,-56.640625,-52.24609375
-64.94140625,-44.43359375,-59.5703125,-43.9453125
-41.015625,-18.06640625,-51.7578125,-38.57421875
-29.78515625,-22.94921875,-45.41015625,-40.0390625
-43.9453125,-46.38671875,-44.921875,-47.8515625
-60.05859375,-71.2890625,-51.7578125,-54.6875
-60.546875,-57.6171875,-49.8046875,-54.19921875
-48.828125,-27.83203125,-48.33984375,-53.7109375
-41.9921875,-35.15625,-47.36328125,-66.40625
-59.08203125,-70.3125,-43.45703125,-75.68359375
-80.078125,-74.70703125,-50.78125,-76.171875
-76.66015625,-50.78125,-45.8984375,-62.98828125
-49.31640625,-16.11328125,-37.59765625,-45.8984375
-36.1328125,-12.20703125,-41.50390625,-48.828125
-41.50390625,-58.59375,-48.33984375,-55.6640625
-52.24609375,-83.0078125,-45.8984375,-52.24609375
-62.5,-44.43359375,-38.0859375,-44.43359375
-46.38671875,-21.97265625,-34.66796875,-36.62109375
-39.0625,-34.1796875,-43.45703125,-43.45703125
-57.6171875,-54.6875,-50.29296875,-57.6171875
-74.21875,-82.03125,-54.6875,-61.03515625
-74.21875,-59.5703125,-54.6875,-54.19921875
-59.5703125,-23.4375,-51.26953125,-51.26953125
-42.96875,-16.11328125,-49.8046875,-53.22265625
-36.62109375,-50.29296875,-43.45703125,-54.6875
-44.921875,-80.56640625,-39.55078125,-54.19921875
-54.6875,-68.359375,-47.36328125,-50.78125
-42.96875,-23.92578125,-52.734375,-45.8984375
-28.3203125,-3.41796875,-54.19921875,-42.96875
-31.25,-51.7578125,-48.33984375,-46.38671875
-44.43359375,-92.28515625,-46.875,-53.22265625
-57.6171875,-70.80078125,-48.828125,-53.7109375
-49.31640625,-27.34375,-49.8046875,-45.8984375
-41.50390625,-18.5546875,-54.19921875,-47.36328125
-43.9453125,-50.29296875,-53.7109375,-55.6640625
-56.15234375,-91.30859375,-48.828125,-61.03515625
-65.91796875,-83.49609375,-44.921875,-48.33984375
-52.734375,-37.59765625,-42.96875,-30.76171875
-38.0859375,-9.27734375,-38.57421875,-25.87890625
-39.0625,-24.4140625,-41.50390625,-32.2265625
-45.41015625,-64.453125,-44.43359375,-41.9921875
-54.19921875,-88.37890625,-44.921875,-48.828125
-45.41015625,-48.828125,-48.828125,-44.921875
-24.4140625,-12.20703125,-49.31640625,-39.55078125
-19.53125,-28.3203125,-47.36328125,-47.8515625
-38.57421875,-67.3828125,-48.33984375,-61.03515625
-49.8046875,-70.80078125,-50.78125,-60.546875
-44.43359375,-41.50390625,-44.43359375,-48.828125
-37.109375,-5.37109375,-44.921875,-49.8046875
-35.64453125,-13.18359375,-50.29296875,-56.15234375
-48.828125,-78.61328125,-50.78125,-58.10546875
-69.3359375,-71.2890625,-49.31640625,-53.7109375
-69.3359375,-22.94921875,-45.8984375,-45.41015625
-50.29296875,-27.83203125,-41.9921875,-43.45703125
-47.36328125,-47.36328125,-39.0625,-50.78125
-60.05859375,-63.4765625,-41.9921875,-55.6640625
-63.96484375,-82.03125,-48.828125,-49.8046875
-61.03515625,-59.08203125,-54.19921875,-42.48046875
-44.921875,-20.01953125,-49.8046875,-40.0390625
-28.80859375,-25.390625,-45.41015625,-41.9921875
-36.1328125,-59.5703125,-44.43359375,-49.31640625
-52.24609375,-66.40625,-41.9921875,-50.78125
-53.22265625,-51.7578125,-46.38671875,-48.828125
-31.25,-14.6484375,-57.12890625,-47.36328125
-20.01953125,4.8828125,-59.08203125,-43.45703125
-34.1796875,-35.64453125,-49.31640625,-50.29296875
-59.5703125,-83.49609375,-45.8984375,-66.89453125
-77.63671875,-81.0546875,-50.29296875,-69.82421875
-62.01171875,-37.109375,-51.7578125,-62.5
-39.55078125,-27.34375,-47.8515625,-53.22265625
-42.96875,-48.828125,-40.52734375,-52.24609375
-51.7578125,-73.73046875,-40.0390625,-53.7109375
-62.5,-66.89453125,-44.921875,-51.26953125
-57.6171875,-30.76171875,-45.41015625,-45.8984375
-44.43359375,-21.484375,-45.41015625,-42.96875
-42.48046875,-39.55078125,-47.8515625,-48.828125
-49.8046875,-52.734375,-47.36328125,-53.7109375
-58.10546875,-75.68359375,-44.921875,-50.78125
-48.33984375,-40.52734375,-41.9921875,-41.9921875
-38.57421875,-13.671875,-44.921875,-38.57421875
-44.43359375,-50.78125,-51.26953125,-47.36328125
-57.12890625,-78.61328125,-52.734375,-59.5703125
-66.40625,-65.4296875,-50.78125,-58.59375
-58.10546875,-22.94921875,-48.828125,-53.22265625
-47.36328125,-9.765625,-47.8515625,-51.26953125
-41.9921875,-31.73828125,-48.33984375,-62.5
-43.9453125,-69.82421875,-47.36328125,-69.82421875
-59.08203125,-73.73046875,-43.45703125,-61.5234375
-63.96484375,-27.83203125,-47.8515625,-55.17578125
-45.41015625,-15.13671875,-48.33984375,-49.8046875
-36.62109375,-31.25,-46.875,-52.24609375
-53.7109375,-61.5234375,-50.78125,-62.01171875
-67.87109375,-75.68359375,-48.33984375,-61.03515625
-63.96484375,-43.45703125,-48.33984375,-55.6640625
-46.38671875,-5.37109375,-50.78125,-47.36328125
-42.96875,-37.59765625,-50.78125,-45.41015625
-55.6640625,-71.77734375,-49.31640625,-47.36328125
-61.5234375,-76.171875,-52.24609375,-39.0625
-62.01171875,-64.94140625,-54.19921875,-28.3203125
-41.50390625,-22.4609375,-40.52734375,-21.484375
-29.296875,-2.9296875,-34.66796875,-29.78515625
-33.69140625,-62.01171875,-38.0859375,-45.41015625
-48.33984375,-93.26171875,-36.62109375,-46.38671875
-60.546875,-69.82421875,-40.0390625,-37.59765625
-50.78125,-27.83203125,-42.48046875,-38.57421875
-35.64453125,-20.01953125,-44.921875,-46.38671875
-37.59765625,-47.8515625,-44.43359375,-57.12890625
-51.26953125,-63.96484375,-45.8984375,-61.5234375
-63.96484375,-58.10546875,-44.43359375,-57.12890625
-46.38671875,-10.7421875,-42.48046875,-50.78125
-29.296875,-22.4609375,-45.41015625,-53.7109375
-38.57421875,-61.03515625,-39.0625,-57.12890625
-63.4765625,-57.6171875,-42.48046875,-58.59375
-80.56640625,-65.4296875,-50.29296875,-62.5
-62.98828125,-50.29296875,-53.22265625,-58.10546875
-42.48046875,-26.3671875,-46.875,-54.6875
-41.50390625,-47.8515625,-42.96875,-56.15234375
-58.59375,-74.70703125,-43.9453125,-59.5703125
-66.40625,-73.2421875,-45.8984375,-52.734375
-55.6640625,-39.55078125,-49.8046875,-42.96875
-32.71484375,-20.5078125,-43.9453125,-37.59765625
-25.87890625,-50.29296875,-42.48046875,-38.0859375
-41.015625,-78.61328125,-45.8984375,-46.38671875
-50.29296875,-79.1015625,-51.26953125,-44.43359375
-43.45703125,-21.97265625,-46.875,-41.015625
-32.2265625,-17.08984375,-41.9921875,-43.45703125
-31.25,-71.77734375,-43.45703125,-53.22265625
-44.921875,-81.0546875,-45.41015625,-64.94140625
-59.08203125,-74.21875,-42.96875,-61.03515625
-58.10546875,-49.31640625,-41.015625,-50.78125
-46.38671875,-27.34375,-49.31640625,-45.41015625
-40.52734375,-35.15625,-57.6171875,-49.8046875
-50.78125,-67.87109375,-53.7109375,-54.6875
-64.94140625,-73.2421875,-46.875,-52.24609375
-67.3828125,-34.1796875,-47.8515625,-46.38671875
-52.24609375,-12.20703125,-50.29296875,-43.45703125
-41.9921875,-17.578125,-48.828125,-48.33984375
-52.24609375,-75.68359375,-49.31640625,-55.17578125
-61.5234375,-82.03125,-47.36328125,-54.19921875
-54.19921875,-31.25,-44.43359375,-43.45703125
-44.921875,-25.87890625,-46.38671875,-40.52734375
-41.9921875,-28.3203125,-45.41015625,-41.50390625
-43.9453125,-58.10546875,-41.015625,-46.875
-59.08203125,-71.2890625,-41.9921875,-52.734375
-62.98828125,-49.31640625,-42.48046875,-40.0390625
-49.31640625,-23.92578125,-41.9921875,-31.25
-36.62109375,-22.4609375,-41.50390625,-33.203125
-34.1796875,-54.19921875,-44.43359375,-32.2265625
-43.9453125,-65.91796875,-48.33984375,-36.62109375
-49.31640625,-72.265625,-48.828125,-35.15625
-38.0859375,-36.1328125,-52.734375,-32.2265625
-29.296875,-9.27734375,-48.828125,-40.0390625
-39.0625,-58.10546875,-42.96875,-53.22265625
-55.17578125,-79.1015625,-41.50390625,-59.08203125
-57.12890625,-56.640625,-41.50390625,-50.78125
-46.38671875,-38.0859375,-45.8984375,-44.921875
-33.69140625,-13.18359375,-43.9453125,-43.45703125
-29.78515625,-28.3203125,-40.52734375,-46.38671875
-42.48046875,-72.265625,-41.015625,-54.19921875
-56.15234375,-72.75390625,-42.96875,-53.22265625
-53.22265625,-11.71875,-43.9453125,-48.828125
-35.64453125,-12.20703125,-46.875,-48.33984375
-33.203125,-58.59375,-48.33984375,-56.15234375
-54.6875,-74.21875,-46.875,-63.4765625
-67.3828125,-68.84765625,-42.96875,-55.6640625
-56.640625,-34.66796875,-42.96875,-43.45703125
-43.9453125,-20.99609375,-46.875,-42.96875
-42.48046875,-41.50390625,-45.41015625,-50.29296875
-54.19921875,-71.77734375,-48.33984375,-59.5703125
-69.82421875,-70.3125,-52.24609375,-55.17578125
-65.91796875,-45.41015625,-47.36328125,-42.96875
-48.828125,-23.4375,-45.41015625,-35.64453125
-52.24609375,-27.83203125,-45.8984375,-41.9921875
-61.03515625,-71.2890625,-48.828125,-54.6875
-62.98828125,-84.9609375,-60.546875,-60.546875
-43.45703125,-43.9453125,-64.453125,-36.62109375
-24.90234375,-17.08984375,-55.17578125,-32.2265625
-40.0390625,-39.55078125,-50.29296875,-64.94140625
-49.8046875,-78.61328125,-52.24609375,-64.94140625
-55.17578125,-82.03125,-49.8046875,-57.12890625
-59.08203125,-59.08203125,-48.828125,-60.05859375
-48.828125,-30.76171875,-47.36328125,-52.24609375
-53.22265625,-38.0859375,-47.8515625,-56.640625
-83.49609375,-73.73046875,-44.921875,-75.1953125
-99.12109375,-66.89453125,-41.50390625,-76.66015625
-90.33203125,-65.4296875,-41.9921875,-68.359375
-85.9375,-57.12890625,-39.0625,-73.2421875
-85.9375,-48.828125,-40.52734375,-84.47265625
-106.4453125,-80.078125,-42.96875,-100.09765625
-128.41796875,-83.49609375,-39.55078125,-103.515625
-138.18359375,-61.5234375,-32.2265625,-100.09765625
-144.04296875,-31.73828125,-32.2265625,-110.83984375
-136.71875,-24.90234375,-29.296875,-117.67578125
-140.625,-62.01171875,-26.85546875,-125.48828125
-149.4140625,-91.30859375,-27.34375,-121.09375
-156.25,-60.05859375,-18.5546875,-111.328125
-151.3671875,-21.484375,-12.6953125,-109.86328125
-125.9765625,-52.24609375,-8.30078125,-102.5390625
-125.9765625,-78.61328125,-7.8125,-107.421875
-137.6953125,-89.35546875,-8.7890625,-106.93359375
-133.30078125,-98.14453125,-8.30078125,-95.703125
-121.09375,-51.7578125,-14.16015625,-86.42578125
-104.4921875,-39.0625,-13.671875,-77.63671875
-99.12109375,-67.87109375,-16.11328125,-77.63671875
-106.4453125,-88.37890625,-14.16015625,-81.0546875
-108.3984375,-86.42578125,-13.18359375,-62.98828125
-83.0078125,-50.78125,-24.4140625,-42.48046875
-48.33984375,-26.85546875,-32.2265625,-38.57421875
-44.43359375,-32.71484375,-36.1328125,-40.52734375
-52.24609375,-83.984375,-41.015625,-40.0390625
-54.19921875,-101.5625,-47.8515625,-29.296875
-48.33984375,-62.98828125,-50.29296875,-22.4609375
-26.3671875,-43.45703125,-49.31640625,-16.6015625
-15.625,-52.24609375,-48.828125,-10.7421875
-16.6015625,-67.3828125,-48.828125,-10.7421875
-22.4609375,-98.14453125,-50.78125,-8.7890625
-19.53125,-77.63671875,-54.6875,-3.90625
5.859375,-41.50390625,-54.19921875,9.27734375
12.20703125,-61.5234375,-50.78125,7.8125
0.9765625,-83.49609375,-50.78125,0.9765625
-2.44140625,-80.078125,-51.7578125,7.8125
-0.9765625,-66.40625,-49.8046875,18.5546875
17.08984375,-44.43359375,-50.29296875,26.85546875
32.2265625,-42.96875,-54.19921875,25.390625
29.78515625,-73.2421875,-58.10546875,20.5078125
21.484375,-84.9609375,-60.546875,24.90234375
14.16015625,-68.359375,-60.546875,35.15625
22.4609375,-34.1796875,-57.12890625,37.59765625
35.15625,-25.87890625,-53.22265625,29.78515625
27.34375,-56.640625,-56.15234375,21.97265625
12.6953125,-85.9375,-58.59375,17.08984375
3.41796875,-57.6171875,-59.08203125,20.99609375
8.7890625,4.8828125,-56.640625,27.34375
14.6484375,-16.11328125,-56.15234375,15.625
4.8828125,-79.1015625,-59.08203125,0.9765625
-14.16015625,-76.66015625,-60.546875,-8.30078125
-19.53125,-55.17578125,-59.5703125,-8.7890625
3.41796875,-28.80859375,-56.15234375,-0.48828125
20.5078125,-20.99609375,-57.12890625,-3.41796875
2.44140625,-49.8046875,-59.5703125,-16.6015625
-18.5546875,-70.3125,-59.08203125,-22.94921875
-20.99609375,-65.91796875,-59.08203125,-13.671875
-7.8125,-28.3203125,-55.6640625,-1.953125
6.34765625,-16.11328125,-52.24609375,-3.90625
1.46484375,-27.83203125,-51.7578125,-11.71875
-12.6953125,-72.265625,-50.29296875,-14.6484375
-14.6484375,-100.09765625,-50.78125,-6.8359375
-4.8828125,-41.50390625,-45.41015625,2.9296875
5.37109375,-14.6484375,-40.52734375,2.44140625
0.48828125,-48.828125,-47.8515625,-7.8125
-12.20703125,-86.42578125,-52.24609375,-12.6953125
-24.90234375,-83.984375,-54.19921875,-14.16015625
-23.92578125,-37.109375,-55.6640625,-8.30078125
-0.9765625,-10.7421875,-48.828125,-1.953125
-2.44140625,-44.43359375,-53.22265625,-13.18359375
-20.01953125,-72.265625,-53.7109375,-21.97265625
-27.34375,-58.10546875,-44.921875,-19.53125
-25.87890625,-36.62109375,-45.8984375,-13.671875
-7.32421875,-23.92578125,-45.8984375,-8.30078125
-1.953125,-22.94921875,-43.9453125,-16.6015625
-14.16015625,-70.80078125,-43.45703125,-29.296875
-23.4375,-73.73046875,-42.96875,-26.85546875
-22.4609375,-25.390625,-41.9921875,-19.53125
-5.859375,-6.34765625,-38.0859375,-14.6484375
-3.90625,-14.16015625,-39.55078125,-14.16015625
-9.27734375,-48.33984375,-38.57421875,-17.578125
-17.08984375,-72.265625,-38.0859375,-14.16015625
-22.4609375,-47.8515625,-39.0625,-2.44140625
-15.625,-2.9296875,-35.15625,0.0
-8.7890625,-20.5078125,-38.0859375,-6.34765625
-19.04296875,-59.08203125,-45.8984375,-15.13671875
-38.0859375,-65.91796875,-43.45703125,-20.5078125
-43.9453125,-58.10546875,-39.0625,-18.06640625
-34.1796875,-17.08984375,-46.38671875,-21.484375
-22.4609375,-10.25390625,-48.33984375,-25.87890625
-31.73828125,-76.66015625,-49.8046875,-40.0390625
-52.24609375,-92.7734375,-55.6640625,-51.26953125
-51.7578125,-59.08203125,-54.19921875,-42.96875
-35.64453125,-20.99609375,-51.7578125,-35.15625
-29.78515625,-12.20703125,-56.15234375,-41.015625
-33.69140625,-52.24609375,-59.5703125,-52.24609375
-41.50390625,-87.40234375,-58.59375,-59.5703125
-58.59375,-73.73046875,-53.7109375,-52.24609375
-61.03515625,-37.109375,-48.828125,-40.0390625
-45.41015625,-32.71484375,-46.875,-37.109375
-43.9453125,-47.8515625,-44.921875,-41.9921875
-52.24609375,-74.21875,-50.78125,-47.8515625
-57.6171875,-75.1953125,-53.7109375,-45.8984375
-39.0625,-28.3203125,-49.8046875,-36.1328125
-18.5546875,-7.8125,-51.7578125,-32.2265625
-25.87890625,-51.26953125,-54.19921875,-44.921875
-39.55078125,-73.2421875,-51.26953125,-50.78125
-50.29296875,-56.640625,-48.33984375,-47.8515625
-47.8515625,-41.50390625,-47.36328125,-47.36328125
-29.78515625,-18.06640625,-46.875,-42.96875
-27.83203125,-23.4375,-44.43359375,-43.9453125
