TP9,AF7,AF8,TP10
-61.03515625,-22.94921875,-50.29296875,-51.7578125
-44.43359375,-27.34375,-51.26953125,-49.31640625
-46.38671875,-67.3828125,-49.8046875,-51.7578125
-60.05859375,-79.1015625,-52.734375,-57.12890625
-56.15234375,-59.5703125,-54.6875,-52.24609375
-30.2734375,-14.16015625,-55.17578125,-44.43359375
-15.625,-25.87890625,-57.6171875,-43.45703125
-26.85546875,-53.7109375,-55.17578125,-43.45703125
-42.96875,-80.078125,-52.24609375,-45.8984375
-56.640625,-85.44921875,-50.78125,-45.8984375
-53.7109375,-25.87890625,-45.41015625,-36.1328125
-39.0625,-16.11328125,-45.41015625,-33.203125
-42.48046875,-46.38671875,-51.7578125,-44.43359375
-54.6875,-81.0546875,-53.7109375,-50.29296875
-57.6171875,-75.68359375,-48.828125,-43.9453125
-51.7578125,-30.76171875,-44.921875,-38.0859375
-30.76171875,-17.08984375,-46.875,-30.76171875
-27.34375,-31.25,-51.7578125,-36.1328125
-49.8046875,-58.59375,-54.6875,-58.59375
-67.87109375,-76.171875,-53.22265625,-63.4765625
-54.19921875,-39.0625,-52.734375,-43.9453125
-31.73828125,-13.671875,-53.7109375,-34.1796875
-31.25,-28.3203125,-46.875,-40.0390625
-42.96875,-63.96484375,-44.921875,-47.8515625
-62.5,-87.890625,-50.78125,-51.26953125
-60.546875,-51.26953125,-53.7109375,-41.9921875
-42.48046875,-18.06640625,-48.828125,-36.62109375
-32.71484375,-34.66796875,-45.41015625,-41.9921875
-40.52734375,-74.21875,-52.24609375,-46.875
-49.31640625,-72.265625,-48.33984375,-46.38671875
-47.36328125,-53.7109375,-45.41015625,-41.9921875
-29.78515625,-20.99609375,-44.921875,-35.64453125
-17.578125,-25.390625,-46.875,-36.62109375
-30.2734375,-69.82421875,-48.828125,-49.31640625
-47.36328125,-82.51953125,-48.33984375,-50.29296875
-50.78125,-54.19921875,-54.6875,-46.38671875
-35.15625,-14.6484375,-53.22265625,-43.45703125
-26.85546875,-23.4375,-46.38671875,-48.33984375
-34.66796875,-64.94140625,-45.41015625,-59.5703125
-53.22265625,-87.890625,-44.921875,-61.03515625
-58.59375,-64.453125,-42.48046875,-51.26953125
-44.921875,-15.625,-45.41015625,-45.41015625
-33.203125,-25.390625,-43.9453125,-42.96875
-39.0625,-64.453125,-40.52734375,-46.38671875
-56.15234375,-67.3828125,-42.96875,-52.24609375
-59.5703125,-63.4765625,-45.41015625,-49.31640625
-41.9921875,-14.6484375,-46.875,-45.8984375
-28.3203125,-1.953125,-41.9921875,-45.41015625
-37.109375,-42.96875,-43.45703125,-53.22265625
-57.6171875,-74.21875,-50.29296875,-58.10546875
-62.98828125,-67.87109375,-48.828125,-54.19921875
-55.17578125,-25.390625,-47.8515625,-48.33984375
-38.57421875,-6.8359375,-47.8515625,-40.0390625
-35.15625,-25.87890625,-49.31640625,-42.48046875
-52.24609375,-60.05859375,-45.8984375,-51.26953125
-59.5703125,-90.8203125,-40.0390625,-46.38671875
-50.29296875,-53.22265625,-43.9453125,-41.50390625
-38.57421875,-25.87890625,-41.9921875,-41.015625
-38.57421875,-41.9921875,-42.48046875,-46.38671875
-47.8515625,-68.84765625,-44.921875,-53.22265625
-63.4765625,-73.2421875,-44.43359375,-49.8046875
-61.5234375,-27.83203125,-47.8515625,-42.48046875
-51.26953125,-18.06640625,-44.43359375,-42.96875
-47.36328125,-44.921875,-41.50390625,-49.31640625
-54.19921875,-68.359375,-46.38671875,-53.7109375
-62.5,-62.98828125,-46.38671875,-52.734375
-52.734375,-42.48046875,-45.41015625,-45.41015625
-38.0859375,-27.83203125,-50.29296875,-41.015625
-32.2265625,-25.390625,-55.6640625,-48.33984375
-40.52734375,-72.75390625,-56.15234375,-52.734375
-60.05859375,-86.9140625,-57.12890625,-50.29296875
-64.94140625,-52.734375,-60.05859375,-52.734375
-41.50390625,-16.6015625,-54.19921875,-46.38671875
-35.64453125,-28.3203125,-47.36328125,-43.45703125
-47.8515625,-62.01171875,-49.8046875,-51.26953125
-52.734375,-77.1484375,-48.33984375,-55.6640625
-51.26953125,-44.921875,-49.31640625,-49.8046875
-43.45703125,5.859375,-46.875,-39.55078125
-40.52734375,-38.0859375,-45.41015625,-42.48046875
-51.26953125,-91.30859375,-48.33984375,-51.26953125
-62.01171875,-85.9375,-47.8515625,-48.828125
-69.3359375,-64.94140625,-47.8515625,-42.96875
-60.05859375,-26.3671875,-44.43359375,-40.0390625
-46.875,-11.71875,-45.41015625,-40.0390625
-43.45703125,-70.80078125,-48.828125,-49.31640625
-57.12890625,-90.8203125,-52.24609375,-57.12890625
-63.96484375,-61.5234375,-55.17578125,-52.734375
-50.78125,-20.99609375,-51.7578125,-48.33984375
-31.25,0.48828125,-47.36328125,-51.26953125
-36.1328125,-32.71484375,-50.29296875,-57.6171875
-58.10546875,-92.7734375,-57.12890625,-63.96484375
-70.80078125,-85.44921875,-57.12890625,-59.5703125
-57.12890625,-36.62109375,-47.36328125,-46.875
-34.1796875,-20.5078125,-38.0859375,-41.015625
-38.0859375,-43.9453125,-41.9921875,-50.78125
-53.22265625,-75.1953125,-54.19921875,-60.05859375
-61.5234375,-65.91796875,-54.19921875,-58.10546875
-52.734375,-21.484375,-48.33984375,-53.7109375
-32.71484375,6.8359375,-46.875,-45.8984375
-34.1796875,-42.96875,-43.45703125,-43.9453125
-50.78125,-81.0546875,-50.29296875,-45.41015625
-64.453125,-55.17578125,-57.12890625,-44.43359375
-53.7109375,-42.96875,-51.7578125,-38.0859375
-38.0859375,-33.203125,-44.921875,-33.203125
-32.71484375,-44.921875,-44.921875,-37.59765625
-34.66796875,-69.3359375,-47.36328125,-41.015625
-53.7109375,-72.75390625,-43.9453125,-44.921875
-58.10546875,-43.45703125,-46.38671875,-48.33984375
-42.48046875,-11.71875,-48.828125,-44.921875
-33.203125,-21.97265625,-48.828125,-46.875
-44.43359375,-62.5,-48.33984375,-50.29296875
-57.6171875,-76.66015625,-49.31640625,-49.31640625
-58.59375,-36.62109375,-50.29296875,-45.41015625
-40.52734375,8.30078125,-44.43359375,-42.96875
-32.2265625,-12.20703125,-40.52734375,-48.828125
-45.8984375,-78.61328125,-41.015625,-53.7109375
-62.01171875,-80.078125,-43.9453125,-59.08203125
-66.40625,-32.2265625,-50.78125,-62.5
-53.22265625,-12.20703125,-52.734375,-58.59375
-45.8984375,-17.08984375,-42.96875,-56.15234375
-50.29296875,-51.7578125,-44.921875,-66.40625
-67.87109375,-67.3828125,-48.828125,-74.70703125
-75.68359375,-40.52734375,-47.8515625,-73.2421875
-73.73046875,-0.9765625,-50.29296875,-78.125
-73.2421875,-4.39453125,-46.875,-83.0078125
-80.078125,-14.6484375,-48.828125,-92.7734375
-89.84375,-46.875,-55.6640625,-99.12109375
-110.83984375,-50.78125,-51.26953125,-103.02734375
-130.859375,8.7890625,-46.875,-118.1640625
-124.51171875,-9.27734375,-49.8046875,-123.53515625
-137.20703125,-51.26953125,-45.8984375,-138.18359375
-171.875,-68.359375,-37.59765625,-150.390625
-179.6875,-44.921875,-33.203125,-153.80859375
-154.78515625,-7.8125,-36.62109375,-147.4609375
-147.94921875,-19.53125,-31.73828125,-145.99609375
-174.31640625,-56.15234375,-23.92578125,-162.109375
-184.08203125,-85.9375,-13.671875,-165.0390625
-174.31640625,-64.453125,-14.16015625,-151.85546875
-154.296875,-25.87890625,-14.6484375,-140.13671875
-137.6953125,-38.0859375,-3.90625,-137.6953125
-139.6484375,-54.19921875,-10.7421875,-142.578125
-151.85546875,-78.61328125,-20.99609375,-150.390625
-159.66796875,-81.0546875,-17.08984375,-147.4609375
-148.4375,-30.76171875,-8.7890625,-130.859375
-131.8359375,-20.99609375,-9.27734375,-121.09375
-133.7890625,-54.19921875,-19.04296875,-130.37109375
-143.5546875,-80.078125,-25.87890625,-138.671875
-141.6015625,-64.453125,-26.85546875,-131.8359375
-127.44140625,-25.87890625,-22.94921875,-117.1875
-88.8671875,6.34765625,-16.6015625,-95.21484375
-75.1953125,-35.64453125,-23.4375,-92.7734375
-92.28515625,-83.0078125,-33.69140625,-106.4453125
-92.7734375,-74.70703125,-35.15625,-94.7265625
-73.2421875,-46.875,-38.0859375,-70.80078125
-50.29296875,-26.3671875,-42.48046875,-65.4296875
-41.015625,-39.0625,-41.9921875,-62.5
-36.62109375,-67.3828125,-44.43359375,-45.8984375
-41.50390625,-79.58984375,-47.8515625,-37.59765625
-40.0390625,-50.78125,-47.8515625,-28.3203125
-6.8359375,-27.34375,-47.8515625,-7.32421875
12.6953125,-35.15625,-41.9921875,-4.8828125
4.39453125,-64.94140625,-43.45703125,-8.7890625
-9.765625,-88.8671875,-51.7578125,-5.859375
-6.8359375,-72.265625,-48.828125,0.48828125
18.5546875,-23.92578125,-48.33984375,9.765625
24.90234375,-28.80859375,-53.22265625,6.8359375
5.37109375,-73.73046875,-49.31640625,-4.8828125
-13.18359375,-89.35546875,-49.8046875,-7.8125
-9.27734375,-75.1953125,-52.734375,3.90625
11.71875,-35.15625,-53.22265625,16.11328125
16.11328125,-31.73828125,-51.7578125,16.6015625
1.46484375,-74.70703125,-45.41015625,9.27734375
-14.16015625,-92.28515625,-47.8515625,2.9296875
-16.11328125,-65.4296875,-52.734375,6.8359375
-2.9296875,-44.921875,-50.78125,12.6953125
11.23046875,-56.640625,-47.36328125,15.13671875
19.53125,-68.359375,-48.828125,15.13671875
12.6953125,-88.37890625,-51.26953125,15.13671875
1.46484375,-84.9609375,-51.26953125,19.53125
14.16015625,-32.71484375,-45.41015625,27.83203125
28.3203125,-20.99609375,-44.43359375,25.87890625
20.99609375,-59.5703125,-47.8515625,14.16015625
8.7890625,-89.84375,-50.78125,8.7890625
3.41796875,-76.171875,-49.31640625,6.34765625
-0.48828125,-24.4140625,-42.48046875,8.7890625
10.7421875,-4.8828125,-45.8984375,10.7421875
14.16015625,-56.640625,-51.26953125,5.37109375
0.0,-88.8671875,-53.22265625,-1.46484375
-9.27734375,-73.2421875,-53.7109375,1.46484375
-3.90625,-47.36328125,-52.734375,11.71875
6.8359375,-26.3671875,-50.78125,9.27734375
4.8828125,-47.36328125,-50.29296875,5.37109375
-4.39453125,-75.1953125,-53.7109375,3.41796875
-11.23046875,-78.125,-51.7578125,5.859375
-2.9296875,-55.17578125,-48.828125,13.18359375
23.4375,-26.85546875,-50.29296875,17.578125
28.3203125,-25.390625,-50.78125,15.13671875
13.18359375,-52.734375,-49.8046875,5.37109375
-9.27734375,-84.9609375,-50.78125,1.46484375
-14.6484375,-60.546875,-52.734375,6.8359375
2.9296875,-28.80859375,-52.734375,7.8125
5.859375,-37.59765625,-56.15234375,-2.44140625
-0.9765625,-61.5234375,-56.15234375,-12.20703125
-8.7890625,-67.3828125,-53.22265625,-9.765625
-8.7890625,-60.05859375,-51.7578125,-1.46484375
5.859375,-26.3671875,-44.921875,0.0
10.25390625,-11.71875,-44.921875,-4.8828125
0.48828125,-55.17578125,-44.43359375,-8.7890625
-18.5546875,-75.68359375,-45.8984375,-13.671875
-22.4609375,-35.64453125,-45.41015625,-10.7421875
-6.34765625,-16.6015625,-41.015625,-4.39453125
2.44140625,-31.25,-38.57421875,-5.37109375
-7.32421875,-61.03515625,-40.0390625,-11.23046875
-19.04296875,-68.84765625,-46.38671875,-18.5546875
-20.5078125,-45.8984375,-48.828125,-17.578125
-13.18359375,-7.8125,-49.31640625,-15.625
-1.46484375,-8.7890625,-46.875,-18.06640625
-9.765625,-52.24609375,-43.45703125,-22.94921875
-32.71484375,-62.5,-48.828125,-30.2734375
-38.0859375,-75.1953125,-52.734375,-29.296875
-28.80859375,-34.66796875,-49.31640625,-26.3671875
-20.99609375,5.859375,-53.7109375,-30.76171875
-25.390625,-56.15234375,-59.5703125,-43.9453125
-46.38671875,-100.5859375,-58.59375,-53.7109375
-55.6640625,-72.75390625,-53.22265625,-44.921875
-44.43359375,-36.1328125,-48.828125,-36.1328125
-29.78515625,-23.4375,-44.921875,-34.66796875
-31.25,-46.38671875,-47.8515625,-39.0625
-48.33984375,-79.1015625,-49.31640625,-39.55078125
-63.4765625,-76.171875,-47.8515625,-36.1328125
-59.5703125,-38.0859375,-43.45703125,-31.25
-41.9921875,-24.90234375,-42.48046875,-25.87890625
-39.55078125,-48.33984375,-48.33984375,-33.69140625
-52.734375,-58.10546875,-47.36328125,-44.43359375
-68.359375,-70.80078125,-45.41015625,-43.9453125
-62.98828125,-55.17578125,-46.38671875,-37.109375
-46.38671875,-26.3671875,-46.38671875,-36.1328125
-51.7578125,-46.38671875,-48.828125,-47.36328125
-64.94140625,-81.0546875,-55.17578125,-60.05859375
-74.21875,-81.0546875,-54.6875,-59.08203125
-67.87109375,-43.9453125,-52.734375,-52.24609375
-43.45703125,-12.6953125,-49.8046875,-47.36328125
-41.9921875,-21.97265625,-46.38671875,-51.7578125
-55.17578125,-60.546875,-49.8046875,-58.59375
-69.82421875,-68.84765625,-54.6875,-57.6171875
-70.80078125,-37.109375,-53.7109375,-37.59765625
-59.5703125,-34.66796875,-49.31640625,-40.52734375
-58.59375,-39.0625,-46.875,-61.03515625
-51.7578125,-50.29296875,-46.38671875,-54.6875
-61.5234375,-80.56640625,-47.8515625,-49.8046875
-67.87109375,-55.6640625,-43.9453125,-40.0390625
-51.26953125,-13.18359375,-48.828125,-32.2265625
-38.57421875,-21.97265625,-51.7578125,-41.015625
-41.9921875,-56.15234375,-45.41015625,-43.45703125
-55.6640625,-70.80078125,-47.36328125,-44.43359375
-58.59375,-54.19921875,-50.78125,-44.921875
-38.57421875,-5.37109375,-44.43359375,-38.0859375
-21.484375,10.7421875,-36.62109375,-39.0625
-25.390625,-51.7578125,-45.41015625,-49.31640625
-43.9453125,-85.44921875,-52.734375,-50.29296875
-51.7578125,-58.59375,-50.29296875,-41.015625
-38.57421875,-32.71484375,-51.7578125,-33.69140625
-23.92578125,-9.27734375,-49.31640625,-32.71484375
-29.296875,-38.0859375,-41.9921875,-37.59765625
-50.78125,-85.9375,-41.50390625,-45.41015625
-60.05859375,-74.70703125,-42.96875,-48.828125
-48.33984375,-15.625,-39.55078125,-42.96875
-35.15625,-7.32421875,-42.48046875,-41.50390625
-37.59765625,-37.109375,-47.8515625,-44.921875
-46.875,-52.24609375,-45.8984375,-48.828125
-58.10546875,-70.80078125,-44.43359375,-50.78125
-47.36328125,-44.43359375,-45.8984375,-41.015625
-34.66796875,-19.04296875,-50.29296875,-37.59765625
-37.109375,-40.0390625,-49.8046875,-48.33984375
-48.828125,-73.73046875,-50.29296875,-58.59375
-60.05859375,-76.66015625,-47.8515625,-53.7109375
-52.734375,-45.41015625,-43.9453125,-41.9921875
-30.2734375,-14.16015625,-49.31640625,-41.9921875
-17.578125,-16.11328125,-49.8046875,-45.8984375
-33.69140625,-72.75390625,-51.26953125,-56.15234375
-52.24609375,-78.61328125,-53.22265625,-55.17578125
-44.921875,-20.01953125,-48.33984375,-41.9921875
-28.3203125,-22.4609375,-45.8984375,-35.64453125
-27.34375,-46.38671875,-43.9453125,-38.0859375
-43.45703125,-64.94140625,-42.96875,-45.8984375
-59.5703125,-70.3125,-46.38671875,-49.31640625
-63.4765625,-46.38671875,-51.26953125,-52.24609375
-50.29296875,-22.94921875,-53.22265625,-52.734375
-38.0859375,-24.90234375,-53.7109375,-53.22265625
-45.8984375,-59.5703125,-51.7578125,-58.10546875
-68.84765625,-72.265625,-53.22265625,-59.08203125
-69.82421875,-58.59375,-54.19921875,-50.78125
-47.36328125,-26.3671875,-51.26953125,-43.45703125
-34.1796875,-12.20703125,-50.29296875,-41.50390625
-36.62109375,-53.7109375,-50.78125,-42.96875
-53.22265625,-92.7734375,-53.22265625,-46.875
-58.59375,-75.68359375,-50.78125,-40.0390625
-41.50390625,-27.34375,-45.8984375,-33.203125
-35.64453125,-17.08984375,-53.22265625,-38.0859375
-47.8515625,-58.59375,-53.7109375,-45.41015625
-54.19921875,-82.03125,-49.8046875,-50.29296875
-58.59375,-71.77734375,-51.7578125,-43.45703125
-47.8515625,-20.99609375,-45.8984375,-33.203125
-40.52734375,-11.71875,-40.52734375,-41.50390625
-49.8046875,-58.59375,-41.015625,-54.6875
-59.08203125,-66.40625,-42.48046875,-54.6875
-65.91796875,-72.265625,-43.45703125,-53.22265625
-57.12890625,-37.59765625,-46.38671875,-55.17578125
-36.62109375,-16.11328125,-42.48046875,-54.19921875
-29.296875,-47.36328125,-37.109375,-53.7109375
-44.921875,-72.75390625,-45.41015625,-62.98828125
-51.7578125,-72.75390625,-55.17578125,-62.01171875
-42.96875,-31.73828125,-55.17578125,-51.7578125
-35.64453125,-12.20703125,-53.22265625,-47.8515625
-40.52734375,-36.62109375,-50.78125,-50.29296875
-53.7109375,-76.171875,-50.29296875,-52.734375
-60.546875,-66.89453125,-52.24609375,-48.828125
-53.7109375,-18.06640625,-52.734375,-45.8984375
-34.1796875,-23.92578125,-51.7578125,-47.8515625
-32.2265625,-48.828125,-51.7578125,-49.31640625
-46.875,-65.4296875,-46.875,-54.19921875
-57.6171875,-73.73046875,-46.875,-50.78125
-53.22265625,-32.71484375,-47.36328125,-38.0859375
-35.64453125,-16.11328125,-49.31640625,-38.0859375
-39.0625,-49.31640625,-53.7109375,-48.828125
-54.6875,-71.77734375,-51.7578125,-52.734375
-63.4765625,-67.87109375,-48.828125,-50.78125
-62.01171875,-47.8515625,-48.33984375,-52.734375
-42.48046875,-17.08984375,-47.36328125,-46.38671875
-36.1328125,-8.7890625,-50.78125,-44.921875
-52.734375,-66.89453125,-53.7109375,-60.05859375
-59.08203125,-91.796875,-47.8515625,-55.6640625
-58.10546875,-49.31640625,-44.921875,-50.29296875
-49.31640625,-15.13671875,-50.29296875,-51.7578125
-36.62109375,-16.11328125,-53.22265625,-46.38671875
-40.52734375,-46.875,-50.29296875,-47.8515625
-62.01171875,-63.96484375,-49.31640625,-55.6640625
-69.3359375,-47.36328125,-47.8515625,-54.19921875
-47.36328125,-17.578125,-46.38671875,-44.921875
-30.76171875,-23.92578125,-56.640625,-44.43359375
-40.52734375,-48.33984375,-57.12890625,-51.26953125
-53.7109375,-50.29296875,-46.875,-50.29296875
-62.98828125,-70.80078125,-53.7109375,-47.36328125
-50.29296875,-41.50390625,-56.640625,-45.41015625
-32.2265625,-15.13671875,-47.8515625,-43.45703125
-38.0859375,-55.6640625,-44.921875,-47.36328125
-55.17578125,-74.21875,-46.38671875,-50.29296875
-66.40625,-70.80078125,-51.26953125,-47.8515625
-52.734375,-25.87890625,-50.78125,-41.9921875
-38.0859375,-18.5546875,-49.31640625,-41.9921875
-40.52734375,-46.875,-51.26953125,-48.828125
-50.29296875,-62.01171875,-48.33984375,-51.7578125
-56.15234375,-65.4296875,-42.48046875,-46.38671875
-47.36328125,-7.32421875,-41.9921875,-36.62109375
-34.1796875,-5.859375,-44.43359375,-33.203125
-31.25,-64.453125,-43.9453125,-42.48046875
-45.41015625,-78.61328125,-42.48046875,-51.26953125
-59.08203125,-66.40625,-42.48046875,-47.36328125
-62.01171875,-36.1328125,-50.29296875,-41.015625
-56.640625,-20.5078125,-54.19921875,-39.0625
-49.31640625,-43.45703125,-51.7578125,-48.828125
-50.29296875,-75.1953125,-44.921875,-51.26953125
-60.05859375,-71.77734375,-41.015625,-44.43359375
-56.15234375,-33.203125,-40.0390625,-39.0625
-34.66796875,-2.44140625,-39.55078125,-36.1328125
-29.78515625,-12.6953125,-44.43359375,-43.45703125
-39.0625,-68.84765625,-48.33984375,-50.78125
-54.6875,-79.58984375,-48.828125,-49.31640625
-53.7109375,-32.71484375,-49.31640625,-41.50390625
-37.59765625,-27.83203125,-50.29296875,-38.57421875
-35.64453125,-43.45703125,-48.33984375,-48.33984375
-49.31640625,-64.453125,-47.36328125,-58.59375
-64.94140625,-81.0546875,-45.41015625,-56.15234375
-60.546875,-50.78125,-45.8984375,-47.8515625
-43.45703125,-18.5546875,-50.29296875,-42.48046875
-37.109375,-31.25,-48.828125,-45.8984375
-46.875,-67.87109375,-44.921875,-53.22265625
-57.6171875,-66.40625,-44.43359375,-55.17578125
-51.26953125,-47.36328125,-46.875,-46.38671875
-42.48046875,-33.203125,-48.828125,-41.9921875
-42.48046875,-20.99609375,-50.29296875,-44.43359375
-57.6171875,-60.546875,-49.8046875,-59.08203125
-73.73046875,-80.56640625,-48.33984375,-68.359375
-73.73046875,-51.26953125,-43.45703125,-63.96484375
-67.3828125,-19.53125,-41.50390625,-63.96484375
-62.98828125,-19.04296875,-47.36328125,-70.3125
-66.89453125,-37.109375,-50.29296875,-81.54296875
-87.40234375,-57.6171875,-51.7578125,-93.26171875
-101.07421875,-48.33984375,-51.7578125,-94.23828125
-94.23828125,9.765625,-46.875,-90.33203125
-95.21484375,-1.953125,-45.41015625,-98.6328125
-101.5625,-33.69140625,-45.8984375,-108.3984375
-124.0234375,-43.45703125,-47.8515625,-117.1875
-148.92578125,-37.109375,-50.29296875,-136.23046875
-148.4375,-5.37109375,-45.8984375,-141.6015625
-139.6484375,2.9296875,-41.015625,-137.20703125
-143.5546875,-17.08984375,-39.0625,-145.01953125
-158.203125,-42.96875,-40.52734375,-154.78515625
-174.31640625,-49.31640625,-46.38671875,-163.57421875
-167.96875,-12.6953125,-46.875,-160.15625
-152.34375,19.53125,-43.9453125,-156.25
-144.53125,0.9765625,-39.55078125,-153.80859375
-148.4375,-47.8515625,-39.0625,-156.25
-153.80859375,-51.26953125,-41.015625,-155.76171875
-149.4140625,-10.7421875,-39.55078125,-145.01953125
-140.13671875,3.90625,-43.45703125,-143.06640625
-137.20703125,-12.6953125,-40.0390625,-144.53125
-155.76171875,-44.921875,-37.59765625,-151.85546875
-170.8984375,-60.05859375,-37.59765625,-149.90234375
-156.25,-29.78515625,-35.64453125,-136.23046875
-122.55859375,-2.44140625,-34.66796875,-120.60546875
-107.91015625,-20.5078125,-29.296875,-115.234375
-128.90625,-63.96484375,-31.25,-124.0234375
-146.484375,-62.5,-31.73828125,-124.51171875
-133.30078125,-32.71484375,-31.25,-109.86328125
-98.14453125,-34.66796875,-32.71484375,-95.21484375
-96.6796875,-46.38671875,-26.3671875,-106.93359375
-106.4453125,-64.94140625,-28.3203125,-115.72265625
-97.16796875,-84.9609375,-30.2734375,-96.19140625
-96.19140625,-68.84765625,-22.4609375,-84.9609375
-76.171875,-35.64453125,-21.484375,-75.68359375
-62.5,-41.50390625,-24.90234375,-71.77734375
-75.1953125,-76.171875,-28.80859375,-78.125
-79.58984375,-116.2109375,-37.59765625,-67.87109375
-79.1015625,-94.23828125,-41.015625,-54.19921875
-68.359375,-31.25,-37.109375,-48.828125
-41.50390625,-56.640625,-35.15625,-35.64453125
-33.69140625,-102.5390625,-37.59765625,-28.3203125
-41.015625,-81.54296875,-40.52734375,-33.203125
-31.73828125,-84.9609375,-45.8984375,-23.4375
-28.80859375,-65.91796875,-48.828125,-13.671875
-18.06640625,-52.734375,-51.7578125,-14.6484375
-2.44140625,-83.984375,-51.7578125,-17.08984375
-16.11328125,-91.796875,-49.31640625,-16.6015625
-18.5546875,-74.21875,-48.33984375,-6.8359375
-1.46484375,-51.26953125,-48.828125,3.41796875
19.53125,-36.1328125,-49.8046875,8.30078125
25.87890625,-44.43359375,-47.36328125,7.8125
2.44140625,-98.6328125,-50.78125,-1.46484375
-15.13671875,-110.3515625,-61.03515625,0.48828125
-2.9296875,-48.828125,-62.5,10.25390625
9.765625,-39.0625,-62.98828125,10.7421875
2.44140625,-62.5,-62.5,7.32421875
-7.8125,-86.42578125,-57.6171875,2.9296875
-17.578125,-98.14453125,-51.26953125,0.0
-15.625,-60.546875,-50.29296875,0.48828125
1.46484375,-44.921875,-50.29296875,1.953125
4.39453125,-53.22265625,-51.7578125,-6.8359375
-8.7890625,-81.0546875,-59.5703125,-15.13671875
-9.765625,-73.73046875,-59.08203125,-4.8828125
0.48828125,-57.12890625,-56.15234375,3.90625
14.16015625,-45.41015625,-54.19921875,3.90625
23.92578125,-41.015625,-53.22265625,4.8828125
15.13671875,-81.54296875,-58.59375,0.0
0.0,-90.33203125,-58.10546875,-6.34765625
-4.39453125,-55.6640625,-54.6875,0.48828125
2.44140625,-36.62109375,-50.78125,11.23046875
4.39453125,-39.55078125,-45.8984375,10.25390625
-8.7890625,-67.3828125,-45.8984375,2.9296875
-20.5078125,-98.14453125,-51.26953125,-2.9296875
-20.99609375,-61.5234375,-58.59375,0.9765625
-11.71875,-6.34765625,-60.546875,3.90625
-3.90625,-35.15625,-56.15234375,0.9765625
-10.25390625,-85.44921875,-52.24609375,-8.7890625
-22.4609375,-87.890625,-50.78125,-12.6953125
-23.4375,-63.4765625,-50.78125,-7.8125
-10.25390625,-30.2734375,-53.7109375,-10.7421875
4.39453125,-21.97265625,-51.26953125,-18.06640625
0.0,-60.05859375,-49.31640625,-26.85546875
-16.11328125,-84.47265625,-51.26953125,-26.3671875
-26.3671875,-61.03515625,-48.33984375,-18.5546875
-21.484375,-29.296875,-47.8515625,-13.18359375
-8.30078125,-26.85546875,-49.8046875,-12.6953125
-13.18359375,-39.0625,-54.19921875,-16.6015625
-24.90234375,-74.21875,-56.15234375,-18.06640625
-27.83203125,-81.54296875,-51.26953125,-9.27734375
-21.484375,-33.69140625,-49.8046875,-5.37109375
-11.71875,-25.87890625,-49.31640625,-15.13671875
-18.5546875,-61.5234375,-49.8046875,-26.85546875
-34.66796875,-90.8203125,-49.31640625,-31.25
-46.38671875,-83.49609375,-50.29296875,-30.2734375
-37.109375,-35.64453125,-47.8515625,-22.4609375
-20.01953125,-18.06640625,-47.36328125,-16.11328125
-21.97265625,-45.41015625,-48.828125,-23.4375
-31.25,-67.87109375,-45.41015625,-31.25
-41.9921875,-58.59375,-46.875,-30.76171875
-40.0390625,-31.25,-48.828125,-29.296875
-22.94921875,-17.578125,-44.921875,-31.25
-22.4609375,-37.59765625,-41.50390625,-34.66796875
-32.2265625,-72.75390625,-46.875,-36.1328125
-37.59765625,-73.2421875,-50.78125,-34.1796875
-33.203125,-37.59765625,-45.41015625,-25.87890625
-12.6953125,-14.6484375,-37.109375,-16.6015625
-11.23046875,-30.2734375,-35.64453125,-20.01953125
-27.34375,-53.22265625,-40.52734375,-30.76171875
-41.015625,-77.1484375,-41.50390625,-33.69140625
-48.33984375,-39.55078125,-41.9921875,-26.85546875
-38.57421875,3.41796875,-42.48046875,-24.90234375
-30.2734375,-32.71484375,-38.57421875,-34.1796875
-46.875,-76.171875,-40.0390625,-41.9921875
-59.08203125,-71.2890625,-41.9921875,-43.45703125
-51.7578125,-45.41015625,-45.41015625,-41.9921875
-30.76171875,-17.578125,-46.875,-35.15625
-20.99609375,-12.20703125,-43.9453125,-37.59765625
-28.80859375,-52.734375,-42.96875,-49.31640625
-47.36328125,-76.171875,-47.36328125,-59.5703125
-52.24609375,-56.640625,-49.8046875,-53.22265625
-34.66796875,-15.13671875,-48.33984375,-43.45703125
-21.484375,-11.23046875,-48.33984375,-41.015625
-23.4375,-39.55078125,-44.921875,-39.0625
-45.41015625,-74.70703125,-43.9453125,-43.9453125
-57.6171875,-74.21875,-42.96875,-42.96875
-39.0625,-25.87890625,-42.48046875,-32.2265625
-26.85546875,-16.6015625,-44.43359375,-32.2265625
-29.296875,-49.8046875,-45.41015625,-35.64453125
-39.0625,-67.3828125,-46.875,-33.203125
-47.8515625,-59.08203125,-47.8515625,-27.83203125
-38.57421875,-23.4375,-47.8515625,-23.4375
-33.203125,-5.859375,-44.43359375,-24.90234375
-41.9921875,-55.6640625,-48.33984375,-38.57421875
-52.734375,-85.44921875,-53.7109375,-50.29296875
-53.7109375,-46.875,-54.6875,-41.9921875
-43.45703125,-24.90234375,-54.6875,-37.109375
-31.73828125,-31.73828125,-49.31640625,-43.45703125
-32.71484375,-46.38671875,-42.96875,-51.7578125
-42.96875,-80.56640625,-45.41015625,-55.6640625
-54.6875,-75.68359375,-48.828125,-49.31640625
-51.7578125,-18.5546875,-46.875,-40.52734375
-31.25,-9.27734375,-39.55078125,-36.62109375
-30.2734375,-44.43359375,-39.55078125,-41.50390625
-44.921875,-69.82421875,-47.36328125,-50.78125
-52.24609375,-79.58984375,-48.33984375,-49.8046875
-44.921875,-35.15625,-49.31640625,-42.96875
-24.90234375,3.90625,-48.828125,-41.9921875
-21.97265625,-21.484375,-45.8984375,-41.9921875
-43.45703125,-91.30859375,-50.29296875,-49.31640625
-58.59375,-94.23828125,-51.7578125,-51.26953125
-52.734375,-43.9453125,-46.875,-42.48046875
-38.0859375,-26.85546875,-46.38671875,-41.50390625
-36.62109375,-30.76171875,-43.45703125,-47.8515625
-50.29296875,-60.546875,-43.9453125,-53.7109375
-65.4296875,-76.66015625,-47.8515625,-54.6875
-60.546875,-44.921875,-42.96875,-52.24609375
-42.48046875,-21.484375,-40.0390625,-52.24609375
-34.66796875,-21.484375,-40.0390625,-51.26953125
-50.29296875,-42.96875,-44.43359375,-59.08203125
-69.3359375,-88.37890625,-54.6875,-66.40625
-69.82421875,-62.98828125,-53.22265625,-55.6640625
-55.6640625,-11.23046875,-44.43359375,-50.29296875
-50.29296875,-35.64453125,-38.0859375,-56.15234375
-59.5703125,-69.82421875,-37.59765625,-57.6171875
-62.01171875,-73.2421875,-40.0390625,-58.10546875
-54.19921875,-51.7578125,-40.52734375,-50.29296875
-38.0859375,-11.71875,-41.015625,-40.52734375
-31.25,-12.20703125,-41.9921875,-41.015625
-40.0390625,-51.7578125,-40.52734375,-44.921875
-49.8046875,-55.6640625,-38.0859375,-43.9453125
-53.22265625,-42.48046875,-39.0625,-37.109375
-37.59765625,-33.203125,-41.015625,-28.3203125
-24.90234375,-33.203125,-45.8984375,-31.73828125
-34.66796875,-58.59375,-44.43359375,-41.015625
-56.15234375,-74.21875,-45.8984375,-45.41015625
-64.94140625,-58.10546875,-48.828125,-43.45703125
-52.734375,-20.99609375,-42.96875,-41.9921875
-37.59765625,-23.4375,-41.015625,-45.8984375
-41.50390625,-45.8984375,-43.45703125,-56.15234375
-54.19921875,-61.5234375,-46.38671875,-61.03515625
-60.05859375,-66.89453125,-49.8046875,-53.22265625
-57.6171875,-27.83203125,-50.78125,-47.36328125
-43.45703125,3.90625,-51.7578125,-46.38671875
-45.41015625,-40.52734375,-51.7578125,-53.22265625
-60.05859375,-82.51953125,-48.828125,-57.6171875
-71.2890625,-73.73046875,-45.41015625,-51.26953125
-64.453125,-35.15625,-49.8046875,-45.41015625
-40.52734375,-10.7421875,-50.29296875,-41.015625
-36.62109375,-27.34375,-44.43359375,-45.8984375
-46.38671875,-59.08203125,-46.875,-49.31640625
-59.08203125,-63.96484375,-49.8046875,-50.29296875
-62.5,-29.296875,-50.29296875,-44.43359375
-42.48046875,-21.484375,-55.17578125,-39.0625
-35.15625,-28.80859375,-53.7109375,-43.9453125
-50.78125,-49.8046875,-46.875,-48.33984375
-62.98828125,-80.56640625,-51.7578125,-48.33984375
-59.08203125,-57.12890625,-58.59375,-43.9453125
-45.8984375,-29.78515625,-52.734375,-40.0390625
-40.0390625,-37.109375,-46.38671875,-44.43359375
-38.0859375,-56.15234375,-47.36328125,-49.31640625
-50.29296875,-71.77734375,-50.78125,-49.31640625
-54.6875,-49.8046875,-56.15234375,-52.24609375
-36.62109375,-13.671875,-53.7109375,-49.31640625
-33.203125,-15.13671875,-47.36328125,-54.6875
-50.78125,-56.15234375,-50.78125,-67.87109375
-60.05859375,-75.1953125,-52.24609375,-61.5234375
-57.12890625,-43.9453125,-46.875,-52.24609375
-43.9453125,-11.23046875,-45.8984375,-47.8515625
-35.15625,-45.41015625,-51.26953125,-45.41015625
-41.50390625,-78.61328125,-51.7578125,-48.33984375
-52.24609375,-70.80078125,-45.8984375,-48.33984375
-51.7578125,-54.19921875,-44.43359375,-41.015625
-36.1328125,-17.578125,-41.9921875,-33.203125
-24.4140625,-9.27734375,-34.1796875,-38.0859375
-25.390625,-39.0625,-37.59765625,-46.875
-43.45703125,-67.87109375,-43.9453125,-48.828125
-64.453125,-68.359375,-49.8046875,-52.24609375
-60.05859375,-30.2734375,-55.17578125,-47.36328125
-49.8046875,-10.25390625,-53.7109375,-41.9921875
-53.22265625,-65.91796875,-48.33984375,-50.29296875
-66.40625,-87.890625,-45.8984375,-56.640625
-69.82421875,-46.38671875,-46.875,-46.875
-51.26953125,-31.25,-48.33984375,-39.0625
-37.109375,-29.78515625,-41.50390625,-40.0390625
-37.109375,-47.36328125,-39.0625,-48.33984375
-46.875,-77.1484375,-48.33984375,-59.5703125
-60.05859375,-82.03125,-53.7109375,-57.12890625
-50.78125,-35.15625,-48.828125,-48.828125
-26.85546875,-12.6953125,-41.9921875,-44.43359375
-30.76171875,-32.2265625,-39.0625,-45.41015625
-48.33984375,-50.29296875,-45.41015625,-55.17578125
-66.89453125,-83.49609375,-51.7578125,-61.03515625
-68.359375,-54.19921875,-54.6875,-56.15234375
-43.45703125,-20.01953125,-53.7109375,-49.31640625
-35.15625,-39.0625,-50.29296875,-47.36328125
-43.9453125,-68.84765625,-45.41015625,-49.8046875
-54.6875,-79.1015625,-42.96875,-51.26953125
-55.6640625,-55.6640625,-45.8984375,-44.43359375
-39.0625,-27.34375,-49.31640625,-37.109375
-34.1796875,-39.0625,-45.41015625,-42.48046875
-46.875,-70.80078125,-41.015625,-50.78125
-63.96484375,-78.125,-45.8984375,-49.8046875
-68.359375,-34.66796875,-46.875,-43.45703125
-47.8515625,-26.3671875,-41.9921875,-39.55078125
-39.55078125,-43.9453125,-44.43359375,-46.38671875
-49.31640625,-60.05859375,-52.734375,-55.17578125
-59.08203125,-74.70703125,-54.19921875,-58.10546875
-66.40625,-48.828125,-55.6640625,-54.6875
-49.8046875,-20.01953125,-54.19921875,-51.7578125
-37.59765625,-34.1796875,-55.6640625,-56.640625
-45.41015625,-58.10546875,-54.6875,-61.5234375
-61.03515625,-59.5703125,-51.26953125,-59.08203125
-68.84765625,-64.453125,-51.7578125,-46.38671875
-55.17578125,-25.390625,-49.31640625,-43.45703125
-41.9921875,-2.44140625,-43.45703125,-49.31640625
-39.0625,-54.19921875,-40.52734375,-49.8046875
-51.7578125,-84.47265625,-46.875,-52.734375
-64.453125,-66.89453125,-52.24609375,-50.29296875
-56.15234375,-26.3671875,-54.19921875,-48.828125
-41.015625,-21.484375,-46.875,-47.36328125
-42.48046875,-53.22265625,-35.64453125,-46.875
-56.640625,-72.265625,-37.109375,-51.7578125
-61.03515625,-70.3125,-42.96875,-51.26953125
-48.33984375,-30.76171875,-40.52734375,-44.921875
-36.1328125,-17.08984375,-39.0625,-40.52734375
-40.52734375,-46.875,-47.36328125,-48.33984375
-49.8046875,-62.5,-45.41015625,-53.22265625
-55.6640625,-59.5703125,-41.015625,-45.8984375
-50.78125,-39.0625,-47.36328125,-42.48046875
-32.71484375,-13.18359375,-46.875,-38.0859375
-30.2734375,-23.92578125,-41.50390625,-40.0390625
-46.875,-64.94140625,-40.52734375,-50.78125
-66.40625,-75.68359375,-44.921875,-51.7578125
-58.59375,-32.71484375,-43.9453125,-44.921875
-33.203125,-13.671875,-40.0390625,-38.57421875
-30.76171875,-32.71484375,-48.33984375,-46.38671875
-37.109375,-69.82421875,-52.734375,-59.08203125
-43.45703125,-69.82421875,-46.875,-52.734375
-47.36328125,-18.06640625,-42.96875,-42.48046875
-32.2265625,-19.53125,-45.8984375,-40.52734375
-26.3671875,-39.0625,-51.26953125,-40.52734375
-31.73828125,-53.7109375,-47.8515625,-38.57421875
-39.55078125,-76.171875,-46.875,-36.62109375
-46.38671875,-48.33984375,-47.36328125,-33.69140625
-32.2265625,-10.25390625,-48.33984375,-28.3203125
-30.2734375,-24.4140625,-49.8046875,-36.1328125
-48.828125,-68.84765625,-51.26953125,-52.24609375
-63.4765625,-66.40625,-49.8046875,-54.19921875
-67.87109375,-41.50390625,-50.29296875,-54.19921875
-55.17578125,-23.92578125,-53.22265625,-57.12890625
-49.8046875,-12.20703125,-48.33984375,-59.5703125
-60.546875,-60.05859375,-51.26953125,-66.40625
-66.89453125,-93.26171875,-54.6875,-62.98828125
-64.94140625,-64.453125,-52.734375,-54.6875
-49.31640625,-21.97265625,-52.24609375,-52.24609375
-36.1328125,-14.6484375,-52.734375,-48.828125
-42.96875,-47.8515625,-57.6171875,-49.31640625
-60.05859375,-84.9609375,-62.5,-52.734375
-66.89453125,-77.63671875,-56.640625,-51.26953125
-57.6171875,-37.109375,-51.26953125,-43.45703125
-43.45703125,-28.3203125,-48.828125,-44.43359375
-49.8046875,-57.12890625,-52.24609375,-56.15234375
-68.359375,-75.1953125,-55.17578125,-63.4765625
-71.77734375,-83.984375,-54.6875,-60.05859375
-59.08203125,-51.7578125,-54.6875,-54.19921875
-48.828125,-29.78515625,-59.5703125,-55.17578125
-54.19921875,-52.24609375,-62.01171875,-60.05859375
-67.3828125,-68.84765625,-57.12890625,-58.10546875
-74.21875,-74.21875,-52.734375,-52.24609375
-66.89453125,-36.62109375,-53.7109375,-50.78125
-49.8046875,-19.53125,-50.29296875,-45.8984375
-45.41015625,-48.828125,-46.38671875,-44.921875
-50.78125,-90.33203125,-42.96875,-44.921875
-52.24609375,-71.2890625,-40.0390625,-40.52734375
-48.828125,-16.11328125,-42.48046875,-37.109375
-37.59765625,-31.25,-44.921875,-36.62109375
-35.15625,-65.91796875,-47.36328125,-41.9921875
-49.8046875,-79.58984375,-53.22265625,-50.78125
-60.546875,-76.171875,-49.8046875,-52.734375
-49.31640625,-48.33984375,-42.48046875,-44.921875
-27.34375,-19.04296875,-40.52734375,-38.57421875
-17.08984375,-25.390625,-41.50390625,-41.50390625
-32.2265625,-72.265625,-49.31640625,-51.26953125
-52.734375,-84.47265625,-56.640625,-52.24609375
-54.19921875,-38.0859375,-52.734375,-44.921875
-45.41015625,-17.08984375,-46.38671875,-39.55078125
-39.0625,-27.83203125,-44.921875,-42.48046875
-44.921875,-65.4296875,-45.8984375,-47.36328125
-56.640625,-99.609375,-41.015625,-48.33984375
-59.5703125,-65.91796875,-38.57421875,-43.45703125
-41.015625,-13.671875,-40.52734375,-35.15625
-23.4375,-15.13671875,-37.59765625,-30.2734375
-30.76171875,-53.7109375,-40.52734375,-36.1328125
-41.9921875,-70.80078125,-43.9453125,-36.62109375
-41.9921875,-55.17578125,-41.9921875,-30.76171875
-28.80859375,-14.6484375,-39.55078125,-24.90234375
-20.5078125,-10.7421875,-40.52734375,-29.296875
-33.69140625,-45.8984375,-39.0625,-44.921875
-48.33984375,-45.41015625,-36.1328125,-53.7109375
-51.26953125,-57.6171875,-40.52734375,-48.828125
-40.0390625,-23.4375,-42.96875,-43.45703125
-32.2265625,-1.953125,-40.52734375,-49.8046875
-43.9453125,-66.40625,-45.8984375,-64.453125
-61.03515625,-81.54296875,-51.7578125,-67.87109375
-70.80078125,-53.22265625,-53.7109375,-58.10546875
-58.10546875,-21.484375,-54.6875,-46.38671875
-39.0625,-16.6015625,-49.8046875,-41.015625
-44.43359375,-47.8515625,-47.36328125,-45.41015625
-55.17578125,-78.61328125,-51.26953125,-48.828125
-59.08203125,-74.21875,-51.7578125,-46.38671875
-45.8984375,-10.25390625,-47.8515625,-40.0390625
-26.85546875,-7.8125,-46.875,-36.1328125
-27.34375,-62.98828125,-49.31640625,-41.015625
-39.55078125,-74.70703125,-49.8046875,-52.734375
-52.24609375,-72.265625,-49.31640625,-54.19921875
-42.48046875,-30.2734375,-49.31640625,-47.36328125
-32.2265625,-11.71875,-48.33984375,-48.33984375
-40.52734375,-59.5703125,-47.36328125,-54.6875
-55.17578125,-70.80078125,-48.33984375,-59.08203125
-63.96484375,-66.89453125,-45.8984375,-53.22265625
-52.24609375,-43.45703125,-44.921875,-44.43359375
-31.73828125,1.46484375,-49.8046875,-41.015625
-31.73828125,-11.71875,-50.29296875,-42.96875
-49.8046875,-73.2421875,-52.734375,-54.6875
-62.01171875,-88.37890625,-54.19921875,-57.6171875
-56.640625,-41.9921875,-54.6875,-49.8046875
-37.59765625,-8.30078125,-53.7109375,-43.9453125
-36.62109375,-27.83203125,-47.36328125,-44.921875
-60.05859375,-63.96484375,-49.31640625,-52.734375
-76.66015625,-78.61328125,-52.734375,-53.7109375
-71.77734375,-40.52734375,-49.31640625,-48.33984375
-55.17578125,-4.39453125,-47.36328125,-43.9453125
-45.8984375,-43.45703125,-42.48046875,-41.9921875
-52.734375,-69.82421875,-37.59765625,-41.9921875
-65.4296875,-56.640625,-39.0625,-41.015625
-66.40625,-61.03515625,-47.8515625,-39.0625
-52.734375,-41.50390625,-49.8046875,-36.1328125
-41.50390625,-33.203125,-47.8515625,-39.0625
-44.43359375,-72.75390625,-50.29296875,-44.43359375
-57.12890625,-82.03125,-51.26953125,-52.24609375
-64.453125,-63.4765625,-50.29296875,-55.17578125
-52.734375,-34.1796875,-48.828125,-55.6640625
-38.57421875,-29.78515625,-49.8046875,-55.6640625
-43.9453125,-63.4765625,-54.6875,-61.03515625
-57.6171875,-78.61328125,-55.6640625,-67.3828125
-63.96484375,-62.5,-49.8046875,-57.6171875
-52.734375,-15.625,-49.31640625,-50.29296875
-35.15625,-10.25390625,-45.8984375,-43.9453125
-43.45703125,-58.10546875,-46.875,-49.31640625
-65.91796875,-78.125,-52.24609375,-57.12890625
-76.66015625,-64.453125,-49.8046875,-47.8515625
-63.4765625,-26.85546875,-43.9453125,-40.52734375
-48.33984375,-18.06640625,-48.33984375,-43.45703125
-51.7578125,-43.9453125,-52.24609375,-47.36328125
-58.10546875,-68.359375,-52.24609375,-48.33984375
-64.453125,-62.98828125,-51.26953125,-40.0390625
-56.15234375,-26.85546875,-44.43359375,-31.73828125
-32.2265625,-2.9296875,-47.36328125,-30.76171875
-23.4375,-14.16015625,-49.8046875,-32.71484375
-36.1328125,-82.51953125,-47.36328125,-37.109375
-47.8515625,-79.1015625,-49.31640625,-34.66796875
-41.50390625,-20.5078125,-51.26953125,-28.3203125
-28.80859375,-24.90234375,-46.875,-29.296875
-28.80859375,-45.8984375,-42.48046875,-41.50390625
-41.50390625,-79.1015625,-42.96875,-48.33984375
-55.17578125,-84.9609375,-42.96875,-43.45703125
-53.22265625,-48.33984375,-48.828125,-44.921875
-35.15625,-18.06640625,-49.31640625,-46.875
-32.71484375,-32.2265625,-48.33984375,-52.24609375
-49.8046875,-65.4296875,-52.24609375,-62.01171875
-60.546875,-55.17578125,-47.8515625,-62.5
-55.17578125,-41.50390625,-42.48046875,-52.24609375
-41.015625,-22.94921875,-46.875,-46.875
-36.1328125,-14.6484375,-48.828125,-51.26953125
-43.9453125,-60.05859375,-47.8515625,-56.640625
-48.828125,-66.40625,-46.875,-54.19921875
-47.8515625,-35.64453125,-53.7109375,-48.33984375
-37.109375,-26.3671875,-56.640625,-47.8515625
-31.25,-27.34375,-47.36328125,-50.78125
-42.96875,-57.6171875,-46.38671875,-61.03515625
-56.640625,-75.68359375,-50.29296875,-66.89453125
-59.08203125,-51.26953125,-50.29296875,-61.5234375
-52.24609375,0.0,-48.828125,-56.15234375
-52.24609375,-31.25,-52.24609375,-54.6875
-63.4765625,-81.0546875,-54.6875,-59.5703125
-72.265625,-77.63671875,-53.7109375,-61.5234375
-71.77734375,-62.98828125,-48.33984375,-53.7109375
-60.05859375,-21.484375,-48.33984375,-45.41015625
-47.36328125,-17.578125,-49.8046875,-46.38671875
-52.734375,-59.08203125,-41.50390625,-52.734375
-66.89453125,-79.1015625,-41.015625,-53.22265625
-68.84765625,-65.4296875,-41.9921875,-42.96875
-51.7578125,-39.55078125,-36.1328125,-33.69140625
-36.1328125,-31.73828125,-34.66796875,-33.69140625
-41.015625,-37.59765625,-36.1328125,-38.0859375
-58.10546875,-79.1015625,-35.15625,-41.9921875
-68.84765625,-86.9140625,-41.015625,-44.43359375
-54.19921875,-21.97265625,-45.41015625,-45.8984375
-38.0859375,-11.71875,-48.33984375,-51.7578125
-44.921875,-44.43359375,-52.24609375,-61.5234375
-54.19921875,-63.96484375,-50.29296875,-61.5234375
-62.01171875,-58.10546875,-49.31640625,-59.5703125
-56.15234375,-21.97265625,-46.875,-52.24609375
-34.1796875,-5.37109375,-42.96875,-42.96875
-32.2265625,-34.66796875,-44.921875,-49.31640625
-40.0390625,-66.89453125,-45.41015625,-50.78125
-48.828125,-50.29296875,-44.43359375,-43.9453125
-50.78125,-25.87890625,-45.41015625,-38.0859375
-36.1328125,-41.50390625,-48.33984375,-35.64453125
-37.59765625,-43.9453125,-47.8515625,-41.9921875
-60.05859375,-59.08203125,-49.31640625,-54.6875
-69.3359375,-77.63671875,-50.78125,-48.33984375
-57.12890625,-41.50390625,-49.31640625,-28.3203125
-49.31640625,-18.5546875,-49.8046875,-35.64453125
-57.6171875,-32.71484375,-53.22265625,-59.08203125
-71.77734375,-52.734375,-55.17578125,-67.3828125
-80.56640625,-76.66015625,-52.734375,-62.5
-68.84765625,-42.48046875,-55.17578125,-52.24609375
-48.33984375,10.25390625,-57.12890625,-46.875
-43.9453125,-36.1328125,-61.03515625,-58.10546875
-53.7109375,-72.75390625,-65.4296875,-65.91796875
-60.546875,-59.5703125,-59.08203125,-60.546875
-61.5234375,-48.828125,-56.640625,-55.6640625
-48.828125,-20.01953125,-59.5703125,-50.78125
-40.52734375,-20.99609375,-61.5234375,-54.19921875
-41.015625,-53.7109375,-60.546875,-61.5234375
-49.31640625,-59.08203125,-62.01171875,-64.94140625
-48.33984375,-40.52734375,-61.03515625,-57.6171875
-37.109375,-19.04296875,-60.546875,-47.36328125
-32.71484375,-8.7890625,-57.6171875,-43.9453125
-36.62109375,-36.1328125,-54.6875,-46.875
-56.15234375,-68.359375,-58.10546875,-55.6640625
-67.87109375,-67.87109375,-60.546875,-50.29296875
-51.26953125,-22.4609375,-56.640625,-39.55078125
-39.0625,-10.7421875,-55.6640625,-38.0859375
-50.78125,-47.8515625,-53.7109375,-50.29296875
-67.3828125,-69.82421875,-49.31640625,-56.15234375
-72.75390625,-61.5234375,-47.8515625,-48.33984375
-59.5703125,-19.53125,-47.36328125,-36.1328125
-42.48046875,-11.23046875,-48.33984375,-32.71484375
-38.57421875,-48.828125,-47.36328125,-42.96875
-47.8515625,-65.4296875,-44.921875,-52.734375
-60.546875,-58.10546875,-45.41015625,-52.24609375
-57.12890625,-37.59765625,-53.22265625,-49.8046875
-40.52734375,-31.25,-57.6171875,-48.828125
-37.59765625,-41.50390625,-54.6875,-53.7109375
-45.41015625,-62.01171875,-52.734375,-65.91796875
-50.78125,-67.87109375,-58.59375,-67.87109375
-54.19921875,-29.296875,-58.59375,-58.10546875
-43.45703125,-18.5546875,-52.734375,-50.78125
-37.109375,-37.109375,-57.6171875,-54.19921875
-54.6875,-60.05859375,-57.12890625,-61.03515625
-66.89453125,-88.37890625,-48.33984375,-55.17578125
-61.03515625,-35.15625,-51.26953125,-46.38671875
-41.50390625,18.06640625,-53.22265625,-43.45703125
-34.1796875,-37.109375,-48.33984375,-46.38671875
-45.41015625,-83.0078125,-43.9453125,-48.33984375
-58.59375,-77.1484375,-43.45703125,-48.33984375
-60.05859375,-49.8046875,-47.8515625,-46.38671875
-44.43359375,-15.13671875,-49.8046875,-47.36328125
-36.62109375,-23.4375,-51.26953125,-59.08203125
-44.921875,-58.59375,-52.24609375,-63.96484375
-53.22265625,-70.3125,-49.31640625,-60.546875
-52.734375,-45.8984375,-52.24609375,-53.7109375
-35.15625,-17.578125,-55.6640625,-46.38671875
-27.83203125,-20.99609375,-51.26953125,-49.31640625
-39.0625,-44.43359375,-45.8984375,-54.6875
-57.12890625,-63.96484375,-48.33984375,-60.05859375
-58.10546875,-68.359375,-46.875,-53.7109375
-33.203125,-31.73828125,-42.48046875,-42.48046875
-22.4609375,-18.06640625,-41.015625,-43.45703125
-35.64453125,-64.94140625,-43.9453125,-52.24609375
-50.78125,-89.35546875,-44.921875,-56.640625
-53.22265625,-63.4765625,-44.43359375,-48.828125
-50.29296875,-26.85546875,-45.41015625,-43.9453125
-42.48046875,-25.87890625,-44.43359375,-50.78125
-48.33984375,-55.6640625,-44.43359375,-57.12890625
-62.5,-73.2421875,-42.48046875,-54.6875
-66.89453125,-54.6875,-43.9453125,-52.734375
-57.12890625,-40.52734375,-49.31640625,-49.31640625
-42.96875,-42.96875,-44.921875,-37.109375
-36.1328125,-44.43359375,-33.203125,-36.62109375
-45.41015625,-83.0078125,-40.0390625,-42.96875
-50.29296875,-77.63671875,-51.7578125,-33.203125
-38.0859375,-23.92578125,-38.57421875,-23.92578125
-26.3671875,-13.18359375,-34.66796875,-31.25
-26.3671875,-38.57421875,-40.0390625,-39.55078125
-42.96875,-71.77734375,-33.69140625,-45.41015625
-59.5703125,-74.70703125,-34.66796875,-43.9453125
-59.5703125,-24.90234375,-39.55078125,-40.52734375
-39.0625,3.41796875,-41.9921875,-40.0390625
-31.25,-34.66796875,-45.41015625,-43.9453125
-41.9921875,-73.2421875,-48.33984375,-52.24609375
-53.7109375,-65.4296875,-47.8515625,-52.734375
-57.6171875,-32.2265625,-43.45703125,-45.41015625
-36.62109375,-7.32421875,-41.015625,-37.109375
-26.85546875,-12.6953125,-44.921875,-37.59765625
-45.41015625,-65.91796875,-46.875,-46.875
-55.6640625,-77.1484375,-49.31640625,-50.29296875
-47.8515625,-37.109375,-52.24609375,-41.015625
-38.0859375,-9.765625,-53.7109375,-35.15625
-35.15625,-25.390625,-51.26953125,-39.0625
-42.48046875,-42.96875,-49.8046875,-46.38671875
-58.10546875,-70.80078125,-50.29296875,-47.8515625
-56.15234375,-62.01171875,-42.48046875,-42.96875
-40.52734375,-15.625,-39.55078125,-38.57421875
-28.3203125,-18.5546875,-40.52734375,-41.9921875
-34.66796875,-58.59375,-39.55078125,-50.29296875
-48.828125,-70.80078125,-42.48046875,-47.8515625
-52.24609375,-52.24609375,-53.22265625,-41.50390625
-39.0625,-23.92578125,-52.734375,-35.15625
-31.25,-11.71875,-41.9921875,-35.64453125
-46.875,-68.359375,-44.43359375,-48.828125
-66.89453125,-79.1015625,-46.875,-59.08203125
-72.265625,-45.41015625,-47.8515625,-53.7109375
-58.59375,-35.64453125,-47.8515625,-44.43359375
-50.29296875,-33.69140625,-50.29296875,-45.8984375
-64.453125,-52.24609375,-51.7578125,-52.24609375
-83.49609375,-77.63671875,-52.24609375,-58.59375
-86.9140625,-59.5703125,-52.734375,-59.5703125
-71.2890625,-16.11328125,-49.8046875,-59.08203125
-49.8046875,-16.11328125,-44.43359375,-59.08203125
-51.26953125,-52.24609375,-42.48046875,-66.40625
-62.01171875,-82.51953125,-48.828125,-72.265625
-61.03515625,-69.3359375,-50.29296875,-57.12890625
-51.7578125,-18.5546875,-53.22265625,-47.8515625
-35.64453125,2.44140625,-51.7578125,-43.9453125
-26.3671875,-30.76171875,-41.015625,-39.55078125
-40.0390625,-85.44921875,-38.57421875,-45.8984375
-55.17578125,-83.0078125,-42.96875,-42.96875
-49.31640625,-28.80859375,-44.43359375,-30.2734375
-37.59765625,-13.671875,-42.96875,-28.3203125
-41.015625,-41.015625,-40.52734375,-39.0625
-56.15234375,-73.2421875,-45.8984375,-49.31640625
-67.87109375,-68.84765625,-50.78125,-49.31640625
-66.89453125,-34.66796875,-49.31640625,-44.921875
-49.31640625,-21.484375,-46.38671875,-50.29296875
-43.45703125,-29.78515625,-52.734375,-56.640625
-53.22265625,-43.9453125,-54.19921875,-62.5
-69.3359375,-89.84375,-49.31640625,-62.98828125
-73.2421875,-64.453125,-50.29296875,-56.640625
-53.7109375,-13.18359375,-49.8046875,-47.8515625
-46.38671875,-41.9921875,-53.22265625,-48.828125
-58.59375,-64.94140625,-60.05859375,-61.03515625
-69.82421875,-61.5234375,-56.15234375,-65.4296875
-62.01171875,-29.78515625,-48.33984375,-57.6171875
-42.96875,-14.16015625,-46.875,-51.7578125
-39.55078125,-28.80859375,-54.6875,-58.10546875
-43.9453125,-62.5,-59.08203125,-60.05859375
-59.08203125,-66.40625,-62.01171875,-58.10546875
-65.4296875,-33.203125,-62.98828125,-52.24609375
-39.55078125,-14.6484375,-51.7578125,-42.96875
-27.83203125,-23.92578125,-41.9921875,-41.50390625
-45.41015625,-66.40625,-47.36328125,-51.26953125
-65.4296875,-78.61328125,-49.31640625,-57.6171875
-66.40625,-53.22265625,-50.78125,-53.22265625
-47.36328125,-11.23046875,-51.26953125,-45.41015625
-37.59765625,-19.04296875,-49.31640625,-47.36328125
-42.48046875,-58.59375,-48.828125,-53.22265625
-57.12890625,-72.265625,-44.43359375,-54.19921875
-66.89453125,-52.734375,-41.50390625,-49.8046875
-55.6640625,-16.11328125,-42.48046875,-46.38671875
-44.921875,2.44140625,-43.45703125,-49.31640625
-49.8046875,-46.38671875,-49.31640625,-57.12890625
-60.05859375,-93.26171875,-56.15234375,-60.05859375
-68.84765625,-78.61328125,-51.26953125,-53.22265625
-59.08203125,-32.71484375,-46.875,-45.41015625
-40.0390625,-18.06640625,-48.33984375,-48.33984375
-46.38671875,-55.17578125,-43.45703125,-57.6171875
-64.453125,-82.51953125,-43.45703125,-64.94140625
-70.3125,-63.96484375,-48.828125,-57.6171875
-52.734375,-10.25390625,-45.41015625,-45.8984375
-42.96875,-27.83203125,-45.8984375,-48.828125
-56.640625,-54.6875,-54.19921875,-62.01171875
-67.3828125,-54.6875,-52.734375,-66.89453125
-74.21875,-71.77734375,-46.38671875,-55.17578125
-70.80078125,-49.8046875,-48.828125,-43.45703125
-51.7578125,-14.16015625,-45.8984375,-36.62109375
-44.921875,-33.203125,-43.9453125,-39.0625
-62.01171875,-71.2890625,-48.828125,-48.33984375
-69.82421875,-78.61328125,-46.875,-51.26953125
-57.6171875,-37.109375,-48.33984375,-46.38671875
-43.45703125,-14.16015625,-52.734375,-43.9453125
-42.96875,-38.57421875,-51.7578125,-50.78125
-48.828125,-64.94140625,-46.38671875,-55.17578125
-64.453125,-77.1484375,-44.921875,-57.12890625
-67.3828125,-31.73828125,-45.41015625,-52.734375
-41.015625,-17.08984375,-46.875,-44.43359375
-32.71484375,-49.8046875,-47.36328125,-48.33984375
-49.8046875,-63.96484375,-50.29296875,-59.08203125
-64.453125,-77.63671875,-56.640625,-60.546875
-65.4296875,-51.26953125,-53.22265625,-51.26953125
-48.828125,-17.578125,-49.31640625,-45.8984375
-41.015625,-17.08984375,-54.6875,-50.78125
-46.38671875,-43.9453125,-52.734375,-60.05859375
-58.10546875,-70.80078125,-49.8046875,-59.5703125
-61.5234375,-67.3828125,-47.36328125,-48.33984375
-40.52734375,-12.6953125,-47.8515625,-43.45703125
-26.85546875,-1.46484375,-54.6875,-47.36328125
-34.1796875,-75.1953125,-52.734375,-50.78125
-53.22265625,-87.40234375,-51.26953125,-52.734375
-57.12890625,-52.24609375,-49.8046875,-44.921875
-42.96875,-30.76171875,-45.41015625,-35.64453125
-30.2734375,-22.94921875,-49.31640625,-38.57421875
-36.1328125,-57.12890625,-49.8046875,-43.45703125
-47.36328125,-77.63671875,-46.875,-45.41015625
-56.640625,-72.75390625,-51.26953125,-45.41015625
-52.734375,-33.69140625,-56.640625,-42.48046875
-32.71484375,-25.87890625,-48.33984375,-40.0390625
-38.57421875,-59.08203125,-40.52734375,-47.36328125
-58.59375,-73.2421875,-42.96875,-52.734375
-67.87109375,-89.84375,-45.41015625,-49.8046875
-55.6640625,-57.12890625,-46.875,-47.36328125
-36.62109375,-31.25,-49.8046875,-47.8515625
-41.9921875,-56.640625,-50.78125,-53.7109375
-58.10546875,-72.75390625,-51.26953125,-55.17578125
-68.359375,-71.2890625,-49.31640625,-49.8046875
-53.22265625,-49.31640625,-48.828125,-41.015625
-35.64453125,-23.92578125,-50.78125,-39.55078125
-38.0859375,-40.0390625,-56.15234375,-50.29296875
-48.33984375,-79.1015625,-53.7109375,-59.5703125
-64.94140625,-73.73046875,-56.15234375,-63.96484375
-63.96484375,-25.390625,-60.05859375,-61.5234375
-42.96875,-22.94921875,-52.734375,-61.03515625
-42.48046875,-43.45703125,-48.33984375,-67.87109375
-60.546875,-74.21875,-50.78125,-67.3828125
-69.3359375,-78.125,-43.9453125,-57.6171875
-67.3828125,-37.59765625,-44.921875,-48.828125
-46.875,-13.18359375,-47.8515625,-42.96875
-33.69140625,-28.80859375,-42.48046875,-41.9921875
-41.50390625,-59.08203125,-44.921875,-47.8515625
-46.38671875,-64.453125,-46.875,-46.38671875
-43.9453125,-59.08203125,-49.31640625,-41.50390625
-24.4140625,-21.484375,-49.8046875,-40.52734375
-17.08984375,-8.7890625,-50.29296875,-42.48046875
-35.64453125,-68.359375,-48.33984375,-48.828125
-51.26953125,-84.9609375,-42.96875,-48.828125
-53.22265625,-51.7578125,-41.50390625,-40.52734375
-42.96875,-20.01953125,-41.015625,-37.59765625
-41.50390625,-16.6015625,-41.015625,-42.48046875
-48.33984375,-45.8984375,-39.0625,-45.41015625
-57.12890625,-70.3125,-41.50390625,-48.828125
-62.98828125,-50.29296875,-46.875,-45.41015625
-50.78125,-12.6953125,-46.38671875,-39.55078125
-36.1328125,-20.99609375,-45.41015625,-41.9921875
-43.45703125,-48.828125,-41.015625,-49.8046875
-62.01171875,-60.05859375,-39.0625,-58.10546875
-68.359375,-53.22265625,-41.50390625,-56.640625
-60.05859375,-32.2265625,-45.8984375,-50.78125
-50.78125,-30.76171875,-52.24609375,-52.24609375
-53.22265625,-56.15234375,-55.17578125,-60.05859375
-63.4765625,-79.58984375,-57.12890625,-67.87109375
-65.4296875,-70.3125,-57.12890625,-61.5234375
-53.22265625,-24.4140625,-55.17578125,-51.7578125
-37.59765625,-19.53125,-47.8515625,-48.33984375
-40.52734375,-46.38671875,-40.52734375,-53.22265625
-56.640625,-68.359375,-38.57421875,-60.546875
-63.96484375,-75.1953125,-41.50390625,-54.6875
-51.7578125,-18.06640625,-48.33984375,-41.015625
-37.59765625,-13.671875,-49.31640625,-36.1328125
-30.76171875,-47.8515625,-48.33984375,-38.57421875
-42.96875,-72.265625,-45.8984375,-42.96875
-66.89453125,-88.8671875,-48.828125,-45.41015625
-66.40625,-43.45703125,-52.734375,-39.0625
-59.5703125,-24.4140625,-51.26953125,-39.55078125
-53.22265625,-36.1328125,-48.828125,-44.921875
-53.7109375,-66.40625,-46.875,-53.22265625
-65.91796875,-75.1953125,-45.41015625,-54.6875
-58.59375,-44.43359375,-44.43359375,-45.8984375
-36.1328125,-13.671875,-44.43359375,-45.41015625
-29.78515625,-15.625,-44.43359375,-54.6875
-46.38671875,-77.63671875,-47.36328125,-66.40625
-62.5,-87.890625,-45.8984375,-65.91796875
-57.6171875,-38.57421875,-42.48046875,-58.10546875
-33.203125,-18.5546875,-41.9921875,-48.828125
-22.94921875,-20.01953125,-40.0390625,-44.43359375
-30.76171875,-53.7109375,-42.96875,-44.921875
-46.38671875,-77.1484375,-50.29296875,-42.48046875
-50.78125,-51.26953125,-48.33984375,-32.71484375
-33.69140625,-19.53125,-48.828125,-25.87890625
-28.3203125,-26.3671875,-52.24609375,-32.71484375
-40.0390625,-56.640625,-51.26953125,-39.0625
-51.7578125,-58.59375,-51.7578125,-39.0625
-54.19921875,-65.4296875,-51.7578125,-31.73828125
-38.57421875,-41.9921875,-49.31640625,-22.4609375
-28.3203125,-22.94921875,-51.26953125,-26.3671875
-40.0390625,-62.98828125,-54.6875,-45.8984375
-51.7578125,-81.54296875,-55.6640625,-56.15234375
-59.5703125,-62.98828125,-52.734375,-50.78125
-48.33984375,-32.2265625,-48.828125,-42.48046875
-29.78515625,-5.859375,-48.828125,-39.55078125
-34.66796875,-34.1796875,-53.22265625,-51.26953125
-56.15234375,-81.0546875,-62.98828125,-62.5
-70.80078125,-61.5234375,-62.98828125,-55.6640625
-61.03515625,-13.18359375,-57.6171875,-48.33984375
-45.8984375,-26.85546875,-55.6640625,-47.8515625
-43.45703125,-54.6875,-49.8046875,-50.29296875
-53.22265625,-65.91796875,-46.875,-53.7109375
-71.2890625,-64.453125,-50.78125,-57.12890625
-63.4765625,-29.78515625,-53.7109375,-50.29296875
-38.0859375,-13.671875,-54.6875,-40.0390625
-34.1796875,-26.3671875,-53.22265625,-42.48046875
-50.78125,-69.3359375,-51.26953125,-48.33984375
-59.5703125,-67.87109375,-51.7578125,-43.45703125
-49.8046875,-28.3203125,-51.7578125,-37.109375
-41.015625,-8.7890625,-48.33984375,-39.55078125
-36.1328125,-16.6015625,-45.8984375,-46.875
-39.0625,-61.5234375,-53.22265625,-49.8046875
-57.6171875,-86.9140625,-61.03515625,-49.8046875
-57.6171875,-51.26953125,-60.546875,-49.31640625
-35.64453125,-22.4609375,-55.17578125,-51.26953125
-34.1796875,-33.203125,-53.22265625,-58.10546875
-48.828125,-68.359375,-56.640625,-59.08203125
-56.640625,-76.66015625,-56.15234375,-52.24609375
-48.33984375,-45.8984375,-51.7578125,-51.7578125
-38.57421875,-20.5078125,-53.7109375,-53.7109375
-37.109375,-26.3671875,-54.19921875,-56.15234375
-45.8984375,-57.6171875,-49.31640625,-59.5703125
-62.98828125,-53.22265625,-50.78125,-59.5703125
-69.3359375,-42.96875,-55.17578125,-55.6640625
-52.24609375,-16.6015625,-51.26953125,-46.38671875
-36.1328125,-13.18359375,-43.9453125,-41.9921875
-43.9453125,-67.87109375,-42.96875,-48.33984375
-53.22265625,-73.2421875,-46.875,-52.24609375
-48.828125,-47.36328125,-40.52734375,-43.9453125
-39.55078125,-20.01953125,-37.59765625,-36.62109375
-28.80859375,-10.7421875,-43.45703125,-37.59765625
-28.3203125,-37.59765625,-46.38671875,-49.31640625
-40.0390625,-74.70703125,-46.875,-55.6640625
-51.7578125,-62.5,-51.26953125,-45.41015625
-44.43359375,-4.8828125,-52.24609375,-35.15625
-31.73828125,-15.625,-48.828125,-35.64453125
-35.15625,-63.96484375,-45.8984375,-42.48046875
-47.36328125,-75.1953125,-40.52734375,-43.45703125
-55.6640625,-72.265625,-39.55078125,-40.0390625
-45.41015625,-20.99609375,-41.015625,-36.1328125
-34.66796875,-6.34765625,-40.52734375,-36.62109375
-46.38671875,-62.98828125,-41.50390625,-51.7578125
-62.01171875,-85.44921875,-40.0390625,-61.5234375
-65.4296875,-59.5703125,-45.41015625,-56.15234375
-57.6171875,-28.3203125,-48.33984375,-52.24609375
-43.45703125,-8.7890625,-43.45703125,-50.29296875
-39.55078125,-22.94921875,-42.48046875,-47.36328125
-55.6640625,-83.984375,-45.8984375,-50.78125
-68.84765625,-93.75,-45.8984375,-49.8046875
-58.59375,-41.9921875,-45.41015625,-41.015625
-41.015625,-15.625,-48.33984375,-41.50390625
-38.57421875,-38.57421875,-51.7578125,-51.7578125
-51.26953125,-70.3125,-52.24609375,-59.5703125
-66.40625,-68.359375,-54.6875,-61.03515625
-65.4296875,-43.45703125,-50.29296875,-53.22265625
-48.33984375,-18.06640625,-41.9921875,-52.734375
-46.875,-36.62109375,-41.9921875,-63.96484375
-60.05859375,-70.80078125,-40.0390625,-66.89453125
-64.94140625,-69.82421875,-42.48046875,-59.5703125
-61.03515625,-53.22265625,-48.828125,-52.24609375
-46.38671875,-31.25,-50.29296875,-41.50390625
-42.96875,-41.9921875,-51.7578125,-45.41015625
-52.24609375,-71.2890625,-56.15234375,-51.7578125
-56.15234375,-78.61328125,-54.6875,-49.8046875
-51.7578125,-42.96875,-46.875,-42.96875
-39.55078125,-8.30078125,-39.0625,-38.57421875
-41.015625,-26.85546875,-37.109375,-45.8984375
-62.98828125,-68.359375,-42.96875,-58.10546875
-65.4296875,-73.73046875,-48.33984375,-60.546875
-57.12890625,-51.26953125,-50.78125,-52.24609375
-45.41015625,0.0,-47.8515625,-42.96875
-29.296875,-13.671875,-47.36328125,-44.921875
-40.0390625,-80.56640625,-54.19921875,-58.10546875
-60.546875,-91.796875,-54.19921875,-56.640625
-66.40625,-58.59375,-52.734375,-48.828125
-49.31640625,-15.13671875,-52.734375,-41.9921875
-33.69140625,-18.5546875,-54.6875,-38.57421875
-39.0625,-53.22265625,-61.03515625,-48.33984375
-50.29296875,-69.82421875,-61.03515625,-56.640625
-52.734375,-59.08203125,-56.640625,-58.10546875
-47.8515625,-25.390625,-55.6640625,-52.24609375
-41.9921875,-12.20703125,-48.33984375,-44.43359375
-43.9453125,-25.87890625,-42.96875,-47.8515625
-62.01171875,-74.21875,-45.41015625,-57.12890625
-71.77734375,-84.47265625,-47.8515625,-52.24609375
-60.546875,-31.73828125,-48.33984375,-41.50390625
-47.8515625,-33.203125,-44.43359375,-38.0859375
-46.875,-52.24609375,-42.96875,-43.9453125
-56.640625,-69.82421875,-47.8515625,-51.26953125
-64.94140625,-71.2890625,-49.31640625,-47.8515625
-50.29296875,-29.296875,-49.8046875,-34.1796875
-28.3203125,-15.625,-49.8046875,-31.25
-29.78515625,-50.78125,-51.7578125,-38.57421875
-41.9921875,-75.68359375,-52.734375,-44.43359375
-51.26953125,-60.546875,-50.78125,-46.38671875
-52.24609375,-39.0625,-52.734375,-44.43359375
-36.62109375,-34.1796875,-51.26953125,-39.0625
-38.0859375,-40.0390625,-48.828125,-41.015625
-57.6171875,-72.265625,-49.8046875,-51.26953125
-71.2890625,-70.80078125,-52.734375,-59.08203125
-69.82421875,-34.1796875,-55.17578125,-57.6171875
-56.640625,-32.2265625,-55.17578125,-54.6875
-55.6640625,-41.015625,-53.22265625,-60.05859375
-66.89453125,-61.5234375,-54.6875,-65.4296875
-71.77734375,-71.2890625,-55.17578125,-62.01171875
-68.84765625,-44.921875,-53.22265625,-53.7109375
-45.41015625,-3.41796875,-51.26953125,-39.0625
-30.76171875,-26.85546875,-53.7109375,-33.203125
-39.55078125,-57.6171875,-54.6875,-40.0390625
-50.78125,-61.5234375,-51.26953125,-43.45703125
-50.29296875,-57.12890625,-48.828125,-40.0390625
-35.64453125,-16.6015625,-47.36328125,-31.73828125
-26.85546875,-17.08984375,-47.8515625,-36.1328125
-40.0390625,-62.98828125,-47.8515625,-51.26953125
-58.10546875,-70.3125,-46.875,-59.08203125
-59.08203125,-49.8046875,-46.875,-53.7109375
-42.96875,-29.78515625,-46.38671875,-49.31640625
-31.73828125,-22.4609375,-50.29296875,-50.29296875
-34.66796875,-43.45703125,-54.6875,-55.6640625
-49.31640625,-72.265625,-51.26953125,-59.08203125
-60.546875,-77.1484375,-48.828125,-55.6640625
-50.78125,-29.296875,-48.828125,-49.31640625
-35.64453125,-17.08984375,-48.828125,-46.875
-40.0390625,-52.24609375,-50.78125,-54.6875
-62.5,-74.21875,-51.7578125,-61.03515625
-75.68359375,-65.4296875,-49.31640625,-55.17578125
-56.640625,-29.78515625,-47.8515625,-43.9453125
-37.59765625,-20.01953125,-47.8515625,-45.8984375
-41.015625,-48.828125,-44.921875,-50.78125
-51.26953125,-70.80078125,-41.50390625,-51.26953125
-52.734375,-45.8984375,-41.50390625,-46.38671875
-41.50390625,-14.6484375,-42.96875,-38.57421875
-33.69140625,-29.296875,-48.33984375,-39.55078125
-37.59765625,-51.7578125,-54.6875,-51.7578125
-48.828125,-72.75390625,-50.78125,-56.15234375
-55.17578125,-73.73046875,-43.9453125,-51.26953125
-53.22265625,-36.62109375,-47.8515625,-49.8046875
-38.57421875,-19.53125,-53.7109375,-48.33984375
-35.15625,-39.55078125,-50.29296875,-45.41015625
-50.78125,-67.87109375,-45.41015625,-45.8984375
-64.453125,-72.265625,-41.9921875,-45.41015625
-62.01171875,-29.296875,-41.50390625,-40.52734375
-42.96875,-2.44140625,-42.48046875,-36.1328125
-34.1796875,-40.52734375,-44.921875,-35.15625
-44.43359375,-74.21875,-44.921875,-36.62109375
-53.22265625,-72.75390625,-41.50390625,-36.1328125
-51.26953125,-54.19921875,-45.41015625,-39.55078125
-38.0859375,-23.4375,-45.8984375,-41.50390625
-30.2734375,-28.3203125,-43.45703125,-47.8515625
-37.109375,-61.03515625,-44.43359375,-59.08203125
-55.6640625,-83.0078125,-48.33984375,-60.546875
-58.59375,-53.7109375,-48.33984375,-46.875
-41.9921875,-19.04296875,-46.38671875,-38.0859375
-32.71484375,-17.08984375,-39.55078125,-43.45703125
-37.109375,-38.0859375,-35.64453125,-49.8046875
-52.734375,-76.66015625,-44.43359375,-49.8046875
-65.4296875,-69.82421875,-50.29296875,-48.33984375
-47.36328125,-18.5546875,-47.8515625,-41.50390625
-29.296875,-20.01953125,-46.875,-40.52734375
-44.921875,-63.4765625,-46.875,-51.26953125
-59.08203125,-59.08203125,-46.875,-51.7578125
-58.59375,-56.15234375,-45.41015625,-43.45703125
-52.734375,-23.92578125,-43.9453125,-41.50390625
-40.0390625,-11.71875,-47.8515625,-40.52734375
-42.48046875,-51.26953125,-49.8046875,-50.78125
-57.6171875,-67.3828125,-51.7578125,-60.546875
-61.5234375,-45.41015625,-59.08203125,-51.7578125
-50.78125,-22.4609375,-56.15234375,-42.48046875
-40.52734375,-26.3671875,-49.31640625,-43.9453125
-40.0390625,-47.8515625,-46.875,-47.36328125
-47.36328125,-67.87109375,-47.36328125,-47.8515625
-57.12890625,-63.96484375,-44.43359375,-43.45703125
-48.828125,-30.2734375,-41.9921875,-36.1328125
-30.76171875,-18.5546875,-58.59375,-30.2734375
-31.25,-33.69140625,-58.10546875,-36.1328125
-47.8515625,-70.3125,-41.015625,-42.48046875
-62.98828125,-95.21484375,-41.015625,-44.43359375
-56.640625,-35.64453125,-44.43359375,-46.38671875
-44.921875,-7.8125,-49.8046875,-48.828125
-39.55078125,-52.734375,-47.8515625,-50.78125
-48.33984375,-73.73046875,-53.7109375,-53.22265625
-69.3359375,-72.75390625,-58.59375,-59.08203125
-69.3359375,-45.41015625,-48.828125,-57.6171875
-49.8046875,-11.23046875,-40.52734375,-53.7109375
-43.9453125,-25.390625,-44.921875,-53.7109375
-54.19921875,-66.40625,-48.33984375,-58.59375
-57.6171875,-66.40625,-46.875,-58.59375
-49.31640625,-29.296875,-47.36328125,-50.78125
-30.76171875,-19.04296875,-46.38671875,-41.9921875
-28.80859375,-27.34375,-57.6171875,-47.36328125
-41.015625,-42.48046875,-63.4765625,-55.6640625
-57.12890625,-66.89453125,-50.78125,-57.12890625
-59.08203125,-63.4765625,-45.8984375,-51.7578125
-44.43359375,-30.76171875,-44.921875,-45.41015625
-38.0859375,-31.73828125,-47.36328125,-47.8515625
-51.7578125,-54.19921875,-46.875,-53.22265625
-69.3359375,-72.75390625,-45.41015625,-55.6640625
-62.98828125,-66.89453125,-47.36328125,-49.31640625
-42.96875,-21.97265625,-50.78125,-43.9453125
-28.3203125,-17.578125,-51.7578125,-48.828125
-41.015625,-62.98828125,-47.8515625,-58.10546875
-64.94140625,-77.1484375,-45.41015625,-61.03515625
-62.98828125,-34.1796875,-46.38671875,-54.6875
-46.38671875,-11.71875,-46.875,-43.9453125
-38.0859375,-26.85546875,-49.8046875,-45.41015625
-45.8984375,-48.828125,-49.31640625,-50.29296875
-62.01171875,-86.42578125,-42.48046875,-48.828125
-65.4296875,-77.63671875,-41.50390625,-44.43359375
-49.31640625,-24.4140625,-39.0625,-41.9921875
-30.2734375,-14.6484375,-35.64453125,-44.43359375
-29.78515625,-54.19921875,-37.109375,-47.36328125
-43.45703125,-77.63671875,-42.96875,-55.6640625
-52.24609375,-60.546875,-49.8046875,-54.6875
-40.0390625,-8.30078125,-56.15234375,-44.43359375
-24.90234375,-1.46484375,-50.29296875,-41.015625
-30.76171875,-43.9453125,-43.9453125,-46.875
-39.55078125,-69.3359375,-49.8046875,-42.48046875
-45.8984375,-70.80078125,-46.875,-27.83203125
-53.7109375,-51.7578125,-37.109375,-30.2734375
-50.78125,-27.83203125,-30.76171875,-42.48046875
-55.6640625,-42.96875,-32.2265625,-56.15234375
-68.84765625,-86.9140625,-33.69140625,-59.5703125
-77.1484375,-83.49609375,-32.2265625,-58.59375
-67.3828125,-35.64453125,-35.64453125,-57.12890625
-48.828125,-28.80859375,-33.69140625,-47.8515625
-53.7109375,-40.0390625,-30.2734375,-52.24609375
-73.2421875,-58.10546875,-31.25,-64.453125
-76.171875,-86.9140625,-40.52734375,-57.6171875
-62.98828125,-59.08203125,-47.8515625,-45.41015625
-45.41015625,-30.76171875,-40.52734375,-44.921875
-39.55078125,-41.9921875,-41.015625,-53.7109375
-52.24609375,-69.3359375,-44.921875,-62.01171875
-63.4765625,-77.63671875,-43.45703125,-58.10546875
-63.4765625,-44.43359375,-45.8984375,-51.7578125
-46.875,-20.5078125,-45.8984375,-55.17578125
-32.2265625,-26.85546875,-47.36328125,-56.15234375
-46.875,-75.1953125,-56.640625,-55.17578125
-64.94140625,-79.1015625,-57.12890625,-58.59375
-66.40625,-35.15625,-54.19921875,-55.17578125
-52.24609375,-21.484375,-52.24609375,-46.38671875
-44.921875,-40.0390625,-46.38671875,-46.875
-53.7109375,-71.77734375,-42.48046875,-53.22265625
-60.05859375,-74.21875,-43.45703125,-50.78125
-60.05859375,-55.17578125,-41.9921875,-43.9453125
-48.828125,-27.83203125,-47.36328125,-40.52734375
-36.1328125,-21.484375,-49.8046875,-37.59765625
-45.41015625,-61.03515625,-49.8046875,-45.8984375
-59.5703125,-81.0546875,-52.24609375,-51.26953125
-62.5,-61.5234375,-51.7578125,-44.43359375
-53.7109375,-30.2734375,-54.6875,-41.015625
-36.1328125,-8.7890625,-56.15234375,-39.0625
-41.9921875,-49.31640625,-47.36328125,-46.38671875
-60.546875,-98.6328125,-45.41015625,-51.7578125
-60.546875,-82.03125,-48.828125,-43.45703125
-48.33984375,-26.85546875,-42.96875,-35.64453125
-34.66796875,-13.18359375,-39.55078125,-33.69140625
-38.57421875,-46.38671875,-40.0390625,-39.55078125
-50.29296875,-70.80078125,-41.015625,-44.921875
-52.734375,-69.82421875,-43.45703125,-41.9921875
-41.50390625,-33.69140625,-48.828125,-37.109375
-22.4609375,-16.6015625,-47.8515625,-36.1328125
-34.66796875,-46.875,-44.43359375,-44.921875
-53.7109375,-55.6640625,-48.828125,-50.78125
-52.734375,-68.84765625,-52.24609375,-46.38671875
-46.38671875,-42.48046875,-52.24609375,-41.50390625
-33.69140625,-7.8125,-54.6875,-41.50390625
-35.64453125,-41.50390625,-54.6875,-46.875
-51.7578125,-83.49609375,-55.6640625,-57.12890625
-64.94140625,-81.0546875,-56.640625,-55.17578125
-62.98828125,-36.1328125,-53.22265625,-47.36328125
-48.33984375,-19.04296875,-52.24609375,-42.96875
-42.48046875,-26.85546875,-50.78125,-41.015625
-54.6875,-74.21875,-52.24609375,-51.26953125
-63.96484375,-79.58984375,-58.10546875,-51.7578125
-48.828125,-25.87890625,-62.5,-36.1328125
-31.25,-28.80859375,-54.6875,-30.2734375
-41.9921875,-51.7578125,-53.22265625,-47.36328125
-49.8046875,-67.87109375,-48.828125,-54.19921875
-63.4765625,-86.42578125,-40.52734375,-50.29296875
-65.4296875,-46.38671875,-46.38671875,-45.41015625
-36.1328125,-10.7421875,-43.9453125,-39.55078125
-34.66796875,-39.55078125,-42.48046875,-43.9453125
-54.6875,-72.75390625,-47.8515625,-52.734375
-62.5,-77.63671875,-50.78125,-56.15234375
-59.5703125,-58.10546875,-52.24609375,-46.38671875
-43.9453125,-15.625,-48.33984375,-35.15625
-36.1328125,-9.765625,-47.36328125,-38.0859375
-51.26953125,-74.21875,-54.19921875,-42.96875
-66.89453125,-97.16796875,-53.22265625,-43.9453125
-70.80078125,-59.08203125,-49.8046875,-40.0390625
-51.7578125,-21.97265625,-48.33984375,-35.15625
-26.85546875,-14.16015625,-44.921875,-33.203125
-37.59765625,-57.12890625,-36.1328125,-39.55078125
-60.546875,-88.37890625,-31.25,-47.36328125
-66.89453125,-67.3828125,-37.59765625,-43.45703125
-53.22265625,-21.484375,-41.015625,-39.0625
-37.109375,-26.85546875,-39.55078125,-40.52734375
-43.45703125,-60.546875,-40.52734375,-53.22265625
-57.12890625,-70.3125,-48.33984375,-62.5
-62.98828125,-79.58984375,-50.78125,-55.17578125
-54.19921875,-38.0859375,-52.734375,-52.734375
-29.296875,-13.671875,-49.8046875,-47.8515625
-27.83203125,-51.7578125,-43.9453125,-42.96875
-50.29296875,-77.63671875,-52.24609375,-50.29296875
-56.640625,-72.265625,-60.546875,-47.8515625
-48.33984375,-37.109375,-56.640625,-38.57421875
-34.1796875,-16.11328125,-50.29296875,-38.0859375
-32.71484375,-36.1328125,-46.38671875,-46.875
-44.43359375,-77.1484375,-45.41015625,-54.6875
-52.734375,-74.21875,-45.8984375,-52.24609375
-56.640625,-16.6015625,-47.8515625,-41.9921875
-41.50390625,-15.13671875,-51.26953125,-41.015625
-38.57421875,-61.5234375,-57.6171875,-48.33984375
-59.08203125,-90.8203125,-67.3828125,-54.19921875
-67.3828125,-89.35546875,-58.59375,-50.78125
-62.5,-41.50390625,-43.45703125,-43.45703125
-49.8046875,-17.578125,-42.48046875,-38.57421875
-43.45703125,-26.3671875,-40.52734375,-38.57421875
-52.24609375,-60.05859375,-39.0625,-47.36328125
-64.94140625,-66.40625,-46.38671875,-49.8046875
-65.91796875,-35.64453125,-50.78125,-49.31640625
-54.19921875,-17.578125,-46.38671875,-54.6875
-45.8984375,-14.16015625,-35.64453125,-55.6640625
-50.78125,-71.77734375,-37.59765625,-60.546875
-59.08203125,-78.125,-58.10546875,-60.05859375
-56.15234375,-42.96875,-60.05859375,-45.41015625
-36.1328125,-35.15625,-45.8984375,-39.0625
-32.2265625,-26.85546875,-51.26953125,-44.43359375
-46.875,-62.98828125,-35.64453125,-52.24609375
-57.12890625,-80.078125,-23.92578125,-59.5703125
-59.5703125,-53.22265625,-37.109375,-50.78125
-46.38671875,-14.16015625,-53.7109375,-42.96875
-36.62109375,-20.01953125,-44.921875,-43.9453125
-51.26953125,-65.91796875,-35.64453125,-54.19921875
-63.96484375,-66.40625,-50.78125,-59.08203125
-69.82421875,-61.5234375,-53.22265625,-53.7109375
-63.4765625,-30.2734375,-54.19921875,-50.29296875
-49.8046875,-17.578125,-54.6875,-47.36328125
-47.8515625,-57.12890625,-47.36328125,-52.734375
-64.94140625,-60.546875,-50.78125,-73.2421875
-79.1015625,-50.78125,-58.59375,-75.1953125
-61.5234375,-35.15625,-58.59375,-57.12890625
-40.52734375,-21.484375,-58.59375,-49.31640625
-44.921875,-50.29296875,-62.98828125,-52.734375
-62.5,-83.49609375,-57.12890625,-62.98828125
-64.453125,-70.80078125,-46.38671875,-57.12890625
-52.734375,-10.25390625,-46.38671875,-43.9453125
-35.64453125,-10.7421875,-49.31640625,-39.55078125
-38.57421875,-60.05859375,-52.24609375,-48.828125
-50.29296875,-80.56640625,-53.7109375,-54.6875
-54.19921875,-73.73046875,-54.6875,-53.22265625
-46.38671875,-35.15625,-56.15234375,-47.8515625
-27.34375,-14.6484375,-49.31640625,-37.59765625
-25.390625,-32.2265625,-46.38671875,-38.57421875
-40.0390625,-60.546875,-52.734375,-49.31640625
-56.15234375,-70.3125,-50.78125,-55.17578125
-59.5703125,-50.29296875,-45.41015625,-50.78125
-43.45703125,-12.6953125,-45.41015625,-44.43359375
-34.66796875,-11.23046875,-43.45703125,-44.43359375
-48.33984375,-66.89453125,-48.828125,-54.6875
-62.01171875,-93.26171875,-57.12890625,-56.15234375
-58.59375,-41.9921875,-49.8046875,-46.875
-42.48046875,-12.20703125,-41.9921875,-41.9921875
-31.25,-27.34375,-46.875,-49.31640625
-44.921875,-60.05859375,-54.19921875,-57.12890625
-59.5703125,-79.1015625,-51.7578125,-53.7109375
-56.15234375,-49.8046875,-44.43359375,-44.43359375
-42.48046875,-15.625,-44.921875,-44.43359375
-32.2265625,-29.78515625,-43.9453125,-44.921875
-38.57421875,-59.08203125,-42.96875,-43.9453125
-48.33984375,-49.8046875,-44.43359375,-46.38671875
-50.29296875,-62.5,-45.41015625,-38.57421875
-48.33984375,-65.4296875,-51.7578125,-39.0625
-36.1328125,-38.0859375,-48.33984375,-45.41015625
-42.48046875,-59.5703125,-36.1328125,-57.12890625
-60.546875,-77.63671875,-34.66796875,-62.98828125
-59.5703125,-59.08203125,-38.0859375,-49.31640625
-46.875,-20.99609375,-40.0390625,-44.921875
-33.203125,-10.7421875,-40.52734375,-47.36328125
-34.66796875,-53.22265625,-41.9921875,-49.8046875
-49.8046875,-83.0078125,-46.875,-51.7578125
-52.24609375,-62.98828125,-53.22265625,-45.8984375
-42.96875,-14.16015625,-52.734375,-39.55078125
-30.76171875,-27.83203125,-45.8984375,-39.55078125
-32.71484375,-60.546875,-44.921875,-48.828125
-48.33984375,-73.2421875,-44.43359375,-60.546875
-58.59375,-85.44921875,-42.48046875,-61.5234375
-45.41015625,-32.2265625,-44.921875,-48.33984375
-29.296875,-14.16015625,-51.7578125,-43.9453125
-35.15625,-50.29296875,-60.05859375,-50.29296875
-29.296875,-69.3359375,-59.08203125,-38.0859375
-32.71484375,-67.87109375,-47.36328125,-25.87890625
-69.3359375,-29.78515625,-44.921875,-55.17578125
-64.453125,-9.765625,-43.45703125,-64.453125
-54.19921875,-29.78515625,-39.55078125,-56.640625
-92.28515625,-78.125,-38.0859375,-85.9375
-125.9765625,-90.8203125,-32.2265625,-107.421875
-119.62890625,-44.921875,-31.73828125,-99.609375
-108.3984375,-37.59765625,-27.34375,-101.07421875
-117.1875,-53.22265625,-31.25,-112.79296875
-135.7421875,-69.3359375,-37.109375,-126.46484375
-157.2265625,-95.703125,-33.203125,-139.16015625
-154.78515625,-62.98828125,-36.1328125,-145.99609375
-145.99609375,-20.5078125,-35.64453125,-148.92578125
-152.83203125,-37.59765625,-32.2265625,-153.80859375
-165.52734375,-70.3125,-29.78515625,-167.96875
-181.640625,-51.26953125,-22.4609375,-177.734375
-185.05859375,-46.38671875,-20.99609375,-178.7109375
-173.828125,-36.1328125,-25.87890625,-174.8046875
-162.59765625,-24.90234375,-28.80859375,-169.43359375
-174.8046875,-49.8046875,-30.76171875,-173.828125
-192.3828125,-54.19921875,-38.0859375,-175.78125
-189.94140625,-41.015625,-41.9921875,-169.921875
-174.8046875,-13.18359375,-39.55078125,-164.55078125
-158.69140625,0.9765625,-36.62109375,-157.71484375
-172.36328125,-36.62109375,-38.57421875,-166.50390625
-187.5,-73.73046875,-41.9921875,-166.015625
-171.875,-54.19921875,-37.59765625,-144.04296875
-138.671875,-1.953125,-31.73828125,-127.9296875
-123.53515625,-20.01953125,-33.69140625,-129.39453125
-114.2578125,-64.453125,-37.109375,-123.046875
-119.140625,-65.4296875,-39.55078125,-119.62890625
-127.9296875,-57.12890625,-45.41015625,-116.2109375
-104.00390625,-18.5546875,-42.96875,-100.09765625
-75.68359375,-3.41796875,-43.45703125,-96.19140625
-74.21875,-44.921875,-47.36328125,-100.09765625
-93.75,-68.359375,-47.36328125,-95.21484375
-103.02734375,-63.4765625,-49.8046875,-90.33203125
-87.890625,-31.25,-50.78125,-80.078125
-64.94140625,-26.3671875,-53.22265625,-66.40625
-58.59375,-46.38671875,-52.734375,-66.40625
-69.3359375,-77.63671875,-56.640625,-73.73046875
-74.70703125,-96.6796875,-60.546875,-68.84765625
-66.40625,-58.59375,-56.15234375,-56.15234375
-46.38671875,-32.2265625,-52.24609375,-50.29296875
-43.45703125,-53.7109375,-51.7578125,-51.7578125
-55.6640625,-90.8203125,-51.26953125,-52.734375
-56.15234375,-89.35546875,-51.7578125,-46.38671875
-50.29296875,-48.33984375,-58.59375,-36.62109375
-31.25,-27.34375,-55.6640625,-21.97265625
-20.5078125,-52.734375,-58.10546875,-23.92578125
-30.76171875,-77.63671875,-62.01171875,-32.2265625
-43.45703125,-69.82421875,-60.05859375,-28.3203125
-33.69140625,-58.59375,-58.10546875,-21.484375
-8.7890625,-35.64453125,-52.24609375,-11.71875
-8.7890625,-41.9921875,-50.78125,-15.13671875
-23.4375,-86.9140625,-51.26953125,-23.4375
-34.66796875,-82.03125,-49.8046875,-23.92578125
-34.1796875,-48.828125,-48.33984375,-14.6484375
-18.06640625,-21.484375,-47.8515625,-10.7421875
-10.7421875,-32.71484375,-48.33984375,-20.99609375
-17.578125,-65.91796875,-47.8515625,-20.5078125
-25.87890625,-68.359375,-44.921875,-20.5078125
-24.90234375,-49.31640625,-47.8515625,-18.5546875
-5.859375,-11.23046875,-52.734375,-10.7421875
1.953125,-34.66796875,-52.734375,-9.765625
-8.30078125,-79.1015625,-50.29296875,-14.6484375
-24.4140625,-75.68359375,-48.33984375,-17.08984375
-24.4140625,-61.03515625,-47.36328125,-6.8359375
-4.39453125,-18.06640625,-45.8984375,3.90625
1.953125,-11.23046875,-45.8984375,-1.953125
-12.20703125,-61.5234375,-46.38671875,-9.765625
-32.2265625,-83.0078125,-50.78125,-19.04296875
-43.45703125,-71.77734375,-52.734375,-21.97265625
-27.83203125,-28.80859375,-50.29296875,-11.23046875
-9.27734375,-17.578125,-51.26953125,-9.27734375
-15.13671875,-49.31640625,-49.8046875,-17.578125
-29.296875,-96.6796875,-51.26953125,-22.94921875
-36.62109375,-94.23828125,-53.22265625,-21.484375
-28.3203125,-37.59765625,-53.22265625,-18.06640625
-6.8359375,-22.4609375,-57.6171875,-14.6484375
-3.41796875,-60.546875,-55.17578125,-18.5546875
-13.18359375,-82.51953125,-50.78125,-22.4609375
-23.4375,-73.73046875,-49.31640625,-17.08984375
-15.625,-30.2734375,-41.9921875,-13.671875
0.0,-6.34765625,-40.0390625,-12.6953125
-9.765625,-55.17578125,-47.36328125,-21.484375
-26.3671875,-72.75390625,-52.24609375,-33.69140625
-36.62109375,-51.7578125,-50.78125,-33.203125
-39.0625,-40.0390625,-52.24609375,-33.203125
-20.5078125,-25.87890625,-48.828125,-30.76171875
-16.11328125,-40.52734375,-48.33984375,-32.71484375
-31.25,-69.82421875,-53.7109375,-38.0859375
-45.8984375,-70.3125,-52.24609375,-31.25
-52.24609375,-43.45703125,-55.17578125,-29.78515625
-30.76171875,-18.5546875,-56.15234375,-27.34375
-16.11328125,-29.78515625,-55.6640625,-28.80859375
-32.71484375,-60.546875,-56.15234375,-36.62109375
-44.43359375,-82.03125,-53.22265625,-37.59765625
-40.52734375,-42.96875,-48.828125,-37.109375
-16.6015625,4.39453125,-46.875,-35.64453125
-4.39453125,-14.16015625,-48.828125,-35.64453125
-29.78515625,-70.80078125,-49.31640625,-41.015625
-47.36328125,-81.54296875,-51.26953125,-44.921875
-44.921875,-49.31640625,-52.24609375,-40.0390625
-30.2734375,-15.625,-50.78125,-38.57421875
-15.625,-24.90234375,-47.8515625,-42.48046875
-33.203125,-71.2890625,-45.8984375,-48.33984375
-59.5703125,-72.75390625,-44.43359375,-47.8515625
-57.6171875,-45.8984375,-43.9453125,-39.55078125
-43.45703125,-33.69140625,-46.875,-31.25
-34.1796875,-25.87890625,-45.8984375,-30.76171875
-33.69140625,-32.71484375,-45.41015625,-36.62109375
-50.78125,-77.1484375,-46.38671875,-40.52734375
-64.453125,-71.77734375,-42.96875,-39.55078125
-50.29296875,-23.92578125,-41.9921875,-35.64453125
-32.2265625,-29.78515625,-43.45703125,-30.76171875
-30.76171875,-58.10546875,-41.015625,-29.78515625
-40.52734375,-68.359375,-41.015625,-31.25
-52.734375,-61.5234375,-48.33984375,-33.69140625
-43.45703125,-29.296875,-51.26953125,-34.66796875
-31.73828125,-13.18359375,-46.875,-36.1328125
-36.62109375,-53.22265625,-44.921875,-41.9921875
-46.875,-82.03125,-40.52734375,-41.50390625
-52.734375,-50.78125,-38.0859375,-41.50390625
-46.875,-25.87890625,-38.57421875,-44.43359375
-30.76171875,-20.01953125,-35.15625,-41.015625
-26.3671875,-36.62109375,-40.0390625,-45.8984375
-45.41015625,-78.125,-45.41015625,-62.5
-62.98828125,-69.82421875,-47.36328125,-62.98828125
-59.08203125,-25.87890625,-50.29296875,-46.875
-45.41015625,-28.3203125,-42.96875,-38.57421875
-42.48046875,-44.921875,-39.55078125,-44.43359375
-48.828125,-68.359375,-41.50390625,-48.828125
-58.59375,-70.3125,-46.38671875,-45.8984375
-52.24609375,-27.83203125,-49.31640625,-39.0625
-36.62109375,2.9296875,-48.828125,-34.66796875
-29.296875,-36.62109375,-47.36328125,-34.66796875
-34.1796875,-77.63671875,-41.9921875,-36.1328125
-44.921875,-75.68359375,-44.921875,-36.1328125
-42.96875,-35.15625,-48.33984375,-34.1796875
-27.34375,-11.71875,-40.0390625,-32.2265625
-24.90234375,-33.203125,-39.55078125,-40.0390625
-43.45703125,-63.4765625,-41.9921875,-51.7578125
-54.6875,-63.4765625,-44.43359375,-53.7109375
-52.734375,-32.2265625,-46.875,-52.734375
-43.9453125,-28.80859375,-46.38671875,-50.29296875
-42.48046875,-31.25,-48.33984375,-52.734375
-46.875,-53.22265625,-48.33984375,-58.59375
-58.10546875,-85.44921875,-49.8046875,-55.17578125
-57.6171875,-60.05859375,-52.734375,-48.33984375
-43.45703125,-17.08984375,-54.19921875,-45.41015625
-33.69140625,-27.83203125,-51.7578125,-45.8984375
-28.3203125,-62.5,-48.33984375,-42.48046875
-35.15625,-74.21875,-48.828125,-37.59765625
-39.0625,-56.640625,-50.78125,-33.203125
-27.34375,-16.11328125,-46.38671875,-25.390625
-23.92578125,-7.32421875,-45.41015625,-21.484375
-36.62109375,-42.48046875,-46.875,-25.87890625
-55.17578125,-63.96484375,-48.33984375,-35.15625
-45.41015625,-35.15625,-50.29296875,-27.34375
-12.20703125,-6.34765625,-46.38671875,-4.8828125
-9.765625,-29.78515625,-44.43359375,-16.6015625
-36.62109375,-62.5,-41.50390625,-45.8984375
-69.82421875,-78.61328125,-40.52734375,-60.05859375
-79.58984375,-70.80078125,-45.41015625,-56.640625
-67.3828125,-33.203125,-39.0625,-48.33984375
-60.05859375,-27.83203125,-38.0859375,-58.59375
-67.87109375,-63.96484375,-39.55078125,-73.73046875
-82.03125,-95.703125,-38.0859375,-79.58984375
-97.65625,-94.7265625,-38.0859375,-77.1484375
-98.6328125,-58.59375,-42.48046875,-71.2890625
-63.4765625,-29.78515625,-38.57421875,-52.734375
-58.59375,-65.91796875,-31.25,-49.8046875
-74.21875,-102.5390625,-34.66796875,-57.6171875
-76.66015625,-91.30859375,-35.64453125,-49.31640625
-74.21875,-69.82421875,-39.0625,-42.48046875
-47.36328125,-42.96875,-38.57421875,-34.1796875
-32.2265625,-49.8046875,-38.0859375,-30.2734375
-47.8515625,-84.47265625,-45.8984375,-41.50390625
-56.640625,-89.35546875,-44.43359375,-38.57421875
-52.24609375,-54.6875,-37.109375,-20.99609375
-44.43359375,-25.87890625,-33.203125,-19.53125
-44.921875,-41.015625,-30.76171875,-31.25
-56.640625,-67.87109375,-29.78515625,-42.96875
-62.98828125,-85.9375,-31.73828125,-46.38671875
-65.4296875,-68.84765625,-37.109375,-40.52734375
-51.7578125,-27.34375,-39.0625,-36.1328125
-38.0859375,-36.62109375,-37.59765625,-41.015625
-46.875,-79.58984375,-38.57421875,-47.36328125
-57.6171875,-83.0078125,-44.921875,-50.78125
-55.17578125,-59.5703125,-43.9453125,-45.8984375
-42.96875,-22.4609375,-42.48046875,-41.015625
-34.66796875,-24.90234375,-46.875,-48.33984375
-44.921875,-69.3359375,-46.875,-59.08203125
-59.5703125,-76.66015625,-50.78125,-59.08203125
-62.01171875,-40.0390625,-54.19921875,-53.7109375
-51.7578125,-26.3671875,-48.828125,-45.8984375
-36.62109375,-42.48046875,-43.45703125,-40.0390625
-40.52734375,-66.40625,-41.015625,-47.8515625
-59.08203125,-79.58984375,-41.015625,-48.33984375
-63.96484375,-65.91796875,-43.45703125,-36.1328125
-54.19921875,-30.2734375,-41.9921875,-24.4140625
-46.38671875,-33.203125,-41.9921875,-25.390625
-54.19921875,-62.5,-46.38671875,-34.1796875
-65.91796875,-72.265625,-46.38671875,-39.55078125
-69.3359375,-84.47265625,-43.9453125,-29.78515625
-60.546875,-35.64453125,-42.48046875,-25.87890625
-42.96875,-6.8359375,-39.0625,-31.25
-41.50390625,-69.82421875,-43.45703125,-39.0625
-58.10546875,-88.8671875,-48.33984375,-45.41015625
-66.40625,-67.3828125,-40.52734375,-39.0625
-57.6171875,-46.38671875,-37.109375,-37.109375
-41.9921875,-26.3671875,-42.96875,-41.9921875
-40.0390625,-42.96875,-42.48046875,-51.7578125
-53.7109375,-85.44921875,-43.45703125,-62.5
-56.15234375,-79.1015625,-49.31640625,-59.5703125
-46.875,-36.1328125,-51.26953125,-56.15234375
-36.62109375,-16.6015625,-50.78125,-54.19921875
-32.2265625,-32.2265625,-41.50390625,-48.828125
-40.52734375,-54.6875,-40.0390625,-49.8046875
-53.22265625,-65.4296875,-48.828125,-48.33984375
-49.8046875,-50.78125,-46.875,-33.69140625
-36.62109375,-33.69140625,-45.41015625,-30.76171875
-33.203125,-50.29296875,-44.43359375,-39.0625
-53.7109375,-76.171875,-40.52734375,-40.52734375
-71.77734375,-77.63671875,-46.875,-34.66796875
-64.453125,-47.8515625,-46.38671875,-24.4140625
-42.48046875,-23.4375,-40.52734375,-18.06640625
-29.78515625,-27.83203125,-41.50390625,-23.92578125
-38.57421875,-60.546875,-42.96875,-33.203125
-52.734375,-76.66015625,-43.45703125,-36.62109375
-55.6640625,-42.96875,-47.36328125,-37.59765625
-35.64453125,-23.92578125,-45.8984375,-35.64453125
-19.53125,-30.76171875,-42.96875,-40.52734375
-28.80859375,-56.15234375,-46.38671875,-46.38671875
-45.8984375,-80.078125,-50.78125,-46.38671875
-48.33984375,-48.33984375,-54.19921875,-42.48046875
-34.66796875,-19.53125,-53.7109375,-39.0625
-27.83203125,-18.06640625,-50.29296875,-40.0390625
-35.64453125,-40.52734375,-48.33984375,-50.78125
-47.8515625,-76.66015625,-46.875,-57.6171875
-46.875,-66.40625,-48.828125,-50.29296875
-34.66796875,-8.7890625,-50.29296875,-46.38671875
-32.71484375,-1.953125,-45.41015625,-52.24609375
-39.55078125,-62.5,-49.31640625,-62.98828125
-51.7578125,-94.7265625,-53.7109375,-64.94140625
-57.6171875,-66.89453125,-47.36328125,-55.17578125
-45.41015625,-20.01953125,-42.48046875,-46.38671875
-35.15625,-10.25390625,-38.0859375,-37.59765625
-34.66796875,-37.109375,-35.15625,-36.62109375
-51.7578125,-70.80078125,-38.0859375,-41.015625
-63.4765625,-72.265625,-35.64453125,-32.71484375
-51.7578125,-27.34375,-37.59765625,-28.80859375
-33.69140625,-17.578125,-41.50390625,-29.78515625
-37.59765625,-58.10546875,-42.96875,-34.66796875
-52.24609375,-59.08203125,-40.52734375,-43.45703125
-62.5,-71.2890625,-38.0859375,-41.9921875
-59.08203125,-50.29296875,-43.45703125,-33.69140625
-39.55078125,-14.16015625,-50.78125,-38.57421875
-38.0859375,-47.8515625,-48.828125,-51.7578125
-56.640625,-76.171875,-47.36328125,-54.19921875
-68.359375,-75.68359375,-54.19921875,-56.15234375
-54.6875,-37.59765625,-50.29296875,-50.29296875
-37.59765625,-14.6484375,-42.48046875,-40.52734375
-38.0859375,-22.4609375,-46.38671875,-43.45703125
-45.41015625,-61.03515625,-55.17578125,-50.29296875
-64.94140625,-80.078125,-55.6640625,-51.26953125
-64.453125,-29.296875,-52.24609375,-49.8046875
-46.875,-21.97265625,-52.734375,-51.7578125
-47.36328125,-52.24609375,-57.6171875,-58.10546875
-50.29296875,-66.89453125,-55.17578125,-64.453125
-51.7578125,-73.2421875,-49.8046875,-62.01171875
-53.7109375,-49.8046875,-43.9453125,-51.7578125
-46.875,-26.3671875,-42.48046875,-39.55078125
-37.109375,-20.01953125,-41.015625,-35.15625
-41.9921875,-51.26953125,-40.0390625,-40.0390625
-58.10546875,-82.51953125,-44.43359375,-43.45703125
-63.4765625,-57.12890625,-41.9921875,-38.0859375
-51.26953125,-25.390625,-40.52734375,-31.25
-41.015625,-19.04296875,-42.48046875,-28.3203125
-56.15234375,-65.4296875,-44.921875,-37.59765625
-66.40625,-98.14453125,-47.36328125,-46.38671875
-56.15234375,-68.84765625,-40.0390625,-39.55078125
-41.015625,-37.109375,-40.52734375,-38.57421875
-32.2265625,-33.203125,-44.921875,-45.41015625
-39.55078125,-59.5703125,-41.015625,-46.38671875
-49.8046875,-80.078125,-37.59765625,-48.828125
-54.6875,-66.89453125,-41.50390625,-48.33984375
-42.96875,-19.53125,-49.31640625,-40.0390625
-33.203125,-16.6015625,-48.828125,-38.57421875
-40.52734375,-44.921875,-47.36328125,-43.9453125
-56.640625,-50.29296875,-52.734375,-52.734375
-66.40625,-66.40625,-54.19921875,-52.24609375
-50.29296875,-37.109375,-48.33984375,-39.55078125
-31.73828125,-14.16015625,-47.36328125,-38.0859375
-38.57421875,-46.38671875,-50.78125,-48.828125
-52.24609375,-68.359375,-53.7109375,-52.734375
-60.05859375,-63.96484375,-57.6171875,-48.828125
-49.8046875,-31.25,-53.22265625,-41.9921875
-29.296875,-10.7421875,-50.29296875,-40.0390625
-25.87890625,-30.76171875,-49.31640625,-41.015625
-40.52734375,-76.171875,-45.41015625,-42.48046875
-51.26953125,-67.87109375,-37.109375,-40.0390625
-42.96875,-15.13671875,-37.59765625,-31.25
-21.97265625,-24.90234375,-36.62109375,-26.3671875
-12.6953125,-50.29296875,-29.78515625,-27.83203125
-24.4140625,-61.5234375,-29.78515625,-32.71484375
-34.66796875,-72.265625,-28.80859375,-28.3203125
-31.25,-35.64453125,-32.2265625,-22.94921875
-16.11328125,-5.37109375,-40.52734375,-31.25
-16.6015625,-41.015625,-44.43359375,-42.96875
-33.69140625,-64.453125,-43.9453125,-49.8046875
-42.48046875,-61.03515625,-42.96875,-48.828125
-42.96875,-38.0859375,-46.38671875,-39.55078125
-33.69140625,-4.8828125,-50.78125,-37.109375
-32.71484375,-1.46484375,-50.29296875,-42.96875
-39.0625,-49.31640625,-46.875,-49.31640625
-47.36328125,-79.1015625,-52.734375,-51.7578125
-54.6875,-50.29296875,-60.546875,-48.828125
-43.45703125,-11.23046875,-56.640625,-45.8984375
-31.73828125,-5.37109375,-51.7578125,-46.875
-44.921875,-51.26953125,-53.7109375,-53.22265625
-63.96484375,-77.63671875,-57.12890625,-61.03515625
-62.01171875,-47.36328125,-53.22265625,-58.10546875
-41.015625,-5.37109375,-50.78125,-49.31640625
-29.296875,-20.99609375,-48.33984375,-50.29296875
-41.50390625,-54.6875,-53.7109375,-58.59375
-52.24609375,-54.6875,-51.26953125,-57.6171875
-47.8515625,-58.59375,-42.96875,-47.8515625
-40.52734375,-26.85546875,-45.8984375,-40.0390625
-32.71484375,-11.23046875,-43.45703125,-41.9921875
-32.71484375,-48.33984375,-40.0390625,-48.33984375
-46.38671875,-72.75390625,-44.921875,-55.17578125
-53.22265625,-59.5703125,-50.78125,-55.6640625
-38.57421875,-20.01953125,-52.24609375,-49.8046875
-24.90234375,-10.25390625,-47.8515625,-50.78125
-39.0625,-43.45703125,-48.33984375,-57.12890625
-54.19921875,-70.3125,-52.734375,-63.96484375
-62.01171875,-66.89453125,-50.29296875,-62.98828125
-66.40625,-20.99609375,-49.8046875,-57.6171875
-56.15234375,-18.5546875,-54.6875,-62.5
-59.08203125,-61.5234375,-57.6171875,-68.359375
-72.265625,-79.58984375,-51.7578125,-64.453125
-74.70703125,-77.1484375,-49.31640625,-61.5234375
-66.89453125,-39.0625,-52.734375,-58.10546875
-50.78125,-21.97265625,-46.875,-49.8046875
-43.45703125,-39.55078125,-42.48046875,-49.31640625
-54.19921875,-60.546875,-45.41015625,-56.640625
-62.98828125,-63.4765625,-45.41015625,-54.6875
-58.10546875,-25.390625,-47.36328125,-48.828125
-42.96875,-5.859375,-50.78125,-46.38671875
-37.109375,-12.20703125,-52.24609375,-51.7578125
-49.31640625,-60.05859375,-57.12890625,-60.546875
-61.03515625,-87.890625,-55.6640625,-57.12890625
-55.6640625,-47.8515625,-50.29296875,-46.38671875
-35.15625,-32.71484375,-47.8515625,-39.55078125
-26.85546875,-39.55078125,-53.22265625,-42.48046875
-37.59765625,-62.98828125,-55.6640625,-54.6875
-50.29296875,-74.70703125,-50.78125,-60.546875
-57.6171875,-49.8046875,-52.24609375,-55.17578125
-51.26953125,-18.5546875,-56.640625,-45.8984375
-44.43359375,-33.69140625,-56.640625,-49.31640625
-52.24609375,-75.1953125,-56.15234375,-63.96484375
-67.87109375,-75.68359375,-55.6640625,-64.453125
-72.265625,-63.4765625,-57.12890625,-57.6171875
-63.4765625,-50.29296875,-57.12890625,-55.17578125
-50.29296875,-32.71484375,-48.33984375,-51.7578125
-57.12890625,-74.21875,-42.96875,-54.19921875
-81.54296875,-81.54296875,-49.31640625,-60.546875
-80.56640625,-59.5703125,-48.828125,-53.22265625
-55.6640625,-38.57421875,-42.96875,-39.55078125
-38.57421875,-27.83203125,-41.50390625,-41.50390625
-43.45703125,-53.7109375,-45.8984375,-52.24609375
-53.7109375,-74.70703125,-48.828125,-50.78125
-58.10546875,-64.453125,-47.8515625,-44.921875
-43.9453125,-19.53125,-45.8984375,-39.55078125
-28.80859375,-20.01953125,-40.52734375,-38.57421875
-35.15625,-55.17578125,-37.109375,-43.45703125
-55.17578125,-79.58984375,-39.0625,-53.22265625
-63.4765625,-68.359375,-42.48046875,-50.29296875
-47.8515625,-25.390625,-38.0859375,-37.109375
-35.15625,-17.578125,-39.0625,-41.015625
-37.59765625,-46.875,-43.9453125,-48.33984375
-48.828125,-61.5234375,-40.52734375,-48.828125
-56.640625,-64.94140625,-43.45703125,-47.36328125
-55.6640625,-49.8046875,-47.36328125,-43.45703125
-43.9453125,-20.99609375,-43.45703125,-39.55078125
-40.0390625,-33.203125,-45.8984375,-44.921875
-53.7109375,-84.9609375,-48.828125,-48.828125
-67.87109375,-88.37890625,-47.36328125,-47.36328125
-61.03515625,-36.1328125,-43.9453125,-41.9921875
-41.9921875,-22.4609375,-44.921875,-39.55078125
-39.0625,-40.0390625,-45.41015625,-41.9921875
-43.9453125,-64.453125,-38.57421875,-47.8515625
-57.6171875,-74.21875,-42.48046875,-49.31640625
-61.5234375,-53.22265625,-51.26953125,-41.9921875
-45.8984375,-19.53125,-47.36328125,-40.0390625
-42.96875,-37.109375,-43.45703125,-41.9921875
-52.734375,-65.91796875,-43.45703125,-50.29296875
-62.01171875,-60.05859375,-41.50390625,-55.17578125
-64.453125,-54.6875,-44.921875,-52.24609375
-49.8046875,-53.22265625,-46.875,-46.38671875
-40.52734375,-52.24609375,-44.43359375,-45.8984375
-48.828125,-75.68359375,-41.50390625,-49.31640625
-61.5234375,-83.984375,-40.0390625,-50.29296875
-63.96484375,-66.89453125,-42.96875,-47.36328125
-44.921875,-34.1796875,-44.921875,-38.57421875
-34.66796875,-22.94921875,-45.41015625,-39.0625
-40.52734375,-61.5234375,-43.9453125,-48.828125
-50.78125,-83.49609375,-44.921875,-53.7109375
-61.03515625,-59.5703125,-45.41015625,-49.8046875
-58.10546875,-15.625,-41.9921875,-45.41015625
-53.22265625,-37.59765625,-47.36328125,-48.33984375
-56.640625,-63.96484375,-49.8046875,-57.6171875
-67.87109375,-65.4296875,-48.33984375,-61.5234375
-67.3828125,-73.2421875,-50.29296875,-55.6640625
-45.41015625,-22.94921875,-46.875,-52.24609375
-28.80859375,-12.20703125,-47.8515625,-53.7109375
-29.78515625,-52.734375,-54.19921875,-56.15234375
-41.015625,-62.5,-52.734375,-60.05859375
-55.17578125,-45.41015625,-43.9453125,-59.08203125
-46.38671875,-33.203125,-43.9453125,-51.26953125
-26.85546875,-20.5078125,-46.875,-48.828125
-38.57421875,-32.2265625,-43.9453125,-52.734375
-55.17578125,-72.75390625,-43.9453125,-56.15234375
-62.01171875,-76.66015625,-47.36328125,-47.8515625
-61.5234375,-33.69140625,-41.015625,-39.55078125
-45.8984375,-24.4140625,-37.109375,-37.109375
-41.015625,-37.109375,-35.64453125,-38.57421875
-50.29296875,-61.03515625,-33.69140625,-42.48046875
-53.22265625,-77.63671875,-37.59765625,-40.52734375
-47.8515625,-37.59765625,-41.9921875,-38.0859375
-31.73828125,-13.671875,-41.9921875,-39.0625
-30.76171875,-26.85546875,-37.59765625,-45.8984375
-48.33984375,-66.89453125,-35.15625,-44.43359375
-62.01171875,-70.80078125,-37.59765625,-36.62109375
-60.546875,-42.96875,-39.55078125,-36.62109375
-43.45703125,-39.0625,-41.50390625,-33.69140625
-42.48046875,-38.0859375,-45.41015625,-36.62109375
-54.19921875,-62.01171875,-45.8984375,-45.8984375
-62.5,-77.63671875,-44.921875,-45.41015625
-59.08203125,-42.48046875,-40.52734375,-37.59765625
-39.0625,-22.4609375,-35.64453125,-30.76171875
-31.73828125,-31.73828125,-35.64453125,-37.59765625
-39.0625,-54.6875,-40.0390625,-50.78125
-46.875,-79.58984375,-42.96875,-49.31640625
-51.7578125,-44.43359375,-43.45703125,-41.015625
-39.55078125,-6.34765625,-43.9453125,-36.1328125
-35.15625,-30.76171875,-46.875,-42.96875
-45.41015625,-66.40625,-49.31640625,-53.22265625
-59.5703125,-73.73046875,-48.33984375,-51.7578125
-66.40625,-53.7109375,-51.26953125,-49.8046875
-50.78125,-27.34375,-49.8046875,-46.875
-33.69140625,-23.92578125,-47.8515625,-45.8984375
-45.8984375,-49.31640625,-47.8515625,-57.12890625
-54.6875,-69.82421875,-44.921875,-58.10546875
-56.15234375,-66.89453125,-49.8046875,-49.8046875
-49.8046875,-31.25,-51.26953125,-49.8046875
-29.296875,-15.625,-46.875,-54.6875
-31.73828125,-37.109375,-45.8984375,-57.12890625
-55.6640625,-74.21875,-52.24609375,-53.7109375
-69.82421875,-92.28515625,-58.59375,-49.8046875
-57.6171875,-47.8515625,-56.15234375,-42.96875
-41.015625,-26.85546875,-50.29296875,-40.0390625
-37.59765625,-45.41015625,-44.43359375,-45.8984375
-47.8515625,-70.3125,-47.8515625,-51.26953125
-64.453125,-73.73046875,-55.6640625,-50.78125
-55.17578125,-39.0625,-52.24609375,-42.96875
-33.203125,-21.97265625,-47.8515625,-41.9921875
-36.62109375,-48.33984375,-49.8046875,-49.8046875
-54.6875,-70.3125,-51.7578125,-57.12890625
-60.546875,-55.6640625,-46.875,-51.7578125
-51.7578125,-40.52734375,-40.0390625,-39.0625
-39.0625,-41.9921875,-43.9453125,-39.0625
-40.52734375,-42.96875,-49.31640625,-45.41015625
-50.29296875,-75.1953125,-46.875,-47.8515625
-58.10546875,-88.37890625,-45.41015625,-50.29296875
-55.6640625,-42.96875,-50.78125,-47.36328125
-33.69140625,-22.94921875,-51.26953125,-41.9921875
-24.90234375,-39.0625,-49.8046875,-40.52734375
-47.36328125,-63.4765625,-54.19921875,-45.41015625
-61.5234375,-68.84765625,-55.6640625,-50.78125
-54.6875,-34.1796875,-47.8515625,-41.9921875
-36.62109375,-7.32421875,-41.50390625,-32.2265625
-35.15625,-38.57421875,-45.8984375,-41.9921875
-45.8984375,-71.77734375,-48.828125,-54.6875
-54.19921875,-69.82421875,-49.8046875,-58.59375
-54.6875,-51.7578125,-52.24609375,-52.24609375
-44.43359375,-11.71875,-53.22265625,-48.828125
-36.1328125,-19.53125,-53.22265625,-53.7109375
-48.828125,-69.82421875,-56.15234375,-61.5234375
-69.82421875,-74.70703125,-55.6640625,-62.01171875
-68.84765625,-52.24609375,-54.6875,-56.640625
-51.26953125,-14.6484375,-55.17578125,-50.29296875
-41.015625,-1.953125,-50.29296875,-46.38671875
-45.41015625,-34.66796875,-48.828125,-54.6875
-57.6171875,-78.61328125,-49.8046875,-55.6640625
-61.03515625,-57.6171875,-47.8515625,-41.50390625
-48.828125,-12.6953125,-47.8515625,-38.57421875
-34.66796875,-20.99609375,-49.31640625,-45.41015625
-40.52734375,-51.26953125,-44.43359375,-51.26953125
-57.12890625,-71.2890625,-47.8515625,-56.640625
-60.05859375,-59.08203125,-52.24609375,-53.22265625
-44.43359375,-8.30078125,-50.29296875,-50.78125
-27.83203125,0.0,-50.29296875,-46.38671875
-34.1796875,-55.6640625,-51.7578125,-46.875
-53.22265625,-76.66015625,-50.78125,-57.12890625
-53.7109375,-49.31640625,-48.828125,-49.31640625
-43.45703125,-31.73828125,-44.43359375,-37.59765625
-44.921875,-32.2265625,-39.55078125,-40.0390625
-57.6171875,-50.78125,-43.9453125,-49.8046875
-73.2421875,-78.61328125,-48.33984375,-60.546875
-77.63671875,-61.5234375,-52.24609375,-57.6171875
-66.89453125,-28.80859375,-51.7578125,-49.31640625
-52.24609375,-19.04296875,-47.8515625,-45.41015625
-47.36328125,-30.76171875,-43.9453125,-49.8046875
-59.08203125,-65.91796875,-46.875,-59.5703125
-70.80078125,-77.1484375,-50.29296875,-55.6640625
-59.5703125,-23.4375,-46.875,-46.875
-35.15625,7.32421875,-40.52734375,-40.52734375
-28.80859375,-31.73828125,-38.57421875,-40.52734375
-48.33984375,-78.125,-38.0859375,-45.41015625
-58.59375,-86.9140625,-44.921875,-42.96875
-47.8515625,-42.48046875,-44.921875,-34.66796875
-29.296875,-6.34765625,-39.55078125,-24.90234375
-25.87890625,-34.66796875,-42.96875,-31.25
-41.015625,-73.2421875,-41.015625,-44.921875
-60.05859375,-71.2890625,-42.48046875,-42.96875
-60.546875,-51.26953125,-45.41015625,-37.109375
-37.109375,-30.2734375,-43.45703125,-38.0859375
-24.4140625,-23.4375,-46.38671875,-44.921875
-39.0625,-46.875,-50.78125,-55.6640625
-64.94140625,-82.03125,-56.640625,-53.22265625
-70.3125,-56.640625,-57.6171875,-45.41015625
-60.546875,-11.23046875,-54.6875,-42.96875
-57.12890625,-34.1796875,-57.6171875,-48.33984375
-58.10546875,-63.4765625,-57.12890625,-56.15234375
-62.01171875,-65.91796875,-51.7578125,-54.6875
-60.546875,-49.31640625,-47.8515625,-47.8515625
-47.36328125,-22.94921875,-46.875,-43.45703125
-34.1796875,-25.390625,-51.7578125,-45.41015625
-36.62109375,-59.08203125,-54.19921875,-53.7109375
-47.8515625,-71.77734375,-52.24609375,-63.96484375
-57.12890625,-49.8046875,-47.8515625,-56.15234375
-52.24609375,-35.64453125,-47.36328125,-45.8984375
-42.48046875,-47.36328125,-48.828125,-49.8046875
-53.22265625,-63.4765625,-44.921875,-54.6875
-73.73046875,-71.77734375,-48.828125,-56.640625
-78.61328125,-60.05859375,-55.6640625,-54.19921875
-62.5,-13.671875,-51.7578125,-52.24609375
-44.43359375,-17.08984375,-45.41015625,-51.7578125
-47.36328125,-61.5234375,-44.43359375,-57.12890625
-59.08203125,-75.68359375,-48.828125,-62.5
-65.4296875,-71.2890625,-45.41015625,-57.12890625
-53.7109375,-32.2265625,-43.9453125,-48.33984375
-32.71484375,-6.34765625,-48.828125,-42.48046875
-38.0859375,-44.43359375,-44.921875,-48.828125
-61.5234375,-85.9375,-45.8984375,-57.6171875
-74.21875,-80.078125,-47.8515625,-54.19921875
-63.96484375,-39.55078125,-42.96875,-48.828125
-42.48046875,-19.04296875,-41.015625,-42.96875
-35.15625,-38.57421875,-42.96875,-41.015625
-47.8515625,-79.58984375,-46.875,-48.828125
-58.59375,-69.3359375,-45.41015625,-45.41015625
-55.17578125,-29.296875,-46.38671875,-37.59765625
-42.48046875,-31.73828125,-47.36328125,-40.52734375
-36.62109375,-39.0625,-42.96875,-41.9921875
-50.78125,-53.7109375,-41.9921875,-42.96875
-66.89453125,-77.1484375,-44.43359375,-47.36328125
-67.87109375,-65.4296875,-46.875,-41.9921875
-41.9921875,-24.4140625,-43.9453125,-38.0859375
-22.94921875,-21.97265625,-41.9921875,-37.59765625
-32.2265625,-66.40625,-44.921875,-41.015625
-59.5703125,-91.796875,-43.45703125,-58.59375
-75.68359375,-55.6640625,-45.41015625,-67.3828125
-53.22265625,-14.16015625,-42.48046875,-53.7109375
-35.15625,-28.3203125,-35.64453125,-51.26953125
-39.0625,-63.4765625,-34.1796875,-51.26953125
-54.6875,-74.21875,-36.62109375,-53.7109375
-58.59375,-41.50390625,-41.015625,-50.29296875
-40.0390625,-14.16015625,-45.41015625,-39.0625
-38.57421875,-40.0390625,-46.38671875,-42.48046875
-52.24609375,-73.2421875,-48.33984375,-51.26953125
-68.84765625,-84.47265625,-48.828125,-57.12890625
-72.75390625,-63.4765625,-45.8984375,-54.19921875
-58.10546875,-29.78515625,-48.828125,-48.33984375
-48.828125,-35.15625,-50.78125,-53.7109375
-53.7109375,-62.01171875,-51.7578125,-63.4765625
-65.91796875,-72.75390625,-53.7109375,-66.40625
-64.453125,-68.84765625,-49.8046875,-56.15234375
-49.31640625,-33.69140625,-46.875,-41.9921875
-40.0390625,-0.9765625,-49.31640625,-42.96875
-41.9921875,-46.38671875,-50.29296875,-47.36328125
-50.29296875,-86.42578125,-51.26953125,-51.7578125
-57.6171875,-56.15234375,-51.26953125,-52.734375
-49.8046875,-32.71484375,-50.29296875,-46.875
-37.109375,-23.92578125,-47.36328125,-44.43359375
-40.52734375,-41.50390625,-45.41015625,-52.734375
-52.734375,-74.21875,-42.96875,-55.6640625
-63.96484375,-73.73046875,-41.9921875,-53.22265625
-59.08203125,-29.78515625,-47.36328125,-51.26953125
-40.0390625,-9.27734375,-41.015625,-47.8515625
-45.8984375,-37.109375,-37.109375,-52.24609375
-57.12890625,-68.359375,-42.48046875,-57.6171875
-66.89453125,-87.40234375,-43.9453125,-58.10546875
-67.3828125,-50.78125,-43.45703125,-51.26953125
-43.45703125,-17.578125,-43.9453125,-46.875
-35.15625,-35.64453125,-43.9453125,-52.24609375
-47.36328125,-64.94140625,-44.43359375,-59.08203125
-55.17578125,-64.453125,-47.36328125,-59.5703125
-52.734375,-42.48046875,-51.26953125,-56.15234375
-31.73828125,-17.08984375,-50.29296875,-48.33984375
-24.90234375,-30.76171875,-48.828125,-47.36328125
-41.9921875,-68.359375,-47.8515625,-55.6640625
-57.6171875,-62.98828125,-44.921875,-53.22265625
-56.640625,-27.83203125,-46.875,-49.8046875
-39.0625,-20.99609375,-45.41015625,-45.41015625
-34.1796875,-34.1796875,-43.45703125,-48.33984375
-43.45703125,-65.4296875,-46.875,-55.17578125
-53.7109375,-75.1953125,-46.875,-52.734375
-52.24609375,-53.22265625,-43.9453125,-41.9921875
-32.2265625,-17.08984375,-35.64453125,-32.71484375
-26.85546875,-26.3671875,-32.71484375,-41.015625
-37.109375,-63.96484375,-39.0625,-52.734375
-46.875,-70.3125,-44.43359375,-53.7109375
-58.59375,-66.89453125,-41.9921875,-51.7578125
-47.36328125,-22.94921875,-40.52734375,-46.875
-33.203125,0.0,-43.9453125,-51.7578125
-38.0859375,-54.6875,-46.38671875,-64.453125
-58.59375,-104.4921875,-53.7109375,-68.84765625
-69.3359375,-73.2421875,-53.7109375,-62.01171875
-52.24609375,-18.5546875,-48.33984375,-52.734375
-33.203125,-19.04296875,-43.45703125,-41.9921875
-38.0859375,-44.43359375,-45.8984375,-45.8984375
-48.828125,-65.4296875,-42.96875,-49.8046875
-55.6640625,-70.3125,-43.9453125,-47.8515625
-52.734375,-37.109375,-53.22265625,-46.875
-35.15625,-22.94921875,-54.6875,-41.9921875
-37.109375,-51.7578125,-55.17578125,-48.33984375
-49.31640625,-59.5703125,-45.8984375,-52.24609375
-53.7109375,-55.6640625,-38.0859375,-44.43359375
-46.38671875,-44.43359375,-42.96875,-43.45703125
-30.2734375,-23.92578125,-45.41015625,-42.96875
-23.4375,-37.109375,-43.9453125,-44.921875
-31.73828125,-69.3359375,-46.875,-55.6640625
-41.015625,-72.75390625,-50.29296875,-53.22265625
-36.1328125,-33.203125,-48.828125,-45.8984375
-23.4375,-11.71875,-44.921875,-42.96875
-28.3203125,-26.85546875,-48.33984375,-43.9453125
-42.48046875,-57.6171875,-46.875,-49.31640625
-51.7578125,-71.2890625,-46.875,-44.921875
-47.36328125,-25.390625,-50.78125,-34.1796875
-24.4140625,-20.99609375,-45.8984375,-28.80859375
-19.04296875,-45.41015625,-46.38671875,-34.1796875
-30.2734375,-50.78125,-47.8515625,-37.59765625
-47.8515625,-73.73046875,-47.36328125,-38.57421875
-50.29296875,-50.29296875,-47.36328125,-37.59765625
-37.59765625,-20.01953125,-47.8515625,-35.15625
-35.64453125,-30.2734375,-47.8515625,-41.9921875
-40.0390625,-61.5234375,-45.41015625,-47.8515625
-54.6875,-77.1484375,-43.9453125,-47.36328125
-63.96484375,-60.05859375,-46.38671875,-41.015625
-52.24609375,-24.4140625,-41.9921875,-35.64453125
-36.1328125,-10.7421875,-34.1796875,-38.0859375
-42.96875,-65.91796875,-35.15625,-45.41015625
-63.96484375,-88.8671875,-43.45703125,-51.7578125
-64.94140625,-55.17578125,-47.8515625,-45.8984375
-48.33984375,-22.94921875,-46.38671875,-39.55078125
-36.1328125,-26.3671875,-42.96875,-42.48046875
-40.52734375,-53.22265625,-37.109375,-50.78125
-55.17578125,-78.61328125,-38.57421875,-57.12890625
-65.4296875,-71.77734375,-46.38671875,-54.6875
-58.10546875,-29.78515625,-50.29296875,-52.24609375
-43.9453125,-24.4140625,-52.24609375,-52.24609375
-47.36328125,-59.5703125,-54.6875,-59.5703125
-64.453125,-61.03515625,-54.6875,-62.5
-72.75390625,-69.3359375,-55.6640625,-57.12890625
-60.05859375,-48.828125,-52.734375,-52.24609375
-42.48046875,-20.01953125,-51.26953125,-47.8515625
-51.7578125,-42.48046875,-50.29296875,-53.22265625
-70.3125,-60.546875,-51.7578125,-63.4765625
-75.1953125,-66.89453125,-56.15234375,-61.5234375
-61.5234375,-41.015625,-49.31640625,-47.36328125
-40.52734375,-8.7890625,-41.015625,-40.52734375
-41.50390625,-34.1796875,-44.43359375,-49.31640625
-56.640625,-84.47265625,-45.8984375,-52.24609375
-62.98828125,-67.3828125,-39.55078125,-42.48046875
-51.7578125,-9.765625,-36.1328125,-33.203125
-36.62109375,-22.94921875,-38.0859375,-33.69140625
-35.15625,-38.57421875,-38.0859375,-40.0390625
-50.78125,-60.05859375,-38.57421875,-44.921875
-66.89453125,-82.03125,-42.48046875,-43.9453125
-64.453125,-40.52734375,-41.015625,-39.55078125
-47.36328125,-21.484375,-45.8984375,-39.55078125
-35.64453125,-34.66796875,-46.875,-43.45703125
-39.55078125,-56.15234375,-41.50390625,-47.36328125
-56.640625,-67.3828125,-43.45703125,-47.8515625
-56.640625,-44.43359375,-47.36328125,-46.38671875
-36.1328125,-9.27734375,-45.8984375,-43.45703125
-26.85546875,-12.20703125,-43.9453125,-44.921875
-32.71484375,-58.10546875,-47.8515625,-51.7578125
-49.31640625,-90.33203125,-51.7578125,-55.17578125
-57.6171875,-76.171875,-50.29296875,-49.31640625
-44.43359375,-22.94921875,-47.8515625,-47.36328125
-38.57421875,-18.5546875,-50.78125,-57.12890625
-46.875,-65.4296875,-53.7109375,-60.546875
-61.5234375,-78.61328125,-54.6875,-60.05859375
-64.94140625,-54.19921875,-51.26953125,-52.734375
-53.7109375,-18.06640625,-48.33984375,-43.9453125
-43.45703125,-21.484375,-49.8046875,-43.9453125
-53.7109375,-54.19921875,-52.24609375,-53.7109375
-73.2421875,-56.640625,-53.22265625,-60.05859375
-77.1484375,-68.84765625,-48.828125,-52.24609375
-61.5234375,-42.48046875,-43.9453125,-45.41015625
-45.41015625,-26.85546875,-41.50390625,-45.41015625
-46.875,-64.94140625,-48.33984375,-55.6640625
-57.6171875,-81.54296875,-50.78125,-58.59375
-65.91796875,-72.265625,-47.8515625,-53.22265625
-50.29296875,-25.390625,-44.921875,-42.96875
-31.73828125,-10.7421875,-39.55078125,-35.64453125
-40.0390625,-47.36328125,-41.50390625,-43.45703125
-58.10546875,-75.68359375,-48.33984375,-49.31640625
-68.359375,-67.3828125,-48.828125,-42.48046875
-59.08203125,-26.3671875,-51.26953125,-37.109375
-37.109375,-24.90234375,-55.17578125,-36.1328125
-36.62109375,-61.03515625,-53.22265625,-45.8984375
-52.24609375,-76.171875,-48.33984375,-54.19921875
-54.6875,-64.453125,-51.7578125,-48.33984375
-44.921875,-17.08984375,-52.734375,-37.109375
-30.2734375,0.48828125,-48.33984375,-38.0859375
-31.73828125,-45.8984375,-53.22265625,-49.8046875
-37.109375,-72.75390625,-54.19921875,-54.6875
-49.31640625,-62.01171875,-60.546875,-46.875
-58.59375,-35.64453125,-62.01171875,-33.203125
-44.921875,-23.92578125,-45.41015625,-27.83203125
-49.31640625,-28.80859375,-35.15625,-36.1328125
-61.03515625,-82.03125,-36.1328125,-47.8515625
-73.2421875,-100.5859375,-43.9453125,-51.7578125
-72.265625,-49.31640625,-48.33984375,-43.9453125
-51.26953125,-27.83203125,-41.50390625,-39.0625
-42.48046875,-42.96875,-35.64453125,-48.828125
-52.734375,-62.5,-41.015625,-61.03515625
-71.2890625,-70.3125,-44.43359375,-59.5703125
-72.75390625,-47.8515625,-43.9453125,-47.8515625
-49.8046875,-9.765625,-41.9921875,-39.55078125
-40.0390625,-26.85546875,-39.0625,-41.015625
-56.640625,-65.4296875,-43.45703125,-49.8046875
-67.87109375,-63.96484375,-44.921875,-55.6640625
-66.40625,-64.453125,-47.8515625,-54.6875
-51.26953125,-38.57421875,-47.8515625,-52.734375
-36.1328125,-21.97265625,-39.55078125,-55.17578125
-47.36328125,-68.84765625,-42.48046875,-63.4765625
-66.89453125,-84.47265625,-46.875,-63.96484375
-73.2421875,-56.15234375,-43.9453125,-51.7578125
-59.5703125,-20.5078125,-44.43359375,-43.9453125
-44.43359375,-23.92578125,-43.9453125,-41.9921875
-46.875,-56.640625,-40.0390625,-43.9453125
-62.01171875,-75.1953125,-40.52734375,-46.38671875
-62.98828125,-55.17578125,-41.50390625,-40.0390625
-41.9921875,-6.8359375,-41.9921875,-33.69140625
-31.73828125,-13.671875,-41.9921875,-36.62109375
-40.52734375,-62.01171875,-42.48046875,-41.015625
-50.78125,-81.54296875,-41.9921875,-46.875
-64.94140625,-74.70703125,-44.43359375,-45.41015625
-55.6640625,-41.50390625,-46.875,-35.15625
-27.83203125,-9.765625,-37.59765625,-26.3671875
-33.203125,-40.52734375,-37.109375,-34.1796875
-47.36328125,-81.54296875,-47.8515625,-40.52734375
-50.78125,-78.61328125,-52.24609375,-35.15625
-44.921875,-43.45703125,-51.7578125,-35.64453125
-34.66796875,-23.4375,-49.8046875,-39.0625
-30.76171875,-16.11328125,-46.875,-46.38671875
-41.50390625,-74.21875,-47.8515625,-56.640625
-58.10546875,-96.19140625,-52.734375,-53.22265625
-50.29296875,-32.71484375,-55.6640625,-43.45703125
-36.1328125,-17.578125,-50.78125,-40.52734375
-35.15625,-36.1328125,-50.29296875,-43.9453125
-50.29296875,-67.87109375,-56.640625,-53.7109375
-62.01171875,-71.77734375,-54.6875,-53.7109375
-53.7109375,-40.0390625,-55.6640625,-48.828125
-42.96875,-17.08984375,-54.6875,-52.734375
-44.43359375,-30.2734375,-50.78125,-57.6171875
-52.734375,-49.8046875,-50.29296875,-60.05859375
-62.98828125,-63.96484375,-48.33984375,-58.10546875
-65.4296875,-47.8515625,-52.734375,-48.33984375
-46.875,-19.53125,-47.8515625,-36.1328125
-41.50390625,-30.2734375,-45.41015625,-36.62109375
-50.78125,-59.5703125,-44.43359375,-46.38671875
-63.4765625,-71.77734375,-38.57421875,-52.734375
-66.40625,-56.15234375,-38.0859375,-48.828125
-48.33984375,-33.69140625,-36.62109375,-39.0625
-40.52734375,-31.25,-35.15625,-39.0625
-48.828125,-56.640625,-39.0625,-48.828125
-57.12890625,-76.66015625,-43.9453125,-52.734375
-55.17578125,-57.6171875,-44.43359375,-46.875
-40.52734375,-0.48828125,-43.45703125,-40.0390625
-29.78515625,-18.5546875,-41.015625,-39.0625
-37.109375,-74.70703125,-40.52734375,-46.875
-59.5703125,-83.0078125,-44.43359375,-55.17578125
-72.75390625,-74.21875,-47.36328125,-53.7109375
-58.59375,-36.62109375,-47.8515625,-47.36328125
-48.33984375,-22.4609375,-54.19921875,-53.22265625
-51.26953125,-56.640625,-57.12890625,-59.08203125
-60.546875,-74.70703125,-52.24609375,-59.5703125
-65.4296875,-54.6875,-50.78125,-57.12890625
-47.36328125,-22.4609375,-51.7578125,-48.828125
-30.76171875,-14.16015625,-53.22265625,-53.7109375
-31.25,-34.66796875,-48.33984375,-60.546875
-46.38671875,-73.2421875,-41.015625,-57.6171875
-62.98828125,-88.37890625,-40.52734375,-59.08203125
-49.8046875,-36.62109375,-43.9453125,-56.640625
-30.76171875,-18.5546875,-44.43359375,-53.7109375
-33.69140625,-52.24609375,-45.41015625,-59.08203125
-45.41015625,-73.2421875,-47.36328125,-62.98828125
-61.03515625,-63.96484375,-52.734375,-62.98828125
-56.15234375,-27.83203125,-56.640625,-58.10546875
-38.0859375,-13.18359375,-49.8046875,-48.828125
-40.0390625,-35.64453125,-42.96875,-45.41015625
-51.7578125,-59.5703125,-38.57421875,-49.8046875
-62.98828125,-54.6875,-42.48046875,-50.78125
-59.5703125,-31.73828125,-42.96875,-44.921875
-41.015625,-29.296875,-41.015625,-43.9453125
-38.57421875,-44.43359375,-43.9453125,-53.7109375
-51.26953125,-68.359375,-38.57421875,-54.19921875
-66.89453125,-73.73046875,-37.109375,-47.36328125
-62.98828125,-40.52734375,-39.0625,-45.8984375
-42.48046875,-10.7421875,-38.0859375,-41.50390625
-35.15625,-19.53125,-44.921875,-46.875
-48.33984375,-56.15234375,-45.41015625,-57.6171875
-64.453125,-74.70703125,-41.015625,-56.640625
-64.94140625,-50.78125,-42.48046875,-51.7578125
-55.17578125,-11.23046875,-40.52734375,-50.29296875
-43.9453125,-24.90234375,-36.1328125,-50.78125
-52.734375,-66.89453125,-37.59765625,-56.15234375
-66.89453125,-69.3359375,-41.9921875,-58.10546875
-61.5234375,-64.453125,-41.015625,-51.7578125
-42.48046875,-28.80859375,-44.921875,-50.29296875
-31.73828125,-34.66796875,-48.828125,-49.31640625
-34.66796875,-67.87109375,-44.921875,-49.31640625
-45.41015625,-75.1953125,-41.50390625,-45.8984375
-51.7578125,-65.91796875,-44.43359375,-41.50390625
-42.96875,-29.78515625,-50.78125,-41.9921875
-29.78515625,-14.6484375,-50.29296875,-40.52734375
-33.69140625,-39.0625,-50.29296875,-45.41015625
-56.640625,-79.58984375,-47.36328125,-50.29296875
-63.96484375,-78.61328125,-47.8515625,-49.31640625
-47.36328125,-28.3203125,-49.31640625,-42.96875
-34.1796875,-18.5546875,-48.33984375,-41.015625
-38.0859375,-35.15625,-44.43359375,-48.33984375
-54.6875,-55.17578125,-50.29296875,-59.08203125
-62.01171875,-75.1953125,-53.7109375,-56.15234375
-51.26953125,-27.83203125,-45.8984375,-49.31640625
-34.66796875,-12.6953125,-43.45703125,-49.8046875
-40.0390625,-50.29296875,-42.48046875,-51.7578125
-63.96484375,-67.87109375,-46.875,-58.10546875
-64.94140625,-51.7578125,-44.921875,-54.6875
-49.8046875,-41.9921875,-45.41015625,-41.9921875
-29.78515625,-36.62109375,-45.41015625,-36.1328125
-23.4375,-38.57421875,-42.96875,-42.48046875
-37.59765625,-68.84765625,-49.8046875,-56.640625
-47.36328125,-71.77734375,-54.6875,-56.15234375
-47.8515625,-30.2734375,-50.78125,-42.48046875
-33.69140625,-17.578125,-46.38671875,-38.0859375
-28.3203125,-32.71484375,-48.828125,-42.48046875
-40.52734375,-60.546875,-54.19921875,-54.19921875
-49.31640625,-81.0546875,-51.7578125,-54.19921875
-52.24609375,-46.875,-41.015625,-48.828125
-39.0625,-1.953125,-42.48046875,-46.38671875
-33.203125,-30.2734375,-46.875,-46.875
-52.24609375,-78.125,-46.875,-56.15234375
-68.84765625,-78.125,-43.9453125,-55.17578125
-68.359375,-51.7578125,-42.96875,-44.921875
-52.24609375,-20.5078125,-40.52734375,-39.55078125
-41.50390625,-20.99609375,-40.0390625,-41.9921875
-49.8046875,-63.96484375,-46.38671875,-47.8515625
-59.5703125,-87.890625,-49.31640625,-45.8984375
-59.08203125,-56.15234375,-46.875,-33.203125
-37.59765625,-24.90234375,-45.41015625,-26.3671875
-14.16015625,-13.18359375,-44.921875,-25.87890625
-20.01953125,-34.1796875,-41.9921875,-32.71484375
-35.64453125,-68.359375,-41.015625,-37.59765625
-43.9453125,-64.453125,-46.38671875,-34.1796875
-40.0390625,-32.2265625,-46.38671875,-37.109375
-28.80859375,-19.04296875,-44.921875,-42.48046875
-34.66796875,-50.29296875,-46.38671875,-47.8515625
-48.33984375,-70.80078125,-39.55078125,-49.31640625
-51.26953125,-66.40625,-34.66796875,-37.59765625
-42.48046875,-29.78515625,-41.50390625,-31.25
-39.55078125,-12.6953125,-49.8046875,-38.57421875
-47.8515625,-60.546875,-49.8046875,-46.38671875
-54.6875,-82.51953125,-50.29296875,-53.22265625
-59.5703125,-56.640625,-53.22265625,-49.31640625
-54.19921875,-42.96875,-48.828125,-40.0390625
-41.50390625,-38.0859375,-42.48046875,-40.0390625
-41.015625,-45.8984375,-44.921875,-46.875
-54.19921875,-81.54296875,-52.24609375,-52.734375
-59.5703125,-71.77734375,-51.26953125,-51.26953125
-54.19921875,-32.71484375,-47.36328125,-41.50390625
-39.55078125,-25.390625,-42.48046875,-36.1328125
-36.1328125,-43.45703125,-47.36328125,-51.26953125
-46.875,-64.453125,-50.29296875,-57.6171875
-57.6171875,-67.87109375,-47.36328125,-52.24609375
-56.640625,-36.1328125,-48.828125,-50.78125
-35.64453125,1.953125,-46.875,-48.828125
-33.69140625,-38.57421875,-47.36328125,-55.17578125
-50.78125,-74.21875,-42.48046875,-58.59375
-59.5703125,-65.91796875,-39.55078125,-51.7578125
-58.10546875,-50.29296875,-43.45703125,-45.41015625
-45.8984375,-23.4375,-44.43359375,-41.50390625
-43.9453125,-33.203125,-41.9921875,-44.43359375
-61.03515625,-75.1953125,-41.50390625,-46.875
-70.80078125,-76.171875,-41.9921875,-45.41015625
-72.265625,-50.29296875,-45.41015625,-42.96875
-55.6640625,-24.4140625,-44.921875,-36.1328125
-43.45703125,-28.3203125,-43.9453125,-38.57421875
-48.828125,-54.19921875,-41.015625,-42.96875
-60.05859375,-72.265625,-41.9921875,-44.921875
-62.98828125,-68.84765625,-43.45703125,-41.015625
-46.38671875,-26.85546875,-43.9453125,-37.109375
-38.0859375,-29.296875,-49.8046875,-43.9453125
-47.36328125,-61.03515625,-49.8046875,-54.6875
-65.4296875,-76.171875,-48.828125,-60.546875
-62.98828125,-61.5234375,-49.31640625,-56.15234375
-38.0859375,-7.8125,-48.33984375,-45.8984375
-25.87890625,-3.41796875,-53.22265625,-46.38671875
-32.71484375,-69.82421875,-51.7578125,-54.19921875
-43.9453125,-79.58984375,-45.41015625,-52.734375
-55.17578125,-45.8984375,-49.8046875,-48.828125
-45.8984375,-27.34375,-53.22265625,-42.48046875
-29.78515625,-19.04296875,-52.734375,-41.9921875
-36.62109375,-50.78125,-53.7109375,-54.6875
-50.29296875,-79.58984375,-50.78125,-60.05859375
-62.01171875,-64.453125,-53.7109375,-54.19921875
-54.19921875,-30.76171875,-54.19921875,-46.38671875
-38.0859375,-20.01953125,-50.78125,-47.8515625
-47.36328125,-49.8046875,-47.8515625,-50.78125
-59.5703125,-74.70703125,-48.33984375,-52.734375
-60.546875,-73.73046875,-46.38671875,-48.33984375
-46.875,-37.59765625,-43.9453125,-38.57421875
-34.1796875,-6.34765625,-44.43359375,-38.57421875
-40.0390625,-39.0625,-48.33984375,-48.828125
-49.31640625,-91.30859375,-48.33984375,-53.7109375
-60.546875,-87.890625,-45.8984375,-50.29296875
-51.26953125,-45.41015625,-44.43359375,-44.921875
-31.73828125,-10.25390625,-40.52734375,-42.96875
-33.69140625,-24.90234375,-41.9921875,-50.29296875
-49.31640625,-68.84765625,-49.8046875,-64.453125
-62.98828125,-75.1953125,-53.22265625,-71.77734375
-56.640625,-39.0625,-49.8046875,-61.5234375
-39.55078125,-21.484375,-50.29296875,-49.8046875
-38.0859375,-23.4375,-52.734375,-51.7578125
-46.875,-46.38671875,-48.33984375,-56.640625
-62.01171875,-84.47265625,-51.26953125,-58.10546875
-57.12890625,-51.7578125,-49.31640625,-49.8046875
-36.1328125,-6.34765625,-41.015625,-41.015625
-37.109375,-33.203125,-44.43359375,-42.48046875
-41.015625,-59.5703125,-44.43359375,-43.9453125
-46.38671875,-63.96484375,-43.9453125,-42.96875
-51.7578125,-48.828125,-49.8046875,-41.015625
-40.52734375,-17.08984375,-49.31640625,-33.69140625
-30.76171875,-18.5546875,-47.36328125,-30.2734375
-33.203125,-66.40625,-46.38671875,-38.57421875
-47.8515625,-75.68359375,-47.8515625,-44.921875
-60.546875,-38.0859375,-47.8515625,-43.45703125
-55.6640625,-24.4140625,-45.8984375,-43.9453125
-41.9921875,-30.76171875,-45.8984375,-43.9453125
-47.8515625,-49.8046875,-44.921875,-46.38671875
-65.91796875,-69.3359375,-46.38671875,-51.26953125
-72.75390625,-60.546875,-46.875,-49.31640625
-60.546875,-20.5078125,-42.96875,-44.43359375
-40.52734375,-19.53125,-40.52734375,-44.921875
-38.57421875,-50.78125,-40.0390625,-50.29296875
-54.6875,-69.82421875,-39.0625,-51.26953125
-63.4765625,-64.453125,-42.96875,-48.828125
-54.19921875,-20.01953125,-46.38671875,-44.921875
-44.921875,-3.41796875,-45.8984375,-42.48046875
-51.26953125,-52.734375,-46.38671875,-47.36328125
-63.96484375,-86.42578125,-50.29296875,-55.6640625
-62.98828125,-72.265625,-50.78125,-51.7578125
-45.41015625,-33.69140625,-45.41015625,-42.48046875
-24.90234375,-19.53125,-42.96875,-37.109375
-24.4140625,-43.45703125,-47.8515625,-40.52734375
-52.24609375,-75.68359375,-53.22265625,-56.640625
-75.68359375,-62.01171875,-52.734375,-62.01171875
-58.59375,-15.625,-53.7109375,-53.7109375
-38.57421875,-18.06640625,-49.8046875,-50.29296875
-41.50390625,-30.2734375,-49.8046875,-57.6171875
-61.03515625,-54.19921875,-48.33984375,-69.82421875
-74.21875,-77.63671875,-41.015625,-64.94140625
-67.3828125,-35.64453125,-39.55078125,-49.31640625
-53.7109375,-14.16015625,-41.9921875,-46.875
