TP9,AF7,AF8,TP10
-45.8984375,-82.03125,-48.33984375,-38.0859375
-40.52734375,-48.33984375,-50.29296875,-31.73828125
-30.2734375,-23.4375,-48.33984375,-26.85546875
-30.2734375,-38.0859375,-43.9453125,-25.390625
-41.50390625,-61.5234375,-41.9921875,-34.1796875
-49.31640625,-58.10546875,-47.8515625,-41.50390625
-41.50390625,-51.7578125,-59.5703125,-33.69140625
-24.90234375,-27.34375,-52.24609375,-28.3203125
-22.94921875,-24.4140625,-40.52734375,-31.73828125
-33.69140625,-80.078125,-38.57421875,-41.015625
-42.48046875,-84.47265625,-43.45703125,-39.55078125
-44.43359375,-51.26953125,-47.8515625,-30.76171875
-34.66796875,-23.4375,-41.015625,-28.3203125
-23.92578125,-26.3671875,-36.62109375,-30.2734375
-35.64453125,-62.98828125,-43.9453125,-39.55078125
-50.29296875,-78.61328125,-48.33984375,-43.45703125
-52.24609375,-51.26953125,-48.828125,-37.59765625
-32.71484375,0.0,-50.29296875,-33.203125
-15.625,-26.3671875,-51.7578125,-35.64453125
-38.0859375,-76.171875,-50.78125,-42.48046875
-63.96484375,-72.265625,-53.7109375,-46.38671875
-66.89453125,-61.5234375,-59.5703125,-44.43359375
-51.7578125,-9.27734375,-58.10546875,-42.48046875
-42.48046875,-6.8359375,-55.17578125,-42.96875
-51.26953125,-72.265625,-65.4296875,-50.78125
-60.546875,-89.84375,-69.82421875,-56.640625
-68.359375,-74.21875,-61.5234375,-54.19921875
-56.640625,-31.25,-46.875,-42.96875
-31.25,-18.5546875,-38.57421875,-37.59765625
-27.34375,-37.109375,-40.52734375,-49.8046875
-40.52734375,-87.890625,-41.9921875,-58.10546875
-49.8046875,-87.40234375,-40.52734375,-50.78125
-42.48046875,-30.2734375,-39.0625,-44.921875
-34.1796875,-18.5546875,-38.0859375,-41.50390625
-30.76171875,-45.41015625,-40.0390625,-44.921875
-38.57421875,-75.1953125,-41.015625,-48.828125
-56.15234375,-78.125,-37.59765625,-39.55078125
-57.6171875,-31.73828125,-43.9453125,-34.1796875
-43.9453125,-13.671875,-45.8984375,-28.80859375
-41.015625,-48.33984375,-41.50390625,-26.85546875
-55.6640625,-79.1015625,-48.828125,-38.0859375
-74.70703125,-67.87109375,-50.29296875,-40.52734375
-72.75390625,-46.875,-48.828125,-39.0625
-50.78125,-45.8984375,-44.43359375,-37.109375
-38.57421875,-46.38671875,-37.59765625,-40.0390625
-45.8984375,-77.1484375,-39.55078125,-49.8046875
-56.640625,-79.1015625,-40.0390625,-47.36328125
-57.6171875,-41.015625,-42.96875,-40.0390625
-43.45703125,-13.18359375,-44.921875,-39.0625
-40.0390625,-24.90234375,-45.8984375,-43.9453125
-54.19921875,-61.5234375,-53.7109375,-51.7578125
-71.2890625,-83.49609375,-56.15234375,-60.546875
-66.40625,-46.875,-51.7578125,-53.7109375
-43.9453125,-3.41796875,-48.33984375,-43.9453125
-33.69140625,-14.6484375,-44.921875,-43.45703125
-34.66796875,-72.75390625,-45.8984375,-41.50390625
-50.29296875,-99.609375,-43.45703125,-45.41015625
-60.546875,-61.5234375,-41.015625,-36.62109375
-48.33984375,-20.01953125,-42.48046875,-25.390625
-37.109375,-16.6015625,-45.8984375,-32.2265625
-37.59765625,-55.6640625,-47.36328125,-37.59765625
-46.38671875,-80.078125,-51.26953125,-42.96875
-52.24609375,-60.05859375,-53.22265625,-43.9453125
-37.59765625,-23.92578125,-50.29296875,-42.48046875
-28.3203125,-5.37109375,-48.828125,-44.43359375
-34.66796875,-35.15625,-51.26953125,-50.29296875
-43.9453125,-87.890625,-53.22265625,-51.26953125
-52.734375,-70.3125,-47.8515625,-48.828125
-43.9453125,-22.4609375,-47.36328125,-43.9453125
-33.69140625,-31.25,-48.33984375,-43.45703125
-36.1328125,-47.36328125,-45.8984375,-53.7109375
-47.8515625,-64.453125,-47.8515625,-56.640625
-55.17578125,-64.94140625,-51.26953125,-53.22265625
-41.9921875,-14.16015625,-53.7109375,-43.9453125
-28.3203125,-2.9296875,-49.31640625,-37.109375
-34.1796875,-43.45703125,-49.31640625,-41.50390625
-47.36328125,-56.15234375,-49.8046875,-47.36328125
-59.5703125,-46.875,-46.38671875,-46.38671875
-55.6640625,-36.62109375,-50.78125,-42.48046875
-42.96875,-28.3203125,-50.78125,-44.921875
-44.921875,-34.1796875,-46.38671875,-52.24609375
-57.6171875,-56.640625,-48.828125,-59.5703125
-73.73046875,-74.21875,-52.24609375,-59.08203125
-67.3828125,-39.0625,-51.7578125,-51.26953125
-45.8984375,-18.5546875,-47.8515625,-49.8046875
-47.36328125,-46.38671875,-45.41015625,-57.6171875
-64.453125,-77.1484375,-46.38671875,-65.4296875
-65.91796875,-75.68359375,-40.0390625,-57.12890625
-62.01171875,-32.71484375,-38.57421875,-45.41015625
-53.7109375,-4.8828125,-43.9453125,-42.48046875
-41.015625,-48.33984375,-45.41015625,-42.96875
-49.8046875,-91.796875,-44.921875,-52.24609375
-70.80078125,-90.8203125,-45.41015625,-57.6171875
-77.1484375,-51.26953125,-49.31640625,-53.22265625
-58.10546875,-11.23046875,-50.78125,-52.734375
-41.50390625,-23.4375,-42.96875,-57.6171875
-50.78125,-71.77734375,-45.8984375,-65.4296875
-65.4296875,-77.1484375,-52.734375,-64.453125
-63.96484375,-40.0390625,-53.22265625,-55.17578125
-50.29296875,-15.625,-57.12890625,-49.31640625
-43.9453125,-21.484375,-63.96484375,-60.05859375
-49.31640625,-44.43359375,-62.01171875,-66.40625
-62.98828125,-74.70703125,-51.7578125,-59.5703125
-73.73046875,-71.77734375,-51.26953125,-56.640625
-65.4296875,-20.01953125,-56.15234375,-55.17578125
-45.41015625,-15.625,-54.6875,-51.7578125
-41.50390625,-51.7578125,-47.8515625,-54.19921875
-62.01171875,-75.68359375,-46.875,-58.10546875
-72.75390625,-72.265625,-48.828125,-51.26953125
-57.12890625,-14.16015625,-48.828125,-47.8515625
-39.55078125,-12.6953125,-48.33984375,-48.33984375
-45.8984375,-55.17578125,-53.22265625,-53.22265625
-67.87109375,-78.125,-60.05859375,-63.4765625
-75.68359375,-60.05859375,-57.12890625,-65.91796875
-62.5,-29.296875,-52.24609375,-57.6171875
-44.921875,-41.9921875,-53.22265625,-50.29296875
-44.921875,-58.59375,-53.22265625,-55.17578125
-56.640625,-67.3828125,-54.19921875,-60.546875
-51.7578125,-65.91796875,-52.24609375,-38.0859375
-35.64453125,-29.296875,-48.33984375,-29.296875
-31.73828125,-7.8125,-46.38671875,-51.26953125
-35.64453125,-32.2265625,-52.24609375,-58.10546875
-42.96875,-66.40625,-51.7578125,-59.5703125
-50.78125,-67.3828125,-51.26953125,-58.59375
-47.8515625,-31.25,-49.8046875,-50.29296875
-32.71484375,6.34765625,-41.9921875,-49.31640625
-28.80859375,-26.85546875,-45.8984375,-54.19921875
-43.45703125,-78.125,-48.828125,-60.05859375
-55.17578125,-70.3125,-47.8515625,-58.10546875
-48.33984375,-43.9453125,-49.8046875,-48.828125
-39.55078125,-23.4375,-42.96875,-50.78125
-35.15625,-29.296875,-37.59765625,-52.24609375
-44.921875,-51.26953125,-35.64453125,-53.22265625
-59.5703125,-69.3359375,-40.52734375,-50.29296875
-65.4296875,-53.7109375,-46.875,-46.875
-51.7578125,-24.4140625,-48.33984375,-44.921875
-41.50390625,-30.76171875,-51.7578125,-47.36328125
-51.26953125,-58.10546875,-49.31640625,-53.22265625
-60.546875,-84.9609375,-46.38671875,-53.22265625
-62.5,-58.59375,-52.24609375,-48.828125
-44.921875,-15.13671875,-59.08203125,-44.43359375
-35.15625,-26.3671875,-62.01171875,-48.828125
-47.36328125,-60.05859375,-62.98828125,-59.5703125
-55.6640625,-68.84765625,-56.640625,-59.5703125
-51.7578125,-58.59375,-50.29296875,-46.38671875
-41.9921875,-25.390625,-52.734375,-42.48046875
-31.25,-11.71875,-54.19921875,-48.33984375
-32.71484375,-55.6640625,-50.29296875,-51.7578125
-41.9921875,-67.87109375,-47.36328125,-52.24609375
-47.36328125,-31.25,-45.8984375,-41.9921875
-51.7578125,-16.11328125,-51.26953125,-36.62109375
-38.0859375,-29.78515625,-51.26953125,-39.55078125
-42.96875,-58.59375,-48.33984375,-45.41015625
-62.5,-82.03125,-44.43359375,-49.8046875
-64.94140625,-64.453125,-43.9453125,-41.9921875
-48.828125,-14.6484375,-50.29296875,-34.66796875
-30.76171875,-13.671875,-51.26953125,-34.1796875
-40.0390625,-60.05859375,-52.734375,-39.0625
-58.10546875,-73.73046875,-57.12890625,-49.8046875
-61.5234375,-68.359375,-56.640625,-50.78125
-48.828125,-27.34375,-53.7109375,-40.52734375
-30.2734375,3.90625,-52.734375,-38.57421875
-35.64453125,-47.8515625,-49.8046875,-47.36328125
-51.26953125,-78.61328125,-47.36328125,-56.640625
-59.5703125,-72.265625,-48.33984375,-55.17578125
-54.6875,-40.0390625,-44.921875,-44.921875
-38.0859375,-15.625,-44.43359375,-43.45703125
-37.59765625,-29.296875,-46.38671875,-47.36328125
-51.7578125,-66.40625,-45.8984375,-51.7578125
-67.3828125,-87.890625,-49.8046875,-52.24609375
-66.40625,-44.921875,-53.7109375,-45.41015625
-44.921875,-22.4609375,-47.8515625,-39.0625
-37.109375,-38.0859375,-42.48046875,-43.9453125
-48.33984375,-51.7578125,-43.45703125,-51.26953125
-62.5,-70.3125,-43.9453125,-50.29296875
-57.12890625,-56.640625,-46.38671875,-43.9453125
-40.0390625,-22.94921875,-49.31640625,-36.1328125
-38.57421875,-22.4609375,-46.38671875,-40.52734375
-46.38671875,-61.5234375,-46.38671875,-53.7109375
-59.08203125,-79.1015625,-52.734375,-57.6171875
-57.6171875,-45.41015625,-50.78125,-46.38671875
-33.203125,-9.765625,-46.875,-36.1328125
-29.296875,-27.34375,-48.33984375,-45.8984375
-48.828125,-71.2890625,-49.31640625,-56.15234375
-59.5703125,-67.3828125,-49.8046875,-54.6875
-61.5234375,-41.015625,-49.31640625,-53.22265625
-51.26953125,-31.73828125,-51.26953125,-45.8984375
-37.59765625,-37.109375,-49.8046875,-46.875
-50.78125,-67.3828125,-48.33984375,-58.10546875
-65.4296875,-95.21484375,-46.875,-59.5703125
-59.5703125,-61.03515625,-45.8984375,-50.78125
-49.8046875,-12.6953125,-48.828125,-47.8515625
-41.50390625,-21.484375,-51.26953125,-50.29296875
-42.48046875,-64.453125,-49.31640625,-54.19921875
-49.31640625,-76.66015625,-51.26953125,-60.546875
-58.59375,-64.453125,-58.59375,-61.5234375
-51.7578125,-25.390625,-57.6171875,-50.78125
-27.83203125,6.8359375,-51.7578125,-49.8046875
-33.69140625,-33.69140625,-45.8984375,-59.08203125
-54.6875,-83.49609375,-46.38671875,-58.10546875
-64.453125,-74.70703125,-54.19921875,-57.6171875
-52.24609375,-22.94921875,-62.01171875,-55.17578125
-34.1796875,0.48828125,-60.05859375,-52.24609375
-34.66796875,-29.296875,-59.5703125,-56.640625
-47.36328125,-74.70703125,-57.12890625,-61.5234375
-60.546875,-84.47265625,-55.6640625,-63.96484375
-54.19921875,-44.43359375,-61.5234375,-58.10546875
-35.15625,-26.3671875,-59.08203125,-49.31640625
-37.59765625,-42.48046875,-52.24609375,-49.31640625
-54.19921875,-58.59375,-56.15234375,-54.19921875
-64.94140625,-78.61328125,-57.6171875,-56.640625
-69.3359375,-56.15234375,-56.640625,-49.8046875
-52.734375,-24.4140625,-49.8046875,-44.43359375
-39.55078125,-32.71484375,-42.96875,-48.828125
-51.26953125,-67.3828125,-46.875,-56.640625
-65.91796875,-76.171875,-54.6875,-59.5703125
-58.59375,-44.43359375,-57.12890625,-51.7578125
-36.62109375,-19.04296875,-52.734375,-46.38671875
-32.2265625,-19.53125,-51.7578125,-52.24609375
-46.875,-76.66015625,-54.19921875,-57.12890625
-60.05859375,-81.54296875,-52.734375,-56.15234375
-57.6171875,-19.53125,-51.7578125,-49.8046875
-39.55078125,-18.06640625,-53.22265625,-46.875
-36.1328125,-39.0625,-54.19921875,-48.828125
-46.875,-60.546875,-54.6875,-56.640625
-55.17578125,-72.75390625,-51.26953125,-55.6640625
-56.640625,-51.26953125,-52.734375,-49.31640625
-44.43359375,-19.04296875,-58.10546875,-47.8515625
-29.78515625,-15.13671875,-54.19921875,-46.875
-37.109375,-57.6171875,-50.78125,-54.6875
-53.7109375,-76.66015625,-48.828125,-57.6171875
-55.6640625,-58.10546875,-45.8984375,-50.78125
-43.9453125,-15.13671875,-42.48046875,-43.45703125
-32.2265625,5.859375,-43.45703125,-42.48046875
-37.109375,-54.6875,-50.29296875,-51.7578125
-52.24609375,-101.07421875,-47.8515625,-52.734375
-59.5703125,-67.87109375,-41.9921875,-39.55078125
-49.31640625,-30.2734375,-43.45703125,-36.62109375
-36.62109375,-22.94921875,-44.43359375,-41.9921875
-41.9921875,-46.38671875,-47.36328125,-46.38671875
-45.8984375,-75.68359375,-43.9453125,-48.828125
-42.96875,-69.3359375,-42.96875,-40.0390625
-38.0859375,-25.87890625,-44.43359375,-31.73828125
-32.71484375,-16.11328125,-44.43359375,-32.71484375
-34.66796875,-42.96875,-47.36328125,-36.1328125
-47.8515625,-68.84765625,-44.921875,-44.43359375
-63.96484375,-92.28515625,-44.921875,-49.31640625
-57.12890625,-41.9921875,-46.38671875,-43.45703125
-40.0390625,-7.32421875,-44.921875,-41.015625
-38.0859375,-52.24609375,-45.41015625,-48.33984375
-44.921875,-82.03125,-43.9453125,-57.12890625
-57.12890625,-75.1953125,-43.9453125,-56.640625
-65.4296875,-33.69140625,-49.8046875,-47.36328125
-56.640625,-12.6953125,-50.29296875,-41.9921875
-50.78125,-32.71484375,-46.875,-43.9453125
-62.98828125,-73.2421875,-44.43359375,-51.7578125
-77.1484375,-75.1953125,-46.38671875,-58.59375
-66.89453125,-29.78515625,-46.38671875,-47.8515625
-49.8046875,-21.97265625,-48.33984375,-42.96875
-41.50390625,-50.78125,-47.8515625,-49.31640625
-43.9453125,-82.03125,-51.26953125,-55.17578125
-57.6171875,-75.68359375,-48.828125,-51.26953125
-57.12890625,-30.2734375,-36.1328125,-38.0859375
-45.41015625,-6.34765625,-37.59765625,-35.15625
-46.875,-41.015625,-42.96875,-40.52734375
-53.22265625,-69.82421875,-44.921875,-47.8515625
-58.59375,-64.453125,-45.41015625,-48.33984375
-59.08203125,-47.36328125,-40.52734375,-40.0390625
-46.875,-10.7421875,-40.52734375,-36.62109375
-36.1328125,-1.953125,-45.41015625,-43.9453125
-45.41015625,-57.6171875,-46.38671875,-53.22265625
-60.05859375,-79.58984375,-49.8046875,-57.12890625
-70.80078125,-60.05859375,-56.15234375,-57.12890625
-60.05859375,-26.3671875,-55.6640625,-55.6640625
-42.48046875,-15.13671875,-51.7578125,-51.26953125
-46.38671875,-48.33984375,-52.734375,-54.19921875
-59.5703125,-77.63671875,-56.640625,-59.08203125
-65.91796875,-69.3359375,-57.6171875,-54.6875
-53.7109375,-21.484375,-56.15234375,-46.38671875
-44.921875,-30.2734375,-55.6640625,-46.875
-49.31640625,-63.4765625,-47.8515625,-52.734375
-58.10546875,-61.03515625,-42.48046875,-54.19921875
-71.2890625,-71.77734375,-41.015625,-51.26953125
-69.82421875,-42.96875,-42.48046875,-44.921875
-55.17578125,-17.08984375,-44.43359375,-44.43359375
-54.6875,-43.9453125,-41.015625,-50.29296875
-62.98828125,-75.1953125,-38.0859375,-55.6640625
-67.87109375,-74.21875,-44.43359375,-58.10546875
-61.03515625,-27.34375,-43.9453125,-51.7578125
-40.52734375,-18.06640625,-40.0390625,-46.38671875
-40.52734375,-41.50390625,-42.48046875,-51.7578125
-57.12890625,-59.5703125,-47.36328125,-62.5
-63.96484375,-67.87109375,-51.26953125,-62.01171875
-50.78125,-21.97265625,-52.734375,-54.6875
-26.3671875,-4.8828125,-48.828125,-50.78125
-25.390625,-57.6171875,-51.26953125,-57.12890625
-42.48046875,-86.9140625,-53.7109375,-63.96484375
-50.78125,-68.84765625,-50.29296875,-59.5703125
-44.43359375,-28.3203125,-52.734375,-46.875
-34.66796875,-17.08984375,-51.26953125,-38.57421875
-44.43359375,-40.0390625,-50.78125,-42.48046875
-59.5703125,-70.3125,-56.15234375,-48.828125
-61.03515625,-78.125,-55.17578125,-42.48046875
-60.05859375,-53.7109375,-53.22265625,-31.73828125
-41.015625,-15.625,-43.9453125,-23.92578125
-24.90234375,-8.30078125,-36.1328125,-29.296875
-44.43359375,-76.171875,-43.45703125,-47.36328125
-70.80078125,-105.46875,-47.36328125,-58.10546875
-66.40625,-62.5,-44.921875,-50.29296875
-41.50390625,-40.52734375,-45.8984375,-40.0390625
-33.203125,-32.71484375,-44.43359375,-42.48046875
-45.41015625,-66.89453125,-40.52734375,-49.8046875
-54.6875,-92.7734375,-40.0390625,-48.828125
-52.734375,-63.96484375,-41.50390625,-40.52734375
-43.45703125,-21.97265625,-39.0625,-34.66796875
-29.296875,-28.3203125,-40.0390625,-36.1328125
-30.76171875,-62.01171875,-45.8984375,-48.33984375
-51.26953125,-66.89453125,-51.26953125,-60.05859375
-56.15234375,-70.3125,-51.26953125,-49.31640625
-29.78515625,-34.66796875,-43.9453125,-27.34375
-22.94921875,-18.06640625,-34.66796875,-27.83203125
-47.36328125,-64.453125,-37.109375,-51.7578125
-67.87109375,-80.078125,-42.48046875,-62.5
-78.61328125,-54.6875,-39.55078125,-54.6875
-63.96484375,-27.83203125,-38.57421875,-44.921875
-46.38671875,-25.87890625,-43.45703125,-49.31640625
-48.828125,-51.26953125,-47.36328125,-58.10546875
-55.17578125,-75.68359375,-45.8984375,-53.22265625
-56.15234375,-64.94140625,-47.8515625,-44.921875
-39.55078125,-4.8828125,-53.7109375,-38.0859375
-27.83203125,-15.13671875,-56.640625,-38.0859375
-31.73828125,-57.12890625,-53.22265625,-47.36328125
-44.43359375,-70.3125,-52.24609375,-56.640625
-62.01171875,-73.73046875,-56.15234375,-57.6171875
-59.08203125,-40.0390625,-55.17578125,-48.33984375
-42.96875,-7.32421875,-52.734375,-43.45703125
-38.57421875,-29.296875,-45.8984375,-49.31640625
-56.15234375,-77.1484375,-45.8984375,-55.6640625
-73.2421875,-80.56640625,-50.29296875,-58.59375
-62.98828125,-43.9453125,-49.8046875,-45.41015625
-42.96875,-11.23046875,-47.8515625,-39.55078125
-40.52734375,-26.3671875,-45.8984375,-48.828125
-55.17578125,-82.03125,-45.8984375,-54.6875
-70.3125,-89.84375,-48.33984375,-54.19921875
-67.87109375,-36.1328125,-48.33984375,-43.9453125
-46.875,-18.06640625,-48.33984375,-33.203125
-44.43359375,-28.80859375,-53.22265625,-41.50390625
-54.6875,-57.6171875,-51.7578125,-57.6171875
-66.40625,-82.03125,-50.29296875,-59.5703125
-65.4296875,-51.26953125,-51.7578125,-48.33984375
-44.921875,-7.32421875,-50.29296875,-42.96875
-35.15625,-20.99609375,-48.33984375,-47.36328125
-43.9453125,-53.7109375,-48.33984375,-53.7109375
-54.6875,-45.8984375,-52.24609375,-58.10546875
-56.640625,-44.921875,-56.15234375,-49.31640625
-47.36328125,-41.9921875,-53.22265625,-38.57421875
-35.64453125,-36.62109375,-52.734375,-41.9921875
-46.38671875,-68.359375,-59.08203125,-51.7578125
-65.91796875,-81.0546875,-55.6640625,-52.24609375
-63.4765625,-57.6171875,-47.8515625,-41.50390625
-43.9453125,-14.16015625,-43.9453125,-37.109375
-35.64453125,-10.7421875,-44.921875,-39.55078125
-44.921875,-49.31640625,-43.9453125,-46.38671875
-57.6171875,-77.1484375,-41.015625,-49.31640625
-64.453125,-68.359375,-38.0859375,-44.43359375
-55.17578125,-2.9296875,-42.96875,-41.015625
-34.1796875,-0.48828125,-43.9453125,-39.55078125
-31.73828125,-44.43359375,-46.38671875,-45.41015625
-51.26953125,-70.3125,-47.8515625,-52.734375
-63.96484375,-73.73046875,-47.36328125,-47.36328125
-57.12890625,-32.2265625,-48.828125,-39.0625
-35.64453125,-14.6484375,-49.31640625,-39.55078125
-29.296875,-26.3671875,-47.8515625,-43.9453125
-50.29296875,-62.01171875,-44.43359375,-48.33984375
-62.01171875,-75.68359375,-47.36328125,-47.36328125
-50.78125,-36.62109375,-49.31640625,-41.015625
-35.64453125,-5.37109375,-44.43359375,-37.109375
-36.62109375,-19.04296875,-39.0625,-41.015625
-44.921875,-78.125,-40.0390625,-40.52734375
-53.7109375,-91.796875,-41.9921875,-35.15625
-52.24609375,-40.0390625,-40.0390625,-29.296875
-28.3203125,-17.08984375,-41.015625,-23.4375
-26.3671875,-33.203125,-40.52734375,-33.203125
-49.31640625,-60.05859375,-42.48046875,-55.17578125
-63.4765625,-90.8203125,-44.921875,-58.10546875
-60.546875,-53.22265625,-41.015625,-44.43359375
-45.41015625,-10.7421875,-40.0390625,-33.69140625
-36.62109375,-26.3671875,-43.45703125,-35.15625
-41.50390625,-62.5,-41.015625,-45.8984375
-54.6875,-63.96484375,-41.015625,-49.31640625
-54.6875,-48.828125,-41.50390625,-45.41015625
-31.73828125,-31.73828125,-45.41015625,-41.9921875
-28.80859375,-23.4375,-46.38671875,-43.9453125
-42.96875,-62.01171875,-43.9453125,-46.38671875
-53.7109375,-84.9609375,-47.8515625,-46.875
-56.15234375,-55.17578125,-49.31640625,-41.50390625
-40.0390625,-16.6015625,-51.26953125,-37.59765625
-23.4375,-13.18359375,-48.33984375,-41.015625
-33.69140625,-50.29296875,-47.8515625,-46.875
-55.17578125,-86.42578125,-52.24609375,-48.33984375
-57.6171875,-56.640625,-50.78125,-44.921875
-42.96875,2.44140625,-47.8515625,-42.48046875
-30.76171875,-16.6015625,-44.43359375,-43.9453125
-40.0390625,-62.01171875,-47.8515625,-52.734375
-54.19921875,-76.66015625,-49.8046875,-60.05859375
-61.5234375,-66.89453125,-49.8046875,-57.6171875
-54.19921875,-28.80859375,-51.7578125,-50.29296875
-39.55078125,-20.01953125,-47.8515625,-46.875
-40.52734375,-39.0625,-47.36328125,-47.8515625
-54.19921875,-74.70703125,-45.8984375,-49.8046875
-58.59375,-74.21875,-39.55078125,-45.41015625
-50.29296875,-34.66796875,-46.875,-43.9453125
-37.59765625,-17.08984375,-51.7578125,-42.96875
-34.66796875,-19.53125,-42.96875,-40.0390625
-52.24609375,-72.75390625,-45.8984375,-45.41015625
-60.546875,-105.46875,-52.24609375,-43.9453125
-53.22265625,-47.36328125,-52.734375,-37.59765625
-40.0390625,-22.4609375,-49.8046875,-37.109375
-37.59765625,-31.73828125,-51.26953125,-47.8515625
-46.875,-68.84765625,-52.24609375,-57.12890625
-54.6875,-85.44921875,-50.29296875,-53.22265625
-53.7109375,-35.64453125,-51.26953125,-43.45703125
-36.62109375,-20.01953125,-48.33984375,-35.64453125
-38.0859375,-37.59765625,-46.38671875,-43.45703125
-53.7109375,-69.82421875,-48.828125,-52.24609375
-62.98828125,-62.5,-47.8515625,-52.734375
-60.05859375,-38.57421875,-53.22265625,-51.7578125
-39.55078125,-20.99609375,-52.734375,-45.8984375
-31.25,-21.484375,-47.8515625,-45.8984375
-37.59765625,-66.89453125,-48.828125,-49.8046875
-55.17578125,-74.21875,-49.31640625,-51.26953125
-54.19921875,-40.52734375,-52.734375,-47.36328125
-26.85546875,-10.25390625,-47.36328125,-41.50390625
-25.390625,-22.4609375,-47.8515625,-44.43359375
-40.0390625,-63.4765625,-50.29296875,-54.6875
-54.6875,-74.70703125,-47.36328125,-58.59375
-58.59375,-49.8046875,-46.38671875,-50.78125
-41.015625,-3.90625,-43.45703125,-45.8984375
-34.1796875,-27.34375,-42.96875,-48.828125
-42.96875,-75.68359375,-43.9453125,-50.29296875
-52.734375,-70.3125,-48.828125,-50.78125
-53.22265625,-58.10546875,-57.12890625,-45.8984375
-41.015625,-22.94921875,-51.7578125,-36.62109375
-39.0625,-9.765625,-43.9453125,-43.45703125
-45.8984375,-60.05859375,-50.29296875,-58.59375
-62.01171875,-85.44921875,-56.15234375,-65.91796875
-71.77734375,-73.2421875,-51.7578125,-60.546875
-61.5234375,-40.52734375,-44.43359375,-54.6875
-45.41015625,-17.08984375,-44.921875,-52.24609375
-41.015625,-35.15625,-47.36328125,-53.7109375
-52.734375,-80.078125,-53.22265625,-66.89453125
-59.5703125,-74.70703125,-48.33984375,-59.08203125
-55.6640625,-31.25,-43.9453125,-48.33984375
-42.48046875,-26.85546875,-50.78125,-55.17578125
-34.1796875,-55.6640625,-48.33984375,-55.17578125
-49.31640625,-79.58984375,-47.8515625,-56.640625
-57.6171875,-82.03125,-49.31640625,-55.6640625
-50.29296875,-39.55078125,-49.31640625,-44.43359375
-37.109375,-8.30078125,-46.38671875,-33.69140625
-35.64453125,-43.45703125,-46.38671875,-34.66796875
-54.19921875,-80.078125,-50.29296875,-43.45703125
-63.96484375,-67.87109375,-48.828125,-45.41015625
-56.640625,-43.9453125,-49.31640625,-39.55078125
-40.0390625,-28.3203125,-39.55078125,-35.15625
-37.109375,-36.62109375,-33.203125,-40.0390625
-48.828125,-71.2890625,-41.015625,-51.7578125
-63.4765625,-84.47265625,-47.36328125,-57.6171875
-61.5234375,-44.921875,-46.875,-53.7109375
-39.0625,-11.23046875,-44.921875,-47.8515625
-36.1328125,-36.62109375,-45.8984375,-55.17578125
-50.78125,-70.80078125,-48.33984375,-64.453125
-62.98828125,-72.75390625,-47.36328125,-58.59375
-60.05859375,-47.36328125,-48.828125,-50.78125
-37.59765625,-1.46484375,-46.875,-45.41015625
-28.3203125,-4.8828125,-43.9453125,-42.96875
-41.9921875,-73.2421875,-49.8046875,-51.7578125
-62.98828125,-93.26171875,-50.29296875,-58.59375
-67.3828125,-45.41015625,-51.26953125,-52.734375
-52.24609375,-11.23046875,-52.734375,-43.45703125
-34.1796875,-18.5546875,-47.8515625,-43.9453125
-37.109375,-61.03515625,-45.8984375,-51.7578125
-63.4765625,-81.0546875,-49.31640625,-55.17578125
-73.2421875,-55.17578125,-51.26953125,-47.8515625
-55.17578125,-21.97265625,-47.8515625,-44.921875
-38.0859375,-19.04296875,-46.38671875,-46.875
-39.55078125,-38.0859375,-44.921875,-52.24609375
-51.7578125,-82.51953125,-43.9453125,-57.12890625
-58.10546875,-70.3125,-42.48046875,-47.36328125
-45.41015625,-14.6484375,-44.921875,-37.109375
-31.25,-38.0859375,-52.24609375,-40.0390625
-43.45703125,-68.84765625,-52.734375,-46.875
-67.3828125,-81.0546875,-52.24609375,-54.6875
-69.3359375,-59.5703125,-45.41015625,-52.734375
-53.22265625,-17.08984375,-44.43359375,-45.41015625
-39.0625,-14.6484375,-46.38671875,-41.50390625
-43.9453125,-40.0390625,-45.41015625,-47.36328125
-54.19921875,-66.40625,-44.43359375,-53.7109375
-63.4765625,-65.4296875,-47.8515625,-50.78125
-55.6640625,-35.15625,-53.22265625,-47.36328125
-33.69140625,-25.390625,-54.19921875,-45.8984375
-29.296875,-43.45703125,-53.22265625,-44.921875
-36.1328125,-65.4296875,-49.31640625,-48.33984375
-51.26953125,-52.734375,-53.22265625,-51.26953125
-50.29296875,-18.5546875,-51.7578125,-45.8984375
-33.69140625,-19.53125,-45.8984375,-44.43359375
-36.62109375,-27.83203125,-45.41015625,-54.6875
-45.41015625,-55.6640625,-46.38671875,-62.98828125
-49.8046875,-77.63671875,-44.43359375,-58.59375
-51.26953125,-30.76171875,-44.43359375,-43.45703125
-38.57421875,10.25390625,-47.36328125,-32.2265625
-34.66796875,-29.78515625,-45.8984375,-34.66796875
-49.8046875,-80.078125,-46.875,-41.50390625
-60.546875,-71.2890625,-48.828125,-41.015625
-60.05859375,-31.25,-51.7578125,-38.0859375
-43.45703125,-6.34765625,-51.26953125,-35.64453125
-40.52734375,-19.53125,-47.8515625,-34.66796875
-53.7109375,-63.4765625,-48.33984375,-44.921875
-66.40625,-72.265625,-46.38671875,-48.828125
-63.96484375,-41.9921875,-50.29296875,-43.9453125
-46.875,-15.625,-53.7109375,-42.48046875
-40.0390625,-24.90234375,-50.78125,-51.7578125
-41.9921875,-56.15234375,-49.8046875,-63.96484375
-54.19921875,-75.68359375,-55.17578125,-67.87109375
-66.89453125,-64.453125,-56.640625,-60.05859375
-49.31640625,-23.4375,-50.78125,-49.31640625
-35.15625,-32.71484375,-50.78125,-51.7578125
-42.48046875,-55.17578125,-52.24609375,-59.5703125
-59.08203125,-67.3828125,-53.7109375,-61.03515625
-68.359375,-76.171875,-48.828125,-50.29296875
-54.6875,-37.109375,-43.45703125,-37.109375
-41.015625,-20.01953125,-42.96875,-36.1328125
-45.41015625,-54.19921875,-43.9453125,-39.0625
-65.91796875,-73.73046875,-44.43359375,-44.43359375
-80.56640625,-52.24609375,-47.36328125,-46.38671875
-68.359375,-28.3203125,-47.36328125,-41.015625
-45.8984375,-41.50390625,-45.8984375,-46.38671875
-47.36328125,-56.640625,-43.45703125,-55.6640625
-66.89453125,-75.1953125,-46.38671875,-62.98828125
-74.70703125,-72.265625,-48.33984375,-58.59375
-59.5703125,-36.62109375,-48.33984375,-48.33984375
-39.0625,-22.4609375,-44.921875,-46.38671875
-40.0390625,-39.55078125,-48.33984375,-49.31640625
-55.17578125,-65.91796875,-51.26953125,-55.6640625
-60.546875,-65.91796875,-44.921875,-52.24609375
-50.78125,-22.4609375,-49.31640625,-46.38671875
-34.66796875,1.46484375,-53.22265625,-46.875
-31.25,-44.43359375,-47.8515625,-48.33984375
-38.0859375,-78.125,-46.38671875,-49.31640625
-44.43359375,-64.94140625,-43.9453125,-42.48046875
-48.33984375,-46.38671875,-41.9921875,-31.25
-37.109375,-17.08984375,-42.48046875,-26.3671875
-31.73828125,-18.06640625,-40.0390625,-29.78515625
-49.8046875,-63.96484375,-36.1328125,-42.96875
-62.01171875,-71.2890625,-39.55078125,-44.43359375
-56.640625,-39.55078125,-41.9921875,-36.1328125
-38.57421875,-20.01953125,-38.0859375,-34.66796875
-36.1328125,-27.34375,-41.015625,-41.015625
-46.875,-47.8515625,-44.43359375,-50.29296875
-56.15234375,-77.63671875,-47.36328125,-55.17578125
-48.828125,-60.546875,-47.8515625,-44.43359375
-35.64453125,-21.97265625,-44.43359375,-37.59765625
-30.2734375,-31.25,-43.9453125,-42.48046875
-38.0859375,-55.17578125,-48.828125,-50.29296875
-51.26953125,-51.7578125,-45.8984375,-52.734375
-59.5703125,-56.15234375,-46.38671875,-51.26953125
-48.828125,-30.76171875,-48.828125,-47.8515625
-36.1328125,-12.20703125,-49.8046875,-49.31640625
-49.8046875,-54.6875,-51.7578125,-58.59375
-66.89453125,-72.265625,-55.6640625,-63.96484375
-72.75390625,-44.43359375,-58.59375,-56.640625
-55.17578125,-34.66796875,-51.7578125,-47.8515625
-37.59765625,-33.203125,-49.31640625,-45.8984375
-46.38671875,-53.22265625,-48.828125,-46.38671875
-50.29296875,-74.21875,-45.8984375,-50.78125
-57.12890625,-56.15234375,-41.015625,-49.8046875
-54.19921875,-19.53125,-42.48046875,-41.50390625
-42.96875,-26.3671875,-49.31640625,-44.921875
-48.33984375,-48.33984375,-47.36328125,-52.24609375
-54.6875,-66.89453125,-44.43359375,-53.22265625
-62.5,-76.66015625,-50.29296875,-52.24609375
-54.6875,-31.25,-49.8046875,-45.8984375
-31.73828125,7.8125,-43.45703125,-41.50390625
-31.25,-45.8984375,-47.8515625,-49.8046875
-44.43359375,-100.09765625,-56.15234375,-56.640625
-44.921875,-79.1015625,-50.29296875,-45.8984375
-33.203125,-25.390625,-46.875,-31.25
-20.5078125,-3.41796875,-55.17578125,-28.80859375
-20.99609375,-25.390625,-56.640625,-36.1328125
-38.0859375,-55.17578125,-55.17578125,-45.41015625
-52.734375,-74.21875,-56.640625,-48.33984375
-48.828125,-50.78125,-50.29296875,-43.9453125
-35.15625,-20.01953125,-43.9453125,-35.15625
-40.0390625,-29.78515625,-41.50390625,-39.0625
-52.734375,-54.6875,-43.45703125,-49.31640625
-63.4765625,-77.1484375,-46.875,-48.828125
-68.359375,-75.68359375,-41.50390625,-43.45703125
-54.6875,-33.203125,-34.66796875,-38.57421875
-44.921875,-31.25,-35.64453125,-42.96875
-54.19921875,-67.3828125,-39.55078125,-51.7578125
-65.4296875,-71.2890625,-42.48046875,-51.26953125
-60.546875,-38.57421875,-45.41015625,-43.45703125
-36.1328125,-5.859375,-46.38671875,-36.62109375
-22.94921875,-20.5078125,-46.875,-39.0625
-32.2265625,-53.7109375,-49.8046875,-47.36328125
-44.921875,-65.4296875,-54.19921875,-51.26953125
-52.734375,-43.9453125,-56.15234375,-52.734375
-39.55078125,-22.94921875,-53.22265625,-45.8984375
-36.62109375,-30.76171875,-53.22265625,-48.828125
-52.24609375,-43.9453125,-53.22265625,-62.01171875
-62.01171875,-78.61328125,-49.8046875,-60.05859375
-63.4765625,-62.98828125,-47.8515625,-52.24609375
-48.33984375,-11.71875,-44.43359375,-45.41015625
-32.71484375,-15.13671875,-38.57421875,-41.50390625
-43.45703125,-52.734375,-40.0390625,-50.29296875
-63.96484375,-71.77734375,-41.50390625,-55.6640625
-70.3125,-62.01171875,-46.38671875,-53.7109375
-55.6640625,-17.08984375,-49.31640625,-51.26953125
-37.59765625,-0.48828125,-41.015625,-48.828125
-37.109375,-65.4296875,-46.875,-56.15234375
-50.78125,-91.30859375,-52.734375,-57.6171875
-58.59375,-62.5,-48.33984375,-47.36328125
-42.48046875,-27.83203125,-45.8984375,-34.1796875
-30.2734375,-10.25390625,-45.8984375,-35.15625
-36.1328125,-39.55078125,-45.41015625,-47.36328125
-42.48046875,-94.23828125,-46.38671875,-52.24609375
-50.29296875,-86.42578125,-52.24609375,-52.24609375
-48.828125,-27.34375,-47.8515625,-41.015625
-41.015625,-13.18359375,-46.38671875,-38.57421875
-44.43359375,-40.52734375,-49.31640625,-50.78125
-51.7578125,-63.4765625,-51.7578125,-54.19921875
-62.01171875,-84.9609375,-52.24609375,-55.6640625
-59.5703125,-63.4765625,-48.828125,-51.7578125
-45.8984375,-26.85546875,-47.8515625,-42.96875
-38.0859375,-32.2265625,-46.38671875,-47.36328125
-48.33984375,-65.4296875,-45.8984375,-53.22265625
-67.3828125,-78.61328125,-46.38671875,-49.31640625
-63.4765625,-55.17578125,-42.96875,-42.48046875
-51.26953125,-24.4140625,-45.8984375,-41.50390625
-50.29296875,-24.4140625,-46.875,-42.96875
-54.6875,-73.2421875,-43.45703125,-46.38671875
-63.4765625,-74.21875,-46.38671875,-45.8984375
-61.03515625,-28.3203125,-50.29296875,-44.921875
-40.0390625,-35.15625,-50.78125,-42.96875
-29.296875,-41.9921875,-48.828125,-41.015625
-39.55078125,-57.12890625,-51.26953125,-50.29296875
-54.19921875,-70.80078125,-51.26953125,-53.7109375
-58.10546875,-61.5234375,-50.29296875,-46.38671875
-39.55078125,-24.4140625,-55.17578125,-41.50390625
-22.94921875,-16.6015625,-55.17578125,-45.8984375
-36.1328125,-61.5234375,-51.26953125,-53.22265625
-55.6640625,-74.70703125,-54.19921875,-55.6640625
-59.08203125,-54.19921875,-54.6875,-53.7109375
-38.57421875,-16.6015625,-50.29296875,-48.33984375
-27.83203125,-9.765625,-50.29296875,-47.8515625
-42.48046875,-53.22265625,-49.31640625,-59.5703125
-52.734375,-87.890625,-45.8984375,-59.08203125
-63.96484375,-79.1015625,-47.36328125,-48.828125
-57.12890625,-36.62109375,-49.31640625,-42.48046875
-34.66796875,-22.4609375,-45.8984375,-40.0390625
-41.9921875,-50.29296875,-44.43359375,-46.875
-56.15234375,-70.3125,-51.7578125,-59.5703125
-51.26953125,-58.10546875,-56.640625,-56.640625
-42.96875,-28.3203125,-53.22265625,-46.875
-35.64453125,-25.390625,-46.875,-44.921875
-35.15625,-43.9453125,-39.0625,-41.50390625
-48.828125,-52.24609375,-39.55078125,-46.875
-56.15234375,-76.171875,-43.45703125,-48.33984375
-52.24609375,-41.50390625,-43.45703125,-41.50390625
-36.1328125,-10.7421875,-49.8046875,-44.921875
-32.71484375,-53.7109375,-54.6875,-55.17578125
-54.6875,-84.47265625,-53.22265625,-64.94140625
-67.3828125,-79.1015625,-59.5703125,-65.91796875
-59.5703125,-39.0625,-56.640625,-55.17578125
-41.015625,-12.6953125,-46.38671875,-47.8515625
-35.15625,-31.73828125,-44.43359375,-42.96875
-55.17578125,-75.1953125,-43.9453125,-49.8046875
-78.125,-88.37890625,-49.8046875,-65.91796875
-70.80078125,-33.203125,-51.26953125,-58.59375
-43.9453125,-6.8359375,-43.45703125,-41.015625
-38.0859375,-46.875,-45.41015625,-39.0625
-57.12890625,-77.1484375,-51.7578125,-53.7109375
-73.2421875,-73.2421875,-56.15234375,-58.10546875
-65.91796875,-28.80859375,-53.22265625,-48.33984375
-43.45703125,-3.90625,-42.96875,-41.015625
-39.55078125,-36.1328125,-39.55078125,-43.9453125
-47.36328125,-52.24609375,-42.48046875,-52.24609375
-57.6171875,-62.01171875,-51.26953125,-54.19921875
-62.5,-56.15234375,-55.17578125,-50.29296875
-41.015625,-12.20703125,-44.921875,-43.9453125
-28.80859375,0.9765625,-41.50390625,-47.8515625
-39.0625,-62.5,-47.36328125,-58.59375
-57.12890625,-105.95703125,-54.19921875,-59.5703125
-73.73046875,-62.01171875,-54.6875,-54.6875
-54.6875,-9.27734375,-46.875,-45.41015625
-35.15625,-22.94921875,-48.33984375,-42.48046875
-46.38671875,-61.03515625,-50.29296875,-51.26953125
-65.4296875,-74.21875,-50.78125,-54.19921875
-64.94140625,-61.5234375,-47.8515625,-44.43359375
-51.7578125,-20.01953125,-47.36328125,-39.0625
-39.55078125,-29.78515625,-47.8515625,-37.109375
-41.015625,-59.5703125,-44.43359375,-42.48046875
-52.734375,-64.453125,-45.8984375,-48.33984375
-56.15234375,-76.171875,-50.78125,-43.45703125
-48.33984375,-38.57421875,-52.24609375,-36.1328125
-29.296875,6.34765625,-46.38671875,-30.76171875
-33.69140625,-31.73828125,-43.9453125,-38.57421875
-52.734375,-74.70703125,-47.8515625,-47.36328125
-61.5234375,-64.94140625,-48.33984375,-51.26953125
-55.17578125,-29.296875,-46.38671875,-45.8984375
-42.48046875,-23.4375,-45.41015625,-46.875
-37.59765625,-41.9921875,-44.921875,-54.6875
-49.31640625,-67.87109375,-43.45703125,-55.17578125
-65.4296875,-73.2421875,-44.43359375,-53.7109375
-54.19921875,-14.16015625,-40.0390625,-42.96875
-27.83203125,-7.32421875,-33.203125,-37.109375
-36.62109375,-53.22265625,-37.109375,-49.31640625
-52.734375,-80.078125,-43.9453125,-57.12890625
-49.8046875,-79.1015625,-43.9453125,-50.29296875
-53.7109375,-39.55078125,-44.921875,-43.9453125
-47.36328125,-18.5546875,-43.9453125,-41.015625
-44.43359375,-30.2734375,-45.41015625,-41.9921875
-55.6640625,-67.3828125,-46.38671875,-53.7109375
-68.359375,-75.1953125,-47.36328125,-55.17578125
-71.2890625,-40.52734375,-51.26953125,-50.29296875
-51.26953125,-12.6953125,-49.31640625,-47.36328125
-41.015625,-11.71875,-48.828125,-46.38671875
-53.22265625,-71.2890625,-49.8046875,-54.6875
-70.3125,-97.16796875,-49.31640625,-58.59375
-73.2421875,-45.41015625,-49.8046875,-50.78125
-52.24609375,-24.90234375,-47.8515625,-39.55078125
-38.0859375,-29.78515625,-43.9453125,-39.55078125
-36.62109375,-56.15234375,-46.38671875,-43.9453125
-44.921875,-84.9609375,-46.38671875,-41.015625
-53.7109375,-56.640625,-49.31640625,-36.1328125
-42.48046875,-8.7890625,-52.734375,-31.73828125
-29.78515625,-19.04296875,-46.875,-32.71484375
-30.76171875,-57.12890625,-41.9921875,-41.015625
-43.45703125,-58.59375,-42.96875,-47.8515625
-49.31640625,-59.08203125,-47.8515625,-42.48046875
-40.0390625,-31.73828125,-49.8046875,-37.59765625
-27.83203125,-27.83203125,-53.22265625,-42.96875
-39.0625,-64.453125,-50.78125,-48.33984375
-60.05859375,-71.2890625,-50.78125,-50.29296875
-67.3828125,-49.31640625,-54.19921875,-54.6875
-63.96484375,-31.73828125,-53.22265625,-55.6640625
-45.41015625,-25.87890625,-51.26953125,-51.26953125
-42.96875,-47.36328125,-45.41015625,-57.12890625
-54.6875,-76.66015625,-40.52734375,-64.94140625
-64.94140625,-68.359375,-43.45703125,-58.10546875
-60.546875,-18.06640625,-45.8984375,-45.41015625
-41.50390625,-16.6015625,-43.9453125,-37.59765625
-41.9921875,-65.91796875,-40.52734375,-36.62109375
-54.6875,-81.54296875,-43.45703125,-41.9921875
-70.3125,-72.75390625,-52.24609375,-43.45703125
-61.5234375,-43.9453125,-54.19921875,-38.0859375
-38.0859375,-20.99609375,-44.43359375,-32.71484375
-37.59765625,-36.62109375,-37.59765625,-37.109375
-48.828125,-66.40625,-39.0625,-50.78125
-54.6875,-67.3828125,-43.45703125,-52.734375
-51.26953125,-50.29296875,-50.78125,-47.36328125
-37.109375,-24.4140625,-53.7109375,-46.875
-31.25,-20.99609375,-52.734375,-49.8046875
-43.9453125,-65.4296875,-51.7578125,-55.17578125
-54.6875,-84.9609375,-50.29296875,-52.734375
-56.640625,-42.96875,-45.41015625,-47.36328125
-41.50390625,-14.16015625,-43.9453125,-40.52734375
-31.25,-25.390625,-50.78125,-38.0859375
-37.109375,-63.96484375,-48.828125,-48.33984375
-52.734375,-67.87109375,-48.33984375,-53.7109375
-61.03515625,-42.48046875,-51.26953125,-47.36328125
-40.52734375,-20.01953125,-50.78125,-39.0625
-36.1328125,-32.2265625,-51.26953125,-46.38671875
-54.19921875,-70.3125,-51.26953125,-58.10546875
-66.89453125,-70.80078125,-48.33984375,-57.6171875
-64.94140625,-62.01171875,-47.36328125,-47.8515625
-45.41015625,-46.38671875,-49.31640625,-44.43359375
-31.25,-37.109375,-45.8984375,-50.78125
-32.2265625,-56.640625,-43.45703125,-52.24609375
-53.7109375,-69.3359375,-44.921875,-54.19921875
-60.546875,-51.7578125,-49.8046875,-45.8984375
-40.52734375,-24.90234375,-49.8046875,-36.62109375
-32.71484375,-32.2265625,-48.33984375,-39.55078125
-38.57421875,-63.4765625,-47.36328125,-46.38671875
-51.7578125,-81.54296875,-45.8984375,-50.78125
-62.98828125,-64.453125,-46.38671875,-50.29296875
-48.33984375,-15.13671875,-44.43359375,-43.9453125
-30.76171875,-31.25,-40.0390625,-37.59765625
-34.1796875,-65.4296875,-35.64453125,-39.0625
-47.36328125,-72.265625,-38.0859375,-43.45703125
-64.94140625,-83.0078125,-42.96875,-47.36328125
-56.640625,-36.1328125,-37.109375,-44.43359375
-36.62109375,-5.859375,-38.0859375,-36.62109375
-45.8984375,-35.64453125,-43.45703125,-43.9453125
-57.6171875,-70.80078125,-43.9453125,-52.734375
-62.5,-72.265625,-45.41015625,-46.38671875
-55.17578125,-24.90234375,-43.9453125,-41.50390625
-41.50390625,-8.7890625,-39.55078125,-39.0625
-43.45703125,-25.87890625,-37.109375,-42.96875
-52.24609375,-65.4296875,-41.9921875,-53.22265625
-58.59375,-91.796875,-47.8515625,-57.6171875
-51.26953125,-36.1328125,-51.7578125,-53.7109375
-33.203125,-2.9296875,-51.26953125,-53.22265625
-30.76171875,-22.4609375,-47.8515625,-53.7109375
-39.0625,-49.8046875,-46.38671875,-53.7109375
-42.48046875,-70.3125,-43.9453125,-47.8515625
-41.015625,-42.96875,-40.0390625,-37.59765625
-23.92578125,-6.34765625,-40.52734375,-29.296875
-21.484375,-28.3203125,-45.41015625,-35.64453125
-40.52734375,-57.12890625,-43.45703125,-42.48046875
-56.640625,-56.15234375,-43.9453125,-42.96875
-60.05859375,-52.734375,-49.31640625,-40.0390625
-42.48046875,-28.3203125,-48.33984375,-32.71484375
-34.66796875,-24.90234375,-45.8984375,-36.1328125
-45.41015625,-52.734375,-47.36328125,-44.43359375
-54.19921875,-71.2890625,-47.36328125,-45.41015625
-54.19921875,-44.921875,-47.36328125,-44.921875
-39.55078125,-12.6953125,-47.36328125,-43.9453125
-26.3671875,-13.18359375,-45.41015625,-46.38671875
-37.109375,-48.33984375,-42.96875,-54.6875
-53.7109375,-75.1953125,-47.8515625,-54.19921875
-58.10546875,-50.29296875,-52.24609375,-47.36328125
-43.9453125,-1.46484375,-45.8984375,-41.50390625
-33.203125,-24.90234375,-48.33984375,-41.9921875
-38.0859375,-78.125,-51.7578125,-51.26953125
-48.828125,-76.66015625,-45.8984375,-58.59375
-62.98828125,-62.5,-43.45703125,-52.734375
-54.6875,-24.90234375,-41.9921875,-42.48046875
-37.109375,-9.27734375,-41.9921875,-42.96875
-35.15625,-37.59765625,-38.0859375,-49.8046875
-42.96875,-68.84765625,-35.64453125,-52.734375
-61.5234375,-64.453125,-37.59765625,-53.7109375
-58.10546875,-21.97265625,-38.0859375,-48.33984375
-30.76171875,0.48828125,-35.15625,-36.62109375
-32.2265625,-28.3203125,-36.62109375,-41.015625
-58.10546875,-73.73046875,-42.96875,-59.5703125
-65.91796875,-85.9375,-47.36328125,-62.01171875
-52.24609375,-53.7109375,-50.78125,-55.6640625
-39.0625,-22.94921875,-49.31640625,-53.7109375
-35.64453125,-31.25,-48.828125,-54.6875
-45.8984375,-70.3125,-51.26953125,-60.546875
-59.08203125,-76.171875,-49.8046875,-56.640625
-57.12890625,-39.0625,-48.828125,-48.33984375
-39.55078125,-18.5546875,-52.734375,-39.55078125
-41.015625,-46.38671875,-50.78125,-45.41015625
-59.08203125,-72.265625,-48.828125,-53.7109375
-65.4296875,-51.26953125,-50.78125,-54.6875
-63.96484375,-42.96875,-48.33984375,-53.22265625
-46.38671875,-19.04296875,-47.8515625,-45.8984375
-35.64453125,-18.06640625,-47.36328125,-40.0390625
-46.38671875,-75.68359375,-45.41015625,-43.45703125
-58.59375,-79.58984375,-48.828125,-48.33984375
-49.31640625,-39.0625,-45.8984375,-38.0859375
-27.34375,-15.13671875,-40.52734375,-28.3203125
-29.296875,-28.3203125,-40.0390625,-32.2265625
-37.59765625,-49.8046875,-40.52734375,-41.015625
-53.22265625,-70.80078125,-41.9921875,-46.38671875
-60.546875,-47.8515625,-43.9453125,-40.0390625
-46.875,1.953125,-41.50390625,-33.203125
-42.48046875,-26.3671875,-41.015625,-38.57421875
-45.41015625,-68.84765625,-49.31640625,-42.96875
-57.6171875,-81.54296875,-54.6875,-50.29296875
-62.98828125,-74.70703125,-50.29296875,-46.38671875
-43.45703125,-34.1796875,-45.41015625,-33.69140625
-34.1796875,-11.23046875,-45.8984375,-36.1328125
-40.52734375,-62.5,-46.38671875,-43.45703125
-54.6875,-87.890625,-48.828125,-52.24609375
-62.5,-63.96484375,-52.24609375,-53.22265625
-51.26953125,-35.15625,-50.78125,-46.38671875
-43.9453125,-27.34375,-50.78125,-47.8515625
-51.26953125,-35.15625,-47.36328125,-52.24609375
-64.453125,-74.70703125,-43.9453125,-54.6875
-68.359375,-87.890625,-54.19921875,-54.19921875
-58.59375,-33.69140625,-57.12890625,-51.7578125
-41.50390625,-17.08984375,-51.26953125,-49.31640625
-45.8984375,-42.48046875,-50.29296875,-49.8046875
-62.98828125,-67.87109375,-48.33984375,-55.6640625
-68.84765625,-79.1015625,-46.875,-51.26953125
-61.03515625,-30.2734375,-48.828125,-42.96875
-36.62109375,-11.23046875,-43.9453125,-42.96875
-31.25,-55.6640625,-46.38671875,-47.8515625
-44.43359375,-75.68359375,-52.734375,-55.17578125
-49.8046875,-59.08203125,-42.48046875,-53.22265625
-47.8515625,-37.59765625,-40.0390625,-42.96875
-39.0625,-33.203125,-44.43359375,-42.96875
-41.9921875,-34.66796875,-44.43359375,-53.7109375
-48.33984375,-65.91796875,-48.33984375,-57.12890625
-59.08203125,-69.3359375,-47.36328125,-51.26953125
-63.4765625,-28.3203125,-48.828125,-44.921875
-39.55078125,-21.484375,-45.8984375,-40.52734375
-25.87890625,-37.109375,-41.50390625,-44.921875
-36.1328125,-69.3359375,-42.96875,-49.31640625
-44.921875,-79.58984375,-43.9453125,-42.96875
-44.43359375,-47.8515625,-45.41015625,-37.109375
-36.1328125,6.8359375,-46.875,-31.25
-35.64453125,-16.11328125,-51.26953125,-33.69140625
-48.33984375,-84.47265625,-56.640625,-48.33984375
-60.05859375,-84.47265625,-58.59375,-51.26953125
-66.89453125,-47.36328125,-60.546875,-47.8515625
-53.22265625,-9.27734375,-58.10546875,-45.41015625
-36.1328125,-9.27734375,-46.38671875,-44.921875
-49.8046875,-57.12890625,-43.9453125,-58.59375
-69.82421875,-77.63671875,-44.921875,-69.3359375
-66.89453125,-50.78125,-42.48046875,-61.5234375
-56.15234375,-13.18359375,-47.36328125,-57.6171875
-57.12890625,-12.6953125,-51.7578125,-65.91796875
-57.6171875,-40.52734375,-46.875,-66.40625
-71.2890625,-80.56640625,-50.29296875,-70.3125
-81.0546875,-77.63671875,-51.7578125,-64.453125
-60.546875,-19.53125,-47.8515625,-48.828125
-39.55078125,-19.04296875,-45.41015625,-44.921875
-41.50390625,-59.08203125,-43.45703125,-44.921875
-57.6171875,-79.1015625,-51.7578125,-42.48046875
-56.15234375,-66.89453125,-49.31640625,-32.2265625
-40.52734375,-30.2734375,-41.50390625,-28.3203125
-30.76171875,-18.06640625,-41.50390625,-30.76171875
-32.2265625,-47.36328125,-39.55078125,-38.0859375
-40.0390625,-71.77734375,-44.921875,-44.43359375
-52.24609375,-62.98828125,-52.24609375,-47.8515625
-48.33984375,-39.0625,-44.921875,-51.7578125
-39.0625,-26.85546875,-39.0625,-52.734375
-41.015625,-45.41015625,-44.43359375,-53.22265625
-55.6640625,-81.54296875,-46.875,-59.08203125
-69.82421875,-77.63671875,-50.29296875,-60.546875
-66.40625,-23.92578125,-49.8046875,-54.19921875
-55.6640625,-17.08984375,-48.828125,-56.15234375
-49.8046875,-39.55078125,-50.29296875,-59.5703125
-55.6640625,-59.5703125,-51.26953125,-60.05859375
-68.84765625,-71.2890625,-48.33984375,-55.6640625
-62.98828125,-32.2265625,-46.38671875,-41.9921875
-39.55078125,5.859375,-46.875,-34.1796875
-33.69140625,-35.15625,-46.38671875,-33.69140625
-40.0390625,-73.73046875,-49.8046875,-41.9921875
-50.78125,-72.75390625,-47.8515625,-45.8984375
-58.59375,-47.36328125,-46.875,-37.59765625
-48.33984375,-20.01953125,-48.33984375,-33.69140625
-37.109375,-27.83203125,-50.78125,-37.59765625
-45.8984375,-61.03515625,-52.734375,-50.29296875
-57.12890625,-72.75390625,-49.8046875,-54.19921875
-53.22265625,-34.66796875,-48.33984375,-46.875
-40.52734375,-12.6953125,-41.9921875,-40.0390625
-41.50390625,-30.2734375,-42.96875,-46.38671875
-55.17578125,-56.15234375,-50.29296875,-60.05859375
-70.3125,-90.8203125,-53.22265625,-65.91796875
-75.68359375,-74.21875,-53.7109375,-65.91796875
-57.12890625,-19.04296875,-52.24609375,-64.453125
-48.828125,-11.23046875,-46.38671875,-59.5703125
-62.5,-59.08203125,-43.45703125,-61.03515625
-75.1953125,-76.66015625,-46.875,-63.96484375
-76.171875,-64.453125,-44.921875,-54.6875
-60.05859375,-35.64453125,-45.41015625,-45.41015625
-44.43359375,-25.87890625,-48.33984375,-50.29296875
-39.55078125,-62.5,-46.875,-52.734375
-46.38671875,-78.125,-45.41015625,-55.6640625
-58.10546875,-44.43359375,-48.33984375,-50.29296875
-50.29296875,-15.13671875,-46.38671875,-40.0390625
-36.62109375,-36.1328125,-46.38671875,-45.41015625
-41.50390625,-64.453125,-56.15234375,-54.19921875
-52.734375,-77.1484375,-57.12890625,-58.10546875
-62.01171875,-68.359375,-52.24609375,-55.17578125
-53.22265625,-22.4609375,-51.26953125,-46.38671875
-33.203125,-18.06640625,-51.26953125,-45.41015625
-29.296875,-42.48046875,-50.78125,-50.29296875
-42.96875,-64.453125,-48.828125,-58.10546875
-61.03515625,-71.2890625,-48.33984375,-61.03515625
-58.10546875,-32.2265625,-48.33984375,-49.8046875
-40.52734375,-1.46484375,-47.8515625,-44.43359375
-36.1328125,-38.57421875,-50.78125,-52.24609375
-56.15234375,-78.125,-52.734375,-59.5703125
-72.75390625,-68.84765625,-51.26953125,-58.10546875
-59.08203125,-45.41015625,-53.22265625,-47.36328125
-40.0390625,-21.484375,-55.17578125,-42.96875
-37.109375,-35.64453125,-49.31640625,-43.9453125
-44.921875,-70.3125,-41.9921875,-48.33984375
-57.12890625,-80.56640625,-39.0625,-47.8515625
-52.734375,-46.38671875,-40.52734375,-39.0625
-32.2265625,-16.6015625,-44.43359375,-36.1328125
-23.4375,-31.25,-46.875,-44.43359375
-37.109375,-59.08203125,-48.828125,-47.8515625
-50.78125,-83.984375,-45.41015625,-46.38671875
-51.7578125,-60.05859375,-44.921875,-41.50390625
-42.96875,-20.01953125,-47.8515625,-38.0859375
-38.0859375,-35.15625,-42.48046875,-42.96875
-49.8046875,-60.546875,-41.015625,-47.8515625
-58.10546875,-72.265625,-44.921875,-45.41015625
-66.40625,-66.40625,-44.921875,-43.9453125
-54.19921875,-33.69140625,-47.8515625,-39.55078125
-32.2265625,-28.80859375,-47.8515625,-41.015625
-39.0625,-62.01171875,-46.875,-50.78125
-52.24609375,-80.56640625,-50.78125,-54.6875
-49.31640625,-53.22265625,-48.828125,-45.41015625
-38.57421875,-26.3671875,-46.38671875,-38.0859375
-34.66796875,-36.62109375,-48.828125,-37.59765625
-33.69140625,-57.6171875,-44.921875,-38.57421875
-42.96875,-73.2421875,-46.38671875,-43.9453125
-48.828125,-57.12890625,-50.29296875,-38.57421875
-41.9921875,-10.7421875,-50.29296875,-31.73828125
-35.64453125,-11.71875,-45.41015625,-35.15625
-37.59765625,-36.1328125,-39.0625,-45.41015625
-53.22265625,-63.96484375,-39.0625,-52.734375
-69.3359375,-91.796875,-45.8984375,-54.6875
-59.5703125,-24.4140625,-50.29296875,-51.26953125
-40.0390625,14.6484375,-45.41015625,-46.875
-41.9921875,-51.26953125,-41.9921875,-45.41015625
-52.734375,-87.40234375,-44.43359375,-49.31640625
-63.4765625,-72.75390625,-48.33984375,-46.875
-57.6171875,-38.57421875,-47.8515625,-38.0859375
-37.109375,-24.90234375,-47.8515625,-36.62109375
-33.69140625,-44.921875,-48.33984375,-39.0625
-49.8046875,-76.171875,-51.26953125,-46.38671875
-57.6171875,-74.21875,-53.22265625,-46.875
-45.8984375,-36.1328125,-51.26953125,-40.52734375
-32.71484375,-16.11328125,-42.48046875,-35.64453125
-33.69140625,-29.296875,-35.15625,-43.45703125
-41.015625,-52.24609375,-39.55078125,-47.36328125
-62.01171875,-69.3359375,-48.33984375,-46.38671875
-62.98828125,-55.17578125,-53.22265625,-42.96875
-35.15625,-30.2734375,-43.9453125,-34.66796875
-33.203125,-44.921875,-43.9453125,-40.52734375
-43.9453125,-62.01171875,-48.828125,-48.828125
-53.22265625,-67.3828125,-50.29296875,-52.24609375
-56.15234375,-45.41015625,-53.7109375,-47.8515625
-40.0390625,-13.18359375,-49.8046875,-42.96875
-34.66796875,-21.484375,-51.7578125,-45.8984375
-44.43359375,-64.94140625,-52.24609375,-51.26953125
-59.5703125,-73.2421875,-45.41015625,-55.17578125
-67.87109375,-38.57421875,-46.875,-53.22265625
-60.05859375,-36.62109375,-49.31640625,-50.78125
-50.78125,-37.109375,-49.8046875,-53.7109375
-51.7578125,-55.17578125,-49.8046875,-55.6640625
-64.94140625,-85.44921875,-47.36328125,-56.640625
-70.3125,-62.98828125,-43.9453125,-54.19921875
-49.31640625,-18.06640625,-44.43359375,-46.38671875
-37.109375,-27.83203125,-52.24609375,-46.875
-39.0625,-53.7109375,-54.19921875,-54.19921875
-52.24609375,-64.94140625,-47.36328125,-59.08203125
-61.03515625,-57.6171875,-44.43359375,-52.24609375
-53.22265625,-18.5546875,-47.8515625,-41.9921875
-38.57421875,3.41796875,-47.8515625,-41.50390625
-35.15625,-46.38671875,-43.9453125,-43.9453125
-53.7109375,-81.0546875,-43.45703125,-46.875
-58.10546875,-61.5234375,-48.33984375,-44.43359375
-44.43359375,-24.90234375,-51.7578125,-37.59765625
-25.390625,-3.41796875,-46.875,-30.76171875
-22.4609375,-39.55078125,-41.015625,-34.66796875
-40.0390625,-88.37890625,-47.8515625,-41.9921875
-55.17578125,-81.54296875,-54.6875,-43.45703125
-46.875,-27.34375,-52.24609375,-41.015625
-34.1796875,-15.13671875,-49.8046875,-41.50390625
-39.55078125,-38.0859375,-55.17578125,-52.24609375
-50.78125,-51.7578125,-59.08203125,-56.640625
-61.03515625,-69.3359375,-54.6875,-57.12890625
-61.03515625,-42.48046875,-54.6875,-53.7109375
-45.8984375,-22.94921875,-52.24609375,-46.875
-42.48046875,-32.2265625,-44.921875,-46.875
-61.03515625,-66.40625,-47.36328125,-50.29296875
-74.70703125,-79.58984375,-51.7578125,-48.828125
-65.91796875,-34.1796875,-51.7578125,-40.0390625
-42.48046875,-5.859375,-50.29296875,-32.2265625
-29.78515625,-23.4375,-44.43359375,-29.78515625
-47.36328125,-80.56640625,-46.875,-39.0625
-61.5234375,-82.03125,-49.31640625,-47.36328125
-54.6875,-35.15625,-51.26953125,-42.48046875
-42.96875,-29.296875,-51.26953125,-34.66796875
-41.9921875,-48.33984375,-46.875,-38.57421875
-55.6640625,-69.82421875,-45.41015625,-51.7578125
-64.94140625,-77.1484375,-50.29296875,-58.59375
-63.4765625,-45.8984375,-47.8515625,-50.29296875
-46.875,-9.27734375,-47.8515625,-38.0859375
-36.62109375,-28.3203125,-50.78125,-41.9921875
-47.8515625,-66.40625,-47.8515625,-53.22265625
-65.4296875,-75.68359375,-47.8515625,-57.6171875
-66.40625,-55.6640625,-46.38671875,-50.29296875
-54.19921875,-21.97265625,-45.8984375,-41.50390625
-51.7578125,-10.25390625,-43.45703125,-46.875
-55.17578125,-53.22265625,-43.45703125,-52.24609375
-64.94140625,-97.65625,-47.8515625,-53.22265625
-65.4296875,-71.77734375,-49.31640625,-47.8515625
-46.38671875,-21.484375,-46.875,-43.45703125
-30.76171875,-12.6953125,-43.45703125,-39.0625
-33.69140625,-53.7109375,-43.9453125,-41.015625
-51.7578125,-83.0078125,-49.8046875,-44.43359375
-69.3359375,-66.89453125,-51.26953125,-44.43359375
-60.05859375,-26.3671875,-50.78125,-44.921875
-41.50390625,-12.6953125,-51.26953125,-41.50390625
-41.9921875,-38.57421875,-50.29296875,-43.45703125
-52.24609375,-55.6640625,-46.38671875,-52.24609375
-60.546875,-73.2421875,-44.921875,-53.22265625
-56.640625,-41.50390625,-47.36328125,-43.45703125
-38.57421875,-10.25390625,-43.45703125,-36.62109375
-31.73828125,-52.24609375,-43.45703125,-42.96875
-48.828125,-83.49609375,-42.96875,-52.734375
-60.05859375,-77.63671875,-41.015625,-49.8046875
-50.29296875,-36.1328125,-44.921875,-42.96875
-33.203125,-5.859375,-45.8984375,-39.0625
-27.34375,-28.3203125,-40.52734375,-39.55078125
-32.71484375,-79.1015625,-36.1328125,-41.50390625
-46.875,-69.3359375,-33.203125,-35.15625
-48.828125,-22.4609375,-36.62109375,-29.296875
-35.15625,-29.78515625,-51.26953125,-31.25
-34.66796875,-56.640625,-54.19921875,-44.921875
-41.50390625,-65.91796875,-50.29296875,-54.19921875
-48.828125,-71.2890625,-49.8046875,-51.7578125
-55.6640625,-46.875,-45.8984375,-46.875
-45.41015625,-14.6484375,-48.33984375,-41.50390625
-40.0390625,-32.2265625,-50.78125,-47.8515625
-57.6171875,-71.2890625,-49.31640625,-62.5
-74.70703125,-77.63671875,-52.24609375,-62.01171875
-75.68359375,-50.78125,-48.33984375,-48.33984375
-53.7109375,-16.11328125,-42.96875,-39.55078125
-33.69140625,-8.7890625,-45.41015625,-38.0859375
-41.015625,-61.03515625,-43.9453125,-51.7578125
-58.10546875,-81.54296875,-49.8046875,-67.87109375
-56.640625,-53.22265625,-53.22265625,-56.15234375
-39.55078125,-14.16015625,-45.41015625,-42.48046875
-31.73828125,-18.5546875,-44.43359375,-47.8515625
-38.0859375,-59.5703125,-46.875,-52.24609375
-48.33984375,-69.3359375,-50.78125,-56.640625
-54.19921875,-52.24609375,-51.26953125,-50.78125
-46.38671875,-27.83203125,-51.26953125,-43.9453125
-38.57421875,-28.80859375,-48.828125,-46.875
-36.1328125,-46.38671875,-45.8984375,-50.78125
-46.38671875,-58.10546875,-50.78125,-53.22265625
-58.59375,-75.1953125,-51.7578125,-51.26953125
-45.41015625,-43.45703125,-46.875,-48.828125
-26.3671875,-17.578125,-44.43359375,-44.921875
-34.66796875,-59.08203125,-41.015625,-46.38671875
-56.640625,-83.0078125,-41.9921875,-55.6640625
-66.40625,-66.40625,-42.96875,-53.22265625
-62.01171875,-16.6015625,-43.45703125,-43.45703125
-49.31640625,-13.18359375,-45.41015625,-41.9921875
-51.7578125,-39.0625,-44.921875,-48.33984375
-63.96484375,-66.40625,-48.33984375,-57.6171875
-74.21875,-59.08203125,-51.26953125,-55.17578125
-63.4765625,-10.25390625,-46.38671875,-44.43359375
-41.015625,-8.30078125,-43.45703125,-43.45703125
-37.59765625,-49.31640625,-44.921875,-52.734375
-51.7578125,-84.47265625,-51.26953125,-58.10546875
-59.5703125,-78.125,-56.15234375,-55.6640625
-56.15234375,-37.59765625,-52.734375,-46.38671875
-32.71484375,-21.484375,-45.41015625,-35.15625
-20.5078125,-32.71484375,-40.0390625,-32.2265625
-36.1328125,-67.3828125,-41.50390625,-41.9921875
-50.78125,-80.078125,-43.45703125,-49.8046875
-48.33984375,-41.50390625,-46.875,-45.8984375
-28.80859375,-17.08984375,-45.8984375,-34.1796875
-19.53125,-17.578125,-43.45703125,-35.64453125
-32.2265625,-59.5703125,-43.9453125,-48.828125
-48.33984375,-72.265625,-46.38671875,-49.8046875
-45.41015625,-32.71484375,-46.38671875,-46.875
-28.3203125,-17.08984375,-49.8046875,-43.9453125
-22.4609375,-22.94921875,-52.24609375,-41.50390625
-29.296875,-53.22265625,-49.8046875,-46.875
-45.41015625,-67.3828125,-44.921875,-45.41015625
-50.78125,-50.78125,-42.96875,-39.0625
-30.2734375,-4.39453125,-42.48046875,-24.90234375
-23.4375,-7.8125,-41.015625,-22.4609375
-30.76171875,-50.78125,-41.015625,-30.76171875
-46.38671875,-53.22265625,-43.9453125,-35.64453125
-59.5703125,-49.31640625,-55.17578125,-37.109375
-46.875,-42.48046875,-53.7109375,-31.73828125
-39.0625,-28.80859375,-45.41015625,-38.0859375
-50.78125,-54.6875,-44.921875,-49.31640625
-66.89453125,-68.359375,-44.921875,-57.12890625
-71.2890625,-57.12890625,-45.8984375,-54.6875
-60.05859375,-41.9921875,-44.43359375,-49.31640625
-49.8046875,-25.87890625,-42.96875,-50.78125
-54.19921875,-55.17578125,-39.0625,-53.22265625
-66.89453125,-86.42578125,-44.921875,-61.03515625
-65.91796875,-72.75390625,-49.31640625,-59.08203125
-49.8046875,-20.5078125,-50.29296875,-45.8984375
-35.15625,-25.87890625,-50.78125,-39.0625
-36.1328125,-55.6640625,-47.36328125,-44.921875
-52.734375,-68.84765625,-44.921875,-53.22265625
-63.96484375,-82.51953125,-47.8515625,-54.19921875
-58.10546875,-26.85546875,-46.875,-46.875
-39.0625,-5.859375,-48.33984375,-48.33984375
-36.62109375,-45.8984375,-53.7109375,-56.640625
-58.10546875,-70.80078125,-49.31640625,-68.84765625
-74.21875,-79.1015625,-46.875,-65.4296875
-73.2421875,-51.26953125,-50.78125,-55.6640625
-50.29296875,-11.71875,-48.33984375,-51.7578125
-34.1796875,-13.18359375,-45.8984375,-48.33984375
-45.8984375,-73.73046875,-51.7578125,-62.01171875
-58.10546875,-78.61328125,-53.7109375,-63.4765625
-57.6171875,-29.78515625,-52.24609375,-52.734375
-37.59765625,-7.32421875,-51.7578125,-50.78125
-31.73828125,-24.90234375,-48.33984375,-53.7109375
-54.6875,-62.01171875,-49.8046875,-56.15234375
-75.68359375,-71.2890625,-45.8984375,-54.19921875
-71.2890625,-46.38671875,-45.41015625,-44.43359375
-42.96875,-18.5546875,-51.7578125,-35.64453125
-29.296875,-25.390625,-46.38671875,-39.0625
-40.52734375,-62.98828125,-42.48046875,-45.8984375
-53.7109375,-62.5,-46.38671875,-46.875
-59.5703125,-48.33984375,-48.33984375,-43.45703125
-41.015625,-34.66796875,-45.8984375,-41.9921875
-28.80859375,-26.3671875,-44.43359375,-47.36328125
-36.1328125,-49.31640625,-45.41015625,-53.7109375
-43.9453125,-73.73046875,-42.48046875,-47.8515625
-58.59375,-66.89453125,-53.7109375,-44.921875
-46.875,-28.3203125,-59.08203125,-43.45703125
-31.73828125,-23.4375,-51.26953125,-39.0625
-34.1796875,-49.31640625,-50.78125,-44.43359375
-50.78125,-71.77734375,-55.17578125,-57.6171875
-64.453125,-61.5234375,-54.6875,-61.03515625
-52.734375,-9.765625,-56.15234375,-57.12890625
-45.8984375,-24.4140625,-56.640625,-56.15234375
-51.7578125,-65.4296875,-50.78125,-57.12890625
-67.87109375,-78.61328125,-47.8515625,-63.4765625
-78.61328125,-81.0546875,-48.828125,-61.03515625
-59.08203125,-32.2265625,-49.31640625,-45.8984375
-40.0390625,-11.71875,-42.48046875,-41.015625
-41.9921875,-33.69140625,-39.55078125,-46.38671875
-52.734375,-65.4296875,-41.9921875,-49.8046875
-62.5,-70.80078125,-44.43359375,-51.26953125
-55.6640625,-27.83203125,-51.26953125,-42.96875
-37.109375,-3.90625,-46.38671875,-39.0625
-34.1796875,-20.5078125,-43.9453125,-44.921875
-48.828125,-72.75390625,-51.7578125,-52.24609375
-61.03515625,-84.47265625,-51.7578125,-55.17578125
-48.33984375,-33.203125,-50.29296875,-53.7109375
-28.80859375,-12.20703125,-46.38671875,-46.875
-26.3671875,-25.390625,-42.48046875,-50.78125
-41.50390625,-54.6875,-45.8984375,-69.82421875
-54.19921875,-72.75390625,-47.36328125,-73.2421875
-48.828125,-40.0390625,-41.9921875,-57.12890625
-38.0859375,-8.7890625,-37.59765625,-59.5703125
-35.15625,-19.53125,-44.43359375,-70.80078125
-45.8984375,-52.734375,-47.8515625,-74.21875
-61.5234375,-58.10546875,-46.38671875,-73.73046875
-63.96484375,-48.33984375,-49.31640625,-62.98828125
-49.31640625,-40.52734375,-48.33984375,-52.734375
-45.41015625,-38.0859375,-45.8984375,-49.8046875
-55.17578125,-75.1953125,-48.828125,-48.828125
-61.03515625,-80.078125,-48.828125,-48.33984375
-58.10546875,-51.26953125,-41.015625,-38.0859375
-44.921875,-23.92578125,-44.43359375,-27.83203125
-34.1796875,-15.625,-50.78125,-34.1796875
-37.59765625,-54.6875,-47.8515625,-43.45703125
-53.22265625,-90.33203125,-47.8515625,-45.41015625
-65.91796875,-63.4765625,-51.26953125,-49.8046875
-47.8515625,-7.8125,-50.29296875,-46.38671875
-35.15625,-26.85546875,-47.36328125,-47.8515625
-45.8984375,-72.75390625,-49.31640625,-60.05859375
-49.31640625,-75.68359375,-50.78125,-62.01171875
-45.41015625,-51.26953125,-49.31640625,-54.6875
-44.43359375,-11.23046875,-51.26953125,-45.8984375
-43.45703125,-11.23046875,-55.17578125,-46.875
-44.43359375,-56.640625,-51.7578125,-54.19921875
-56.640625,-83.0078125,-49.8046875,-59.08203125
-67.3828125,-71.2890625,-56.15234375,-54.6875
-57.6171875,-25.390625,-55.17578125,-44.43359375
-41.015625,-9.27734375,-48.828125,-39.0625
-38.0859375,-28.3203125,-45.41015625,-46.875
-48.828125,-66.40625,-47.36328125,-55.17578125
-56.15234375,-91.30859375,-52.24609375,-53.22265625
-53.22265625,-44.43359375,-48.828125,-48.33984375
-37.59765625,-13.671875,-45.41015625,-43.9453125
-31.73828125,-43.45703125,-49.8046875,-43.45703125
-49.8046875,-64.94140625,-48.33984375,-46.38671875
-62.01171875,-56.640625,-51.26953125,-46.875
-50.78125,-34.66796875,-55.17578125,-42.96875
-33.69140625,-22.4609375,-51.26953125,-39.55078125
-33.203125,-38.0859375,-49.8046875,-39.55078125
-43.9453125,-69.3359375,-51.26953125,-50.78125
-53.22265625,-54.19921875,-50.29296875,-53.7109375
-53.7109375,-39.0625,-52.734375,-46.875
-43.45703125,-24.90234375,-51.7578125,-47.8515625
-40.52734375,-25.390625,-45.41015625,-49.31640625
-58.59375,-83.984375,-45.8984375,-58.10546875
-73.2421875,-89.84375,-47.8515625,-59.08203125
-71.77734375,-53.22265625,-48.828125,-48.33984375
-48.828125,-24.90234375,-51.7578125,-44.921875
-41.50390625,-36.1328125,-50.29296875,-48.828125
-56.15234375,-80.56640625,-42.48046875,-53.22265625
-61.5234375,-78.61328125,-42.48046875,-53.22265625
-61.03515625,-39.0625,-52.24609375,-48.828125
-46.875,-11.23046875,-52.24609375,-46.875
-37.109375,-39.55078125,-51.26953125,-49.31640625
-41.9921875,-90.33203125,-51.7578125,-54.19921875
-55.17578125,-79.1015625,-47.36328125,-58.59375
-61.5234375,-59.08203125,-43.9453125,-46.875
-44.43359375,-18.5546875,-42.96875,-35.64453125
-34.1796875,-1.46484375,-44.43359375,-44.43359375
-49.31640625,-62.5,-44.921875,-52.734375
-63.4765625,-80.56640625,-46.38671875,-52.734375
-67.3828125,-63.96484375,-47.8515625,-48.33984375
-63.96484375,-31.73828125,-50.29296875,-44.43359375
-54.19921875,-19.53125,-51.7578125,-41.9921875
-50.78125,-44.921875,-45.8984375,-39.55078125
-67.3828125,-94.7265625,-45.41015625,-44.921875
-81.54296875,-97.65625,-48.828125,-45.41015625
-63.96484375,-36.1328125,-43.9453125,-33.203125
-39.55078125,-20.01953125,-39.0625,-28.80859375
-41.015625,-52.734375,-46.875,-39.0625
-57.12890625,-85.44921875,-56.15234375,-45.41015625
-59.08203125,-81.0546875,-52.24609375,-39.0625
-43.45703125,-20.5078125,-50.78125,-30.76171875
-26.3671875,-2.44140625,-48.828125,-30.76171875
-23.4375,-54.6875,-44.921875,-38.0859375
-33.69140625,-70.80078125,-44.43359375,-42.48046875
-44.921875,-45.41015625,-47.36328125,-41.9921875
-44.43359375,-23.92578125,-55.6640625,-42.96875
-28.80859375,-19.04296875,-52.734375,-43.45703125
-24.90234375,-27.83203125,-49.31640625,-46.875
-42.48046875,-66.89453125,-50.78125,-53.22265625
-55.6640625,-68.359375,-50.78125,-51.26953125
-57.6171875,-25.390625,-46.875,-40.0390625
-46.38671875,-5.859375,-47.36328125,-39.55078125
-34.66796875,-18.5546875,-51.26953125,-43.45703125
-44.921875,-63.4765625,-47.36328125,-46.875
-61.5234375,-69.3359375,-46.875,-52.24609375
-63.96484375,-30.76171875,-47.36328125,-49.8046875
-47.8515625,4.39453125,-43.9453125,-42.48046875
-47.36328125,-19.04296875,-45.41015625,-45.41015625
-66.40625,-75.1953125,-47.36328125,-57.6171875
-72.75390625,-84.9609375,-48.33984375,-59.08203125
-70.80078125,-56.15234375,-47.8515625,-51.7578125
-52.24609375,-12.6953125,-47.36328125,-46.38671875
-34.66796875,-17.08984375,-49.31640625,-44.921875
-41.015625,-58.59375,-53.22265625,-52.24609375
-54.19921875,-67.87109375,-50.78125,-56.640625
-56.640625,-44.43359375,-50.29296875,-48.828125
-40.52734375,-11.23046875,-49.31640625,-43.45703125
-33.69140625,-16.6015625,-47.36328125,-50.29296875
-43.45703125,-44.43359375,-47.36328125,-59.08203125
-54.6875,-83.0078125,-43.45703125,-61.03515625
-55.17578125,-67.3828125,-38.57421875,-55.6640625
-46.875,-11.71875,-38.0859375,-47.8515625
-40.0390625,-35.64453125,-41.015625,-49.8046875
-48.828125,-71.77734375,-41.50390625,-59.08203125
-57.6171875,-81.54296875,-46.38671875,-58.59375
-65.91796875,-78.61328125,-52.734375,-49.8046875
-58.59375,-23.4375,-49.31640625,-37.59765625
-35.15625,-6.8359375,-45.41015625,-29.296875
-33.69140625,-48.828125,-44.921875,-32.2265625
-46.38671875,-63.96484375,-46.38671875,-40.0390625
-54.6875,-50.78125,-47.8515625,-40.52734375
-44.921875,-33.69140625,-43.45703125,-36.62109375
-29.78515625,-36.1328125,-39.0625,-39.55078125
-37.109375,-57.6171875,-37.109375,-44.921875
-51.7578125,-83.984375,-39.0625,-52.24609375
-52.24609375,-74.70703125,-43.45703125,-53.22265625
-46.875,-31.73828125,-47.8515625,-50.29296875
-39.0625,-31.73828125,-49.8046875,-54.6875
-31.25,-40.52734375,-51.26953125,-59.5703125
-48.828125,-70.80078125,-50.29296875,-69.82421875
-71.77734375,-84.9609375,-46.875,-71.2890625
-68.84765625,-35.15625,-47.8515625,-58.59375
-44.43359375,6.34765625,-53.7109375,-54.6875
-38.57421875,-31.73828125,-52.734375,-59.5703125
-58.59375,-95.21484375,-51.7578125,-64.453125
-73.73046875,-86.9140625,-55.17578125,-64.94140625
-60.546875,-44.921875,-49.8046875,-53.7109375
-38.0859375,-10.25390625,-46.875,-44.921875
-45.41015625,-28.80859375,-49.31640625,-51.26953125
-62.5,-72.75390625,-53.7109375,-63.96484375
-70.3125,-72.75390625,-51.7578125,-63.96484375
-68.84765625,-40.0390625,-50.29296875,-55.6640625
-47.8515625,-29.78515625,-47.8515625,-46.38671875
-41.9921875,-35.15625,-46.875,-44.921875
-54.19921875,-40.52734375,-54.19921875,-52.734375
-63.96484375,-81.54296875,-52.24609375,-56.640625
-61.5234375,-87.890625,-47.8515625,-52.734375
-43.45703125,-24.90234375,-45.41015625,-40.0390625
-37.109375,-16.11328125,-46.875,-38.0859375
-47.8515625,-66.40625,-48.33984375,-50.29296875
-61.5234375,-84.47265625,-47.36328125,-53.22265625
-57.12890625,-59.08203125,-44.43359375,-37.59765625
-33.203125,-18.5546875,-40.0390625,-23.92578125
-18.06640625,-12.20703125,-39.0625,-27.83203125
-25.87890625,-62.01171875,-41.9921875,-40.0390625
-47.8515625,-82.51953125,-48.828125,-46.38671875
-59.5703125,-47.36328125,-54.19921875,-40.0390625
-47.36328125,-19.04296875,-59.5703125,-37.59765625
-33.69140625,-32.2265625,-55.17578125,-44.43359375
-42.96875,-60.05859375,-45.41015625,-52.734375
-62.5,-72.265625,-47.36328125,-59.08203125
-72.75390625,-70.3125,-44.43359375,-54.19921875
-65.91796875,-38.0859375,-43.9453125,-49.31640625
-54.6875,-12.6953125,-48.828125,-52.24609375
-52.734375,-37.109375,-54.19921875,-58.59375
-70.3125,-72.75390625,-53.7109375,-63.4765625
-83.49609375,-72.265625,-51.26953125,-62.5
-68.359375,-33.69140625,-50.29296875,-55.17578125
-45.8984375,-10.25390625,-46.875,-46.38671875
-46.38671875,-41.9921875,-48.33984375,-54.19921875
-60.05859375,-74.21875,-55.17578125,-64.453125
-62.01171875,-74.70703125,-56.15234375,-58.10546875
-52.24609375,-51.26953125,-52.24609375,-54.19921875
-29.78515625,-8.7890625,-46.875,-52.734375
-25.87890625,-24.4140625,-47.36328125,-54.6875
-44.921875,-83.0078125,-54.19921875,-62.5
-55.17578125,-93.26171875,-58.59375,-62.01171875
-49.31640625,-49.8046875,-57.6171875,-48.33984375
-36.62109375,-26.3671875,-51.26953125,-40.0390625
-29.78515625,-34.66796875,-43.45703125,-41.9921875
-40.0390625,-62.98828125,-42.48046875,-45.8984375
-62.01171875,-93.26171875,-43.45703125,-46.38671875
-62.98828125,-62.01171875,-43.45703125,-38.57421875
-43.9453125,-19.04296875,-43.9453125,-36.1328125
-41.9921875,-42.48046875,-42.96875,-44.43359375
-54.19921875,-72.75390625,-43.9453125,-54.19921875
-65.4296875,-70.3125,-48.828125,-53.7109375
-63.96484375,-51.7578125,-44.921875,-41.50390625
-46.875,-21.484375,-40.52734375,-42.48046875
-37.59765625,-21.484375,-42.48046875,-51.7578125
-45.8984375,-68.359375,-47.8515625,-56.15234375
-63.4765625,-82.51953125,-50.29296875,-59.08203125
-64.94140625,-41.015625,-47.8515625,-51.7578125
-41.50390625,-21.97265625,-48.33984375,-40.0390625
-32.2265625,-25.390625,-49.31640625,-39.0625
-44.921875,-66.89453125,-48.828125,-46.875
-60.05859375,-92.7734375,-55.6640625,-50.29296875
-66.89453125,-62.98828125,-58.59375,-45.8984375
-51.7578125,-25.87890625,-53.7109375,-38.57421875
-31.73828125,-24.90234375,-49.31640625,-34.1796875
-33.69140625,-49.8046875,-48.33984375,-47.36328125
-49.8046875,-76.66015625,-54.19921875,-62.5
-55.6640625,-83.984375,-54.19921875,-57.12890625
-42.48046875,-20.01953125,-50.78125,-45.8984375
-27.34375,2.44140625,-50.78125,-43.45703125
-33.69140625,-58.10546875,-48.828125,-53.7109375
-54.6875,-87.890625,-47.8515625,-64.453125
-65.91796875,-71.77734375,-47.36328125,-58.59375
-59.5703125,-27.34375,-51.26953125,-49.8046875
-41.50390625,-14.16015625,-53.22265625,-48.828125
-39.0625,-43.9453125,-45.8984375,-51.7578125
-54.6875,-78.61328125,-41.9921875,-59.08203125
-64.453125,-73.2421875,-39.55078125,-55.6640625
-61.5234375,-32.2265625,-47.36328125,-49.31640625
-50.29296875,-16.11328125,-52.24609375,-46.38671875
-46.38671875,-27.83203125,-46.38671875,-48.828125
-57.12890625,-63.96484375,-46.38671875,-56.15234375
-56.15234375,-68.359375,-47.8515625,-49.8046875
-41.50390625,-49.8046875,-46.38671875,-40.52734375
-25.87890625,-26.85546875,-51.7578125,-37.59765625
-21.484375,-20.99609375,-49.31640625,-30.76171875
-28.80859375,-49.31640625,-49.8046875,-34.66796875
-44.921875,-64.453125,-59.5703125,-44.921875
-46.38671875,-40.52734375,-57.12890625,-38.57421875
-25.87890625,-8.7890625,-52.24609375,-34.1796875
-17.08984375,-19.04296875,-53.7109375,-41.015625
-28.80859375,-64.94140625,-50.29296875,-48.33984375
-47.8515625,-71.77734375,-48.828125,-47.36328125
-44.921875,-25.390625,-44.921875,-35.15625
-30.2734375,-5.859375,-45.41015625,-26.3671875
-37.109375,-31.73828125,-52.734375,-31.73828125
-42.48046875,-65.91796875,-56.640625,-41.015625
-45.8984375,-85.9375,-50.29296875,-41.9921875
-51.7578125,-58.59375,-43.9453125,-37.59765625
-35.64453125,-15.625,-44.43359375,-33.203125
-27.83203125,-20.01953125,-42.48046875,-34.1796875
-38.57421875,-51.7578125,-41.9921875,-42.48046875
-48.33984375,-63.96484375,-43.9453125,-51.26953125
-53.22265625,-55.17578125,-47.36328125,-45.8984375
-39.55078125,-12.6953125,-48.828125,-41.015625
-22.4609375,15.13671875,-46.875,-42.96875
-26.85546875,-42.48046875,-47.8515625,-42.48046875
-55.17578125,-102.5390625,-52.24609375,-48.828125
-72.265625,-75.68359375,-54.19921875,-53.22265625
-61.03515625,-25.390625,-52.24609375,-46.875
-44.43359375,-9.27734375,-50.78125,-42.96875
-36.1328125,-41.015625,-42.48046875,-44.921875
-46.38671875,-89.84375,-46.38671875,-47.8515625
-56.640625,-83.49609375,-51.26953125,-49.8046875
-54.19921875,-36.1328125,-43.9453125,-48.33984375
-41.9921875,-28.3203125,-43.9453125,-45.41015625
-36.62109375,-54.6875,-48.33984375,-50.29296875
-52.734375,-68.359375,-49.31640625,-59.08203125
-69.82421875,-87.890625,-47.8515625,-58.59375
-56.15234375,-65.91796875,-41.9921875,-49.31640625
-37.59765625,-20.5078125,-41.9921875,-41.9921875
-40.0390625,-34.66796875,-49.8046875,-49.8046875
-53.22265625,-75.68359375,-52.734375,-62.5
-60.546875,-77.1484375,-53.7109375,-56.640625
-64.94140625,-39.0625,-56.640625,-44.921875
-51.7578125,-10.7421875,-51.26953125,-40.0390625
-39.55078125,-20.01953125,-46.875,-41.015625
-58.59375,-73.73046875,-51.26953125,-53.22265625
-82.03125,-77.1484375,-54.6875,-59.08203125
-75.68359375,-28.80859375,-54.6875,-49.8046875
-53.22265625,-27.34375,-53.7109375,-45.8984375
-46.38671875,-43.9453125,-51.7578125,-51.7578125
-53.22265625,-59.5703125,-47.36328125,-58.59375
-62.98828125,-74.70703125,-43.9453125,-60.05859375
-56.15234375,-41.9921875,-47.8515625,-52.24609375
-37.59765625,-10.7421875,-50.78125,-45.41015625
-34.66796875,-15.13671875,-43.45703125,-45.8984375
-49.31640625,-51.26953125,-42.48046875,-52.24609375
-62.98828125,-70.80078125,-45.8984375,-54.6875
-64.94140625,-45.41015625,-49.8046875,-49.8046875
-48.33984375,-11.71875,-55.6640625,-41.50390625
-42.48046875,-6.8359375,-58.10546875,-40.52734375
-47.8515625,-43.9453125,-58.10546875,-49.31640625
-56.15234375,-87.890625,-58.10546875,-55.6640625
-60.05859375,-69.82421875,-52.24609375,-46.875
-47.36328125,-25.87890625,-47.8515625,-38.57421875
-35.64453125,-19.04296875,-45.8984375,-40.0390625
-42.96875,-49.31640625,-43.9453125,-50.29296875
-57.6171875,-88.37890625,-49.31640625,-52.734375
-59.5703125,-68.84765625,-51.26953125,-42.96875
-46.875,-15.625,-49.31640625,-32.71484375
-34.1796875,-18.06640625,-51.7578125,-34.1796875
-41.50390625,-46.38671875,-54.6875,-46.38671875
-56.640625,-60.05859375,-57.6171875,-59.08203125
-61.5234375,-77.1484375,-56.640625,-54.6875
-57.12890625,-36.1328125,-52.24609375,-44.43359375
-41.50390625,-19.53125,-50.29296875,-45.8984375
-37.59765625,-55.17578125,-48.828125,-47.8515625
-55.17578125,-76.66015625,-46.38671875,-53.22265625
-58.59375,-77.1484375,-43.45703125,-50.29296875
-48.828125,-41.9921875,-43.9453125,-39.55078125
-37.59765625,-13.671875,-41.015625,-34.66796875
-38.0859375,-38.57421875,-38.57421875,-40.52734375
-49.8046875,-76.171875,-43.45703125,-45.8984375
-62.98828125,-53.22265625,-43.45703125,-40.52734375
-65.91796875,-15.13671875,-43.45703125,-36.62109375
-49.8046875,-30.2734375,-48.33984375,-37.59765625
-43.9453125,-51.26953125,-45.8984375,-43.9453125
-50.29296875,-68.84765625,-38.0859375,-45.8984375
-62.01171875,-81.54296875,-41.50390625,-47.8515625
-69.3359375,-43.9453125,-44.43359375,-51.26953125
-59.08203125,-8.7890625,-41.015625,-55.6640625
-48.828125,-35.15625,-41.50390625,-56.15234375
-52.24609375,-70.80078125,-47.8515625,-61.5234375
-59.5703125,-68.359375,-51.7578125,-64.453125
-63.96484375,-46.38671875,-50.78125,-56.15234375
-48.828125,-8.30078125,-48.828125,-56.15234375
-37.109375,2.44140625,-44.43359375,-57.6171875
-57.12890625,-65.91796875,-49.8046875,-70.80078125
-69.3359375,-95.703125,-52.24609375,-74.21875
-62.5,-53.22265625,-50.78125,-54.6875
-47.8515625,-16.6015625,-49.31640625,-43.45703125
-33.69140625,-22.94921875,-41.015625,-43.9453125
-33.69140625,-53.7109375,-39.0625,-45.41015625
-48.33984375,-71.77734375,-42.96875,-45.8984375
-54.6875,-59.08203125,-43.45703125,-41.015625
-38.57421875,-13.18359375,-44.43359375,-29.78515625
-22.4609375,-21.97265625,-43.9453125,-28.3203125
-35.64453125,-60.05859375,-43.9453125,-37.109375
-55.17578125,-59.5703125,-49.31640625,-46.875
-56.640625,-59.5703125,-51.26953125,-41.015625
-45.41015625,-40.0390625,-45.8984375,-33.69140625
-27.83203125,-22.94921875,-44.43359375,-30.2734375
-29.296875,-44.921875,-43.45703125,-36.62109375
-49.8046875,-70.80078125,-44.921875,-49.31640625
-55.17578125,-64.94140625,-46.875,-46.875
-48.828125,-19.04296875,-47.8515625,-43.9453125
-31.73828125,-11.23046875,-44.921875,-43.45703125
-28.80859375,-50.29296875,-45.41015625,-45.41015625
-52.24609375,-76.66015625,-44.43359375,-48.33984375
-71.2890625,-71.77734375,-47.36328125,-44.43359375
-58.10546875,-19.53125,-48.828125,-35.64453125
-37.59765625,-7.32421875,-43.45703125,-33.69140625
-39.55078125,-62.98828125,-46.38671875,-42.96875
-51.26953125,-95.21484375,-51.26953125,-50.78125
-65.4296875,-81.54296875,-53.22265625,-50.29296875
-58.59375,-36.62109375,-52.734375,-42.96875
-31.73828125,-13.671875,-48.828125,-40.0390625
-29.78515625,-34.1796875,-52.24609375,-49.31640625
-52.24609375,-61.03515625,-56.640625,-63.4765625
-67.3828125,-66.89453125,-58.10546875,-63.4765625
-60.546875,-43.45703125,-56.15234375,-59.08203125
-45.8984375,-9.27734375,-51.7578125,-58.59375
-47.8515625,-17.08984375,-55.17578125,-58.10546875
-57.12890625,-79.1015625,-54.6875,-61.5234375
-74.21875,-81.0546875,-49.31640625,-63.96484375
-73.73046875,-37.59765625,-48.828125,-58.59375
-54.6875,-23.92578125,-43.9453125,-52.24609375
-41.9921875,-27.83203125,-37.59765625,-49.8046875
-49.31640625,-65.4296875,-39.55078125,-48.828125
-63.96484375,-80.078125,-43.9453125,-51.26953125
-65.4296875,-58.10546875,-44.43359375,-46.875
-46.38671875,-28.3203125,-42.48046875,-38.0859375
-30.76171875,-27.34375,-39.55078125,-38.57421875
-39.0625,-49.31640625,-42.48046875,-45.41015625
-57.6171875,-56.640625,-44.43359375,-51.26953125
-62.01171875,-64.94140625,-44.921875,-50.29296875
-44.43359375,-33.69140625,-43.45703125,-44.43359375
-34.66796875,-22.4609375,-39.55078125,-46.38671875
-37.109375,-55.6640625,-42.96875,-57.12890625
-45.8984375,-60.546875,-47.8515625,-63.4765625
-61.5234375,-48.828125,-50.78125,-62.5
-47.8515625,-35.64453125,-57.6171875,-58.10546875
-31.25,-21.484375,-57.12890625,-57.12890625
-38.57421875,-50.29296875,-55.6640625,-66.40625
-56.15234375,-70.80078125,-55.6640625,-70.3125
-66.89453125,-58.10546875,-57.6171875,-58.59375
-54.19921875,-19.53125,-62.5,-51.7578125
-39.55078125,-17.08984375,-54.6875,-49.8046875
-46.38671875,-63.96484375,-45.41015625,-54.19921875
-59.08203125,-82.03125,-43.45703125,-58.59375
-63.96484375,-72.265625,-44.921875,-55.17578125
-53.7109375,-34.1796875,-47.36328125,-49.31640625
-39.55078125,-17.578125,-49.8046875,-43.45703125
-45.41015625,-47.36328125,-48.33984375,-45.8984375
-50.29296875,-68.359375,-43.9453125,-53.22265625
-54.6875,-62.98828125,-48.828125,-56.640625
-53.22265625,-48.33984375,-53.7109375,-53.7109375
-33.203125,-21.484375,-48.828125,-47.36328125
-25.390625,-14.6484375,-44.43359375,-48.828125
-39.0625,-73.73046875,-55.6640625,-64.94140625
-53.22265625,-88.37890625,-60.05859375,-71.2890625
-48.33984375,-40.0390625,-52.24609375,-60.546875
-40.52734375,-20.99609375,-51.7578125,-55.17578125
-39.0625,-25.87890625,-54.19921875,-59.5703125
-47.36328125,-55.17578125,-52.734375,-64.94140625
-62.5,-83.49609375,-51.26953125,-64.94140625
-63.96484375,-48.33984375,-47.36328125,-59.08203125
-54.6875,-15.625,-40.0390625,-56.640625
-51.26953125,-32.71484375,-39.0625,-59.5703125
-52.734375,-58.59375,-43.45703125,-60.05859375
-57.12890625,-57.6171875,-46.875,-60.05859375
-62.98828125,-45.8984375,-46.38671875,-54.6875
-45.8984375,-30.2734375,-51.26953125,-40.52734375
-33.69140625,-41.015625,-51.26953125,-30.2734375
-54.6875,-80.078125,-41.50390625,-45.41015625
-74.21875,-77.63671875,-43.9453125,-59.08203125
-70.3125,-52.24609375,-49.8046875,-47.8515625
-51.7578125,-23.4375,-48.33984375,-41.9921875
-40.0390625,-29.296875,-44.921875,-51.26953125
-41.50390625,-51.7578125,-50.29296875,-58.10546875
-51.7578125,-67.3828125,-52.24609375,-56.15234375
-55.17578125,-66.89453125,-50.29296875,-47.36328125
-40.0390625,-12.20703125,-47.36328125,-42.48046875
-29.296875,-25.87890625,-49.31640625,-45.8984375
-33.203125,-53.7109375,-54.19921875,-51.26953125
-44.43359375,-59.5703125,-55.6640625,-56.15234375
-57.12890625,-74.70703125,-54.6875,-57.12890625
-54.6875,-33.203125,-48.33984375,-54.19921875
-39.55078125,-13.671875,-44.43359375,-49.8046875
-42.96875,-35.64453125,-47.36328125,-56.640625
-63.4765625,-63.96484375,-49.8046875,-61.5234375
-67.87109375,-58.59375,-45.41015625,-51.26953125
-54.19921875,-33.69140625,-43.45703125,-42.48046875
-37.109375,-15.13671875,-45.41015625,-40.0390625
-39.55078125,-21.97265625,-48.33984375,-45.41015625
-57.6171875,-76.171875,-46.875,-53.22265625
-64.94140625,-95.703125,-45.41015625,-47.8515625
-58.59375,-36.1328125,-44.43359375,-40.52734375
-41.50390625,-8.30078125,-45.41015625,-39.0625
-35.15625,-42.48046875,-45.8984375,-40.52734375
-41.9921875,-67.3828125,-41.015625,-44.43359375
-50.29296875,-73.73046875,-41.9921875,-44.921875
-53.22265625,-37.109375,-45.41015625,-42.96875
-39.55078125,-22.4609375,-47.36328125,-42.48046875
-30.76171875,-34.1796875,-47.36328125,-47.8515625
-50.78125,-61.5234375,-46.38671875,-61.5234375
-68.84765625,-68.359375,-45.41015625,-61.5234375
-58.10546875,-38.57421875,-45.8984375,-52.24609375
-41.9921875,-22.94921875,-42.96875,-51.26953125
-38.57421875,-39.0625,-45.41015625,-53.22265625
-46.38671875,-65.4296875,-49.8046875,-57.6171875
-54.6875,-73.73046875,-47.36328125,-58.59375
-47.36328125,-51.26953125,-44.921875,-44.921875
-35.15625,-21.97265625,-41.9921875,-37.59765625
-39.55078125,-37.59765625,-44.43359375,-45.41015625
-50.29296875,-67.87109375,-50.29296875,-53.22265625
-66.89453125,-89.84375,-47.8515625,-55.17578125
-76.66015625,-67.3828125,-45.8984375,-44.921875
-55.17578125,-7.8125,-46.38671875,-42.96875
-39.55078125,-27.34375,-48.33984375,-44.921875
-51.7578125,-84.47265625,-47.8515625,-47.36328125
-70.3125,-80.078125,-46.38671875,-56.640625
-76.66015625,-59.08203125,-50.29296875,-51.7578125
-60.546875,-16.6015625,-49.8046875,-45.41015625
-39.0625,-12.6953125,-46.875,-45.41015625
-47.8515625,-61.5234375,-44.43359375,-50.78125
-64.453125,-76.66015625,-38.0859375,-53.22265625
-62.98828125,-63.96484375,-39.55078125,-48.828125
-47.8515625,-31.25,-46.38671875,-44.921875
-26.85546875,-17.08984375,-46.875,-41.50390625
-20.5078125,-24.4140625,-40.52734375,-42.48046875
-39.55078125,-67.87109375,-39.0625,-48.33984375
-51.26953125,-91.796875,-41.9921875,-44.921875
-36.62109375,-43.9453125,-46.875,-34.1796875
-28.3203125,-20.01953125,-46.875,-30.2734375
-38.0859375,-41.015625,-45.41015625,-39.0625
-44.43359375,-72.265625,-47.8515625,-48.33984375
-45.8984375,-75.1953125,-50.78125,-45.41015625
-51.26953125,-34.1796875,-54.6875,-41.9921875
-39.0625,-13.18359375,-47.8515625,-40.0390625
-35.15625,-36.62109375,-44.43359375,-47.8515625
-47.8515625,-66.89453125,-46.875,-53.22265625
-64.453125,-61.5234375,-44.921875,-52.734375
-62.5,-41.50390625,-46.38671875,-49.8046875
-40.52734375,-15.13671875,-49.31640625,-44.43359375
-34.66796875,-20.5078125,-47.36328125,-46.38671875
-43.45703125,-79.1015625,-47.36328125,-49.31640625
-56.640625,-75.68359375,-49.8046875,-47.8515625
-57.12890625,-34.1796875,-48.828125,-43.45703125
-34.66796875,-4.39453125,-46.875,-44.43359375
-18.06640625,-13.18359375,-44.43359375,-39.55078125
-31.25,-59.5703125,-44.43359375,-39.55078125
-49.8046875,-67.3828125,-45.8984375,-42.96875
-37.109375,-33.203125,-42.96875,-32.2265625
-19.53125,1.46484375,-41.015625,-25.390625
-21.97265625,-22.4609375,-45.41015625,-30.2734375
-28.80859375,-64.453125,-43.45703125,-37.59765625
-48.33984375,-67.87109375,-45.41015625,-48.33984375
-65.91796875,-58.59375,-54.19921875,-45.8984375
-49.8046875,-16.6015625,-50.29296875,-36.62109375
-31.73828125,-7.8125,-41.9921875,-38.57421875
-39.55078125,-66.40625,-44.921875,-47.36328125
-61.03515625,-86.9140625,-53.7109375,-57.6171875
-67.3828125,-56.640625,-54.19921875,-54.19921875
-53.22265625,-14.16015625,-48.33984375,-44.43359375
-45.8984375,-23.92578125,-50.29296875,-48.33984375
-54.6875,-48.828125,-52.24609375,-54.19921875
-64.94140625,-76.66015625,-53.7109375,-58.10546875
-74.70703125,-89.84375,-51.26953125,-55.6640625
-68.359375,-40.0390625,-48.33984375,-51.7578125
-51.7578125,-20.5078125,-52.734375,-51.7578125
-50.78125,-46.875,-46.38671875,-55.6640625
-64.453125,-74.70703125,-48.33984375,-57.12890625
-66.89453125,-72.75390625,-53.7109375,-52.734375
-43.9453125,-31.73828125,-49.8046875,-43.9453125
-27.83203125,-9.765625,-46.38671875,-35.64453125
-32.2265625,-49.31640625,-42.96875,-41.015625
-39.55078125,-76.171875,-42.96875,-48.33984375
-58.10546875,-54.6875,-46.38671875,-47.36328125
-56.640625,-36.1328125,-48.33984375,-43.45703125
-43.45703125,-25.87890625,-51.26953125,-49.8046875
-44.921875,-39.0625,-49.8046875,-59.08203125
-45.8984375,-72.265625,-44.43359375,-50.29296875
-60.05859375,-79.1015625,-42.48046875,-51.26953125
-65.91796875,-44.43359375,-46.875,-60.05859375
-46.875,-13.671875,-49.31640625,-48.33984375
-45.41015625,-26.3671875,-48.828125,-51.7578125
-53.7109375,-61.5234375,-52.24609375,-58.10546875
-60.546875,-77.1484375,-51.7578125,-54.19921875
-61.5234375,-40.52734375,-50.78125,-48.828125
-44.921875,1.46484375,-47.36328125,-39.55078125
-40.52734375,-23.92578125,-48.33984375,-45.41015625
-57.12890625,-83.984375,-49.31640625,-54.6875
-68.84765625,-94.23828125,-46.875,-52.24609375
-67.3828125,-53.22265625,-44.921875,-48.828125
-52.734375,-31.25,-46.875,-46.38671875
-39.0625,-41.9921875,-53.22265625,-47.8515625
-47.36328125,-70.80078125,-47.8515625,-52.734375
-62.98828125,-82.51953125,-44.43359375,-54.19921875
-61.03515625,-57.6171875,-43.45703125,-47.36328125
-48.33984375,-28.3203125,-43.45703125,-40.52734375
-38.57421875,-18.06640625,-45.8984375,-45.41015625
-44.43359375,-37.59765625,-49.31640625,-52.24609375
-61.5234375,-86.9140625,-57.6171875,-56.640625
-65.4296875,-75.1953125,-59.08203125,-48.33984375
-52.24609375,-13.18359375,-54.19921875,-39.55078125
-35.64453125,-25.390625,-50.78125,-44.43359375
-36.62109375,-61.03515625,-48.33984375,-51.26953125
-53.22265625,-81.54296875,-50.29296875,-59.08203125
-59.08203125,-67.3828125,-51.7578125,-57.12890625
-47.8515625,-19.53125,-52.734375,-46.875
-35.64453125,-12.6953125,-52.734375,-41.9921875
-34.1796875,-55.6640625,-50.78125,-45.41015625
-43.9453125,-76.171875,-46.38671875,-50.29296875
-51.26953125,-56.15234375,-39.55078125,-45.8984375
-48.33984375,-40.0390625,-40.0390625,-37.109375
-35.64453125,-30.76171875,-37.59765625,-32.2265625
-32.2265625,-45.41015625,-35.64453125,-41.50390625
-52.734375,-85.9375,-45.41015625,-61.03515625
-65.4296875,-69.3359375,-44.43359375,-68.84765625
-50.29296875,-18.06640625,-40.0390625,-54.19921875
-32.2265625,-22.4609375,-41.9921875,-44.43359375
-39.0625,-43.45703125,-43.45703125,-51.7578125
-55.6640625,-75.68359375,-43.9453125,-60.546875
-66.89453125,-86.9140625,-44.921875,-59.08203125
-65.4296875,-43.9453125,-38.57421875,-47.8515625
-44.921875,6.34765625,-34.66796875,-38.57421875
-39.55078125,-21.484375,-42.48046875,-46.38671875
-53.7109375,-86.9140625,-50.78125,-59.08203125
-62.01171875,-84.47265625,-45.41015625,-53.7109375
-56.15234375,-35.64453125,-43.45703125,-46.875
-37.109375,-13.18359375,-44.921875,-42.96875
-34.66796875,-27.83203125,-45.8984375,-47.36328125
-47.36328125,-66.89453125,-43.9453125,-53.22265625
-57.6171875,-67.87109375,-45.8984375,-49.31640625
-59.5703125,-28.3203125,-49.31640625,-43.45703125
-44.43359375,-21.484375,-44.43359375,-39.55078125
-37.109375,-33.203125,-41.015625,-44.921875
-49.8046875,-46.875,-45.41015625,-58.59375
-61.03515625,-66.40625,-52.734375,-55.17578125
-60.05859375,-54.19921875,-51.7578125,-48.33984375
-46.38671875,-22.94921875,-49.8046875,-43.45703125
-33.69140625,-15.625,-52.24609375,-42.96875
-36.1328125,-51.26953125,-56.15234375,-51.7578125
-55.17578125,-79.58984375,-56.640625,-52.24609375
-67.87109375,-66.40625,-57.12890625,-46.875
-48.828125,-21.97265625,-51.7578125,-37.59765625
-34.1796875,-13.671875,-43.9453125,-31.73828125
-43.9453125,-63.4765625,-47.8515625,-44.921875
-57.6171875,-63.96484375,-52.734375,-52.734375
-63.96484375,-41.015625,-53.7109375,-47.36328125
-50.78125,-34.1796875,-56.15234375,-45.8984375
-36.1328125,-35.15625,-56.15234375,-44.921875
-38.0859375,-52.734375,-56.640625,-49.31640625
-50.78125,-81.54296875,-58.10546875,-52.24609375
-57.6171875,-74.70703125,-53.7109375,-42.48046875
-46.38671875,-22.94921875,-52.24609375,-37.59765625
-32.71484375,-8.7890625,-51.7578125,-39.55078125
-38.57421875,-44.921875,-50.78125,-45.8984375
-52.734375,-69.3359375,-47.36328125,-55.6640625
-55.17578125,-66.40625,-40.0390625,-54.6875
-46.38671875,-20.99609375,-37.59765625,-41.9921875
-28.3203125,7.32421875,-36.62109375,-33.203125
-24.90234375,-38.0859375,-40.52734375,-40.0390625
-45.8984375,-80.56640625,-43.45703125,-49.8046875
-62.01171875,-86.9140625,-46.38671875,-48.828125
-56.640625,-51.26953125,-47.36328125,-46.38671875
-42.48046875,-19.04296875,-45.41015625,-46.875
-42.96875,-36.62109375,-42.96875,-51.26953125
-56.640625,-80.078125,-41.50390625,-58.59375
-62.98828125,-79.1015625,-41.50390625,-55.17578125
-50.78125,-30.76171875,-43.9453125,-45.41015625
-36.1328125,-18.5546875,-46.38671875,-43.45703125
-35.15625,-23.4375,-46.875,-45.8984375
-44.43359375,-36.62109375,-49.31640625,-51.26953125
-56.15234375,-83.984375,-46.38671875,-51.7578125
-64.453125,-63.96484375,-48.828125,-51.26953125
-49.31640625,-17.08984375,-50.78125,-49.8046875
-38.0859375,-23.92578125,-45.8984375,-54.19921875
-51.26953125,-41.50390625,-46.38671875,-62.5
-61.5234375,-59.08203125,-49.31640625,-63.4765625
-58.10546875,-62.98828125,-54.19921875,-58.10546875
-45.8984375,-33.69140625,-53.22265625,-57.6171875
-33.203125,-27.34375,-52.734375,-58.59375
-35.64453125,-61.5234375,-50.29296875,-59.5703125
-51.26953125,-72.75390625,-49.31640625,-64.453125
-51.26953125,-42.96875,-52.24609375,-56.640625
-36.62109375,-27.83203125,-50.78125,-47.8515625
-26.85546875,-35.64453125,-42.96875,-44.43359375
-37.59765625,-60.05859375,-45.41015625,-43.9453125
-57.12890625,-70.3125,-52.24609375,-51.7578125
-56.640625,-57.6171875,-48.828125,-45.8984375
-41.015625,-19.53125,-46.38671875,-36.1328125
-32.71484375,-13.671875,-45.8984375,-37.59765625
-32.71484375,-41.50390625,-49.8046875,-44.921875
-43.45703125,-63.96484375,-54.19921875,-50.29296875
-61.03515625,-78.61328125,-51.7578125,-45.41015625
-45.41015625,-31.73828125,-49.8046875,-42.96875
-22.94921875,-0.48828125,-51.7578125,-47.36328125
-28.80859375,-54.6875,-52.734375,-54.6875
-46.875,-90.33203125,-53.22265625,-55.6640625
-55.6640625,-74.70703125,-53.7109375,-52.734375
-42.48046875,-36.62109375,-49.8046875,-48.33984375
-26.85546875,-9.765625,-49.31640625,-43.45703125
-29.78515625,-36.62109375,-49.8046875,-48.828125
-43.9453125,-67.3828125,-50.78125,-60.546875
-60.05859375,-77.1484375,-52.24609375,-58.59375
-62.01171875,-47.36328125,-50.78125,-47.8515625
-48.828125,-14.16015625,-50.29296875,-49.31640625
-45.8984375,-28.80859375,-51.26953125,-54.6875
-52.24609375,-44.43359375,-48.33984375,-56.15234375
-55.6640625,-54.6875,-47.36328125,-47.8515625
-55.17578125,-46.38671875,-49.31640625,-41.015625
-42.96875,-21.97265625,-48.33984375,-43.9453125
-42.96875,-25.87890625,-45.41015625,-49.31640625
-54.19921875,-66.40625,-47.8515625,-51.7578125
-65.91796875,-80.078125,-52.24609375,-52.734375
-60.546875,-41.50390625,-47.36328125,-46.38671875
-36.62109375,-16.6015625,-45.41015625,-41.50390625
-29.296875,-19.53125,-41.50390625,-44.921875
-36.1328125,-55.17578125,-39.0625,-50.29296875
-49.8046875,-64.94140625,-44.43359375,-54.19921875
-56.15234375,-23.92578125,-46.38671875,-47.36328125
-49.8046875,-20.99609375,-48.33984375,-40.52734375
-41.9921875,-44.43359375,-49.8046875,-43.45703125
-33.203125,-56.15234375,-43.9453125,-43.45703125
-38.0859375,-75.1953125,-41.015625,-41.50390625
-45.8984375,-55.17578125,-46.38671875,-36.1328125
-30.2734375,-10.25390625,-49.8046875,-30.76171875
-21.484375,-14.6484375,-44.921875,-34.66796875
-30.2734375,-56.15234375,-44.43359375,-42.48046875
-46.38671875,-71.2890625,-47.8515625,-49.8046875
-59.5703125,-61.03515625,-44.921875,-45.41015625
-54.19921875,-24.90234375,-44.43359375,-36.62109375
-40.0390625,0.48828125,-44.921875,-33.69140625
-42.48046875,-54.19921875,-44.921875,-43.45703125
-53.22265625,-96.19140625,-45.41015625,-54.19921875
-61.5234375,-73.73046875,-45.8984375,-47.36328125
-43.9453125,-30.76171875,-44.43359375,-40.52734375
-30.76171875,-15.13671875,-39.0625,-39.0625
-46.875,-39.55078125,-39.0625,-41.9921875
-59.08203125,-78.61328125,-39.0625,-45.41015625
-60.05859375,-72.265625,-41.50390625,-44.921875
-50.78125,-26.3671875,-45.8984375,-34.1796875
-35.15625,-22.4609375,-47.8515625,-32.2265625
-31.73828125,-37.109375,-43.45703125,-39.0625
-42.96875,-52.734375,-47.36328125,-43.45703125
-55.6640625,-83.984375,-51.26953125,-44.921875
-46.875,-47.8515625,-48.33984375,-41.9921875
-30.2734375,-16.11328125,-50.29296875,-38.57421875
-33.69140625,-41.50390625,-50.29296875,-46.38671875
-44.43359375,-71.77734375,-51.26953125,-60.05859375
-53.7109375,-70.3125,-49.8046875,-62.5
-48.828125,-37.109375,-49.31640625,-52.24609375
-34.66796875,-18.06640625,-52.24609375,-40.0390625
-33.203125,-32.71484375,-49.8046875,-41.50390625
-43.45703125,-83.0078125,-46.38671875,-49.31640625
-62.5,-76.66015625,-46.38671875,-45.41015625
-63.4765625,-27.83203125,-49.31640625,-39.55078125
-39.55078125,-27.34375,-50.29296875,-37.59765625
-28.80859375,-46.38671875,-48.33984375,-37.109375
-39.55078125,-78.125,-51.7578125,-46.875
-55.6640625,-85.44921875,-54.19921875,-51.7578125
-53.22265625,-47.36328125,-45.8984375,-41.50390625
-38.0859375,-12.20703125,-41.9921875,-36.1328125
-30.76171875,-24.90234375,-44.921875,-39.55078125
-39.55078125,-64.94140625,-48.33984375,-48.33984375
-57.6171875,-75.68359375,-52.734375,-55.6640625
-61.5234375,-55.17578125,-53.22265625,-49.31640625
-42.96875,-29.78515625,-50.78125,-41.9921875
-30.76171875,-15.13671875,-47.8515625,-40.0390625
-43.45703125,-53.22265625,-52.24609375,-45.41015625
-61.03515625,-93.75,-61.03515625,-54.19921875
-65.4296875,-83.0078125,-60.546875,-52.24609375
-51.7578125,-32.71484375,-56.15234375,-44.921875
-33.203125,-14.6484375,-55.17578125,-42.48046875
-34.66796875,-51.7578125,-51.7578125,-52.24609375
-52.734375,-73.2421875,-50.78125,-61.03515625
-66.40625,-60.546875,-51.7578125,-56.640625
-56.15234375,-21.484375,-51.7578125,-51.7578125
-34.1796875,-14.16015625,-51.7578125,-49.31640625
-37.59765625,-46.38671875,-47.36328125,-49.31640625
-57.12890625,-55.17578125,-50.78125,-54.19921875
-64.453125,-68.84765625,-52.734375,-53.7109375
-56.15234375,-36.62109375,-46.875,-51.7578125
-47.36328125,-2.44140625,-49.8046875,-52.734375
-41.50390625,-60.05859375,-54.19921875,-54.6875
-51.7578125,-81.54296875,-53.22265625,-62.98828125
-63.4765625,-59.08203125,-49.31640625,-60.546875
-54.6875,-29.78515625,-46.875,-46.875
-38.0859375,-12.20703125,-47.8515625,-41.015625
-29.296875,-32.2265625,-43.45703125,-41.50390625
-43.45703125,-66.40625,-41.9921875,-44.43359375
-60.546875,-75.68359375,-46.875,-49.31640625
-55.17578125,-26.3671875,-48.33984375,-46.875
-40.52734375,-11.71875,-51.26953125,-39.55078125
-40.52734375,-50.78125,-53.7109375,-39.55078125
-54.19921875,-71.77734375,-55.6640625,-51.26953125
-62.98828125,-83.0078125,-57.6171875,-51.7578125
-56.15234375,-40.0390625,-56.640625,-43.45703125
-39.0625,-0.48828125,-50.29296875,-40.52734375
-32.2265625,-32.71484375,-49.8046875,-47.8515625
-41.9921875,-66.89453125,-48.828125,-62.98828125
-60.05859375,-74.70703125,-47.36328125,-62.01171875
-63.4765625,-41.9921875,-49.8046875,-51.26953125
-46.875,-16.6015625,-43.9453125,-50.29296875
-41.015625,-19.53125,-45.41015625,-52.734375
-61.5234375,-75.1953125,-51.26953125,-62.01171875
-80.56640625,-108.3984375,-52.24609375,-66.40625
-78.125,-59.5703125,-47.36328125,-57.12890625
-60.05859375,-27.34375,-42.96875,-49.8046875
-46.38671875,-34.66796875,-41.9921875,-48.33984375
-51.26953125,-57.6171875,-40.52734375,-53.22265625
-61.03515625,-77.63671875,-42.48046875,-54.6875
-63.4765625,-42.96875,-40.0390625,-42.96875
-44.43359375,-5.37109375,-38.57421875,-34.66796875
-35.15625,-34.1796875,-44.43359375,-43.45703125
-42.48046875,-56.15234375,-43.45703125,-49.8046875
-47.36328125,-52.24609375,-36.1328125,-49.8046875
-55.17578125,-67.87109375,-40.0390625,-47.8515625
-48.828125,-34.1796875,-42.48046875,-43.9453125
-32.71484375,-2.9296875,-38.0859375,-45.41015625
-40.0390625,-40.0390625,-41.9921875,-54.6875
-60.05859375,-70.3125,-49.31640625,-62.98828125
-62.98828125,-55.6640625,-58.10546875,-66.40625
-33.69140625,-12.6953125,-59.08203125,-44.921875
-20.5078125,-4.8828125,-46.875,-33.69140625
-55.17578125,-37.109375,-44.921875,-62.5
-81.54296875,-73.73046875,-50.29296875,-75.68359375
-86.9140625,-81.0546875,-53.7109375,-72.265625
-90.33203125,-27.83203125,-51.26953125,-73.73046875
-87.40234375,-18.5546875,-44.43359375,-77.63671875
-83.984375,-68.84765625,-38.57421875,-80.56640625
-102.05078125,-91.30859375,-39.0625,-86.9140625
-124.0234375,-77.1484375,-41.50390625,-94.23828125
-119.62890625,-37.59765625,-37.109375,-91.30859375
-109.375,-29.78515625,-37.59765625,-95.703125
-118.65234375,-60.546875,-37.109375,-112.3046875
-131.8359375,-87.890625,-31.25,-125.0
-143.06640625,-88.37890625,-30.76171875,-126.953125
-145.99609375,-53.7109375,-34.66796875,-129.39453125
-125.9765625,-26.3671875,-34.66796875,-121.58203125
-121.58203125,-32.2265625,-28.80859375,-123.046875
-142.578125,-85.9375,-27.34375,-138.18359375
-165.0390625,-105.46875,-30.76171875,-139.6484375
-159.1796875,-60.546875,-29.78515625,-127.9296875
-131.8359375,-50.29296875,-24.4140625,-108.3984375
-120.60546875,-57.12890625,-22.94921875,-103.02734375
-130.859375,-79.1015625,-21.97265625,-112.3046875
-146.97265625,-88.37890625,-20.01953125,-115.234375
-147.4609375,-57.12890625,-15.13671875,-105.46875
-131.34765625,-32.71484375,-14.6484375,-96.19140625
-111.81640625,-39.0625,-20.5078125,-88.37890625
-112.79296875,-72.75390625,-20.5078125,-96.19140625
-134.765625,-82.03125,-18.06640625,-110.83984375
-135.7421875,-81.0546875,-16.11328125,-104.4921875
-116.69921875,-65.4296875,-17.08984375,-96.6796875
-97.16796875,-45.8984375,-15.625,-87.890625
-99.12109375,-79.58984375,-14.6484375,-86.9140625
-135.25390625,-100.5859375,-16.11328125,-110.3515625
-142.08984375,-72.265625,-21.97265625,-109.86328125
-117.1875,-46.38671875,-25.390625,-95.21484375
-94.23828125,-47.36328125,-22.4609375,-86.9140625
-94.7265625,-74.21875,-23.92578125,-87.40234375
-112.3046875,-94.7265625,-20.01953125,-100.5859375
-113.76953125,-78.61328125,-16.11328125,-97.65625
-94.7265625,-35.15625,-23.4375,-80.56640625
-73.73046875,-40.0390625,-21.484375,-67.87109375
-72.265625,-75.68359375,-15.625,-66.40625
-88.37890625,-91.796875,-21.97265625,-72.75390625
-97.65625,-83.984375,-27.34375,-70.80078125
-76.66015625,-42.48046875,-27.34375,-65.4296875
-58.10546875,-26.3671875,-28.3203125,-68.84765625
-72.265625,-57.12890625,-26.3671875,-79.58984375
-85.9375,-84.47265625,-26.85546875,-82.51953125
-88.8671875,-77.1484375,-24.4140625,-78.125
-86.42578125,-51.26953125,-26.3671875,-71.2890625
-69.82421875,-24.4140625,-27.83203125,-64.453125
-73.73046875,-35.64453125,-23.92578125,-73.73046875
-80.078125,-88.37890625,-28.80859375,-77.63671875
-76.171875,-104.4921875,-34.1796875,-65.91796875
-81.54296875,-47.8515625,-30.2734375,-65.91796875
-69.3359375,-15.13671875,-26.3671875,-69.3359375
-57.12890625,-42.48046875,-31.25,-67.87109375
-72.265625,-82.03125,-34.1796875,-76.66015625
-78.61328125,-84.9609375,-28.80859375,-73.2421875
-69.82421875,-50.29296875,-29.296875,-57.6171875
-54.19921875,-20.01953125,-30.2734375,-47.36328125
-39.0625,-37.59765625,-26.85546875,-47.8515625
-45.8984375,-72.75390625,-33.203125,-56.640625
-60.546875,-59.08203125,-36.62109375,-62.5
-61.03515625,-36.1328125,-34.66796875,-58.10546875
-46.38671875,-38.57421875,-36.62109375,-50.78125
-37.109375,-34.1796875,-37.59765625,-56.640625
-41.50390625,-54.6875,-34.66796875,-58.10546875
-56.640625,-64.94140625,-39.0625,-61.03515625
-68.84765625,-38.0859375,-37.59765625,-56.15234375
-60.546875,-2.9296875,-34.66796875,-50.78125
-37.109375,-5.859375,-37.109375,-52.734375
-37.59765625,-39.55078125,-41.9921875,-57.6171875
-62.01171875,-50.78125,-44.921875,-65.91796875
-66.89453125,-36.62109375,-42.96875,-59.5703125
-46.38671875,9.27734375,-48.33984375,-48.33984375
-30.2734375,-10.25390625,-54.6875,-51.26953125
-25.87890625,-55.6640625,-52.734375,-53.7109375
-41.50390625,-52.24609375,-56.15234375,-52.24609375
-50.29296875,-52.734375,-61.03515625,-46.38671875
-31.25,-19.53125,-62.98828125,-30.2734375
-5.859375,0.48828125,-61.5234375,-19.53125
5.37109375,-38.0859375,-59.5703125,-19.04296875
-7.8125,-68.84765625,-67.3828125,-22.94921875
-7.32421875,-65.4296875,-74.21875,-2.9296875
12.20703125,-21.97265625,-73.73046875,11.71875
36.1328125,-2.44140625,-72.265625,11.23046875
44.43359375,-29.78515625,-72.75390625,19.53125
19.53125,-87.40234375,-77.63671875,16.11328125
12.6953125,-103.515625,-75.1953125,18.06640625
27.83203125,-32.71484375,-67.87109375,33.203125
41.9921875,-19.53125,-64.453125,35.15625
45.8984375,-44.43359375,-62.01171875,30.2734375
32.2265625,-68.84765625,-66.40625,28.3203125
24.90234375,-87.890625,-67.3828125,28.3203125
29.78515625,-48.33984375,-60.546875,36.62109375
33.69140625,-26.85546875,-55.17578125,42.96875
30.2734375,-43.45703125,-57.6171875,35.64453125
23.92578125,-88.8671875,-66.40625,23.4375
15.625,-73.73046875,-67.87109375,25.390625
15.13671875,-46.875,-66.89453125,32.2265625
29.78515625,-51.7578125,-63.4765625,32.71484375
40.52734375,-51.7578125,-58.59375,30.76171875
27.34375,-77.1484375,-60.05859375,21.484375
10.25390625,-87.890625,-62.98828125,18.06640625
15.625,-57.6171875,-63.96484375,27.83203125
34.1796875,-16.11328125,-63.4765625,34.1796875
42.48046875,-22.4609375,-57.6171875,32.2265625
37.109375,-66.40625,-54.19921875,23.4375
26.85546875,-86.42578125,-62.01171875,20.99609375
27.34375,-46.875,-62.01171875,27.83203125
37.109375,0.9765625,-55.17578125,30.2734375
49.8046875,-29.296875,-53.7109375,25.87890625
38.57421875,-74.70703125,-56.15234375,17.578125
13.18359375,-81.54296875,-56.15234375,15.625
8.7890625,-62.5,-54.19921875,22.4609375
21.484375,-31.25,-54.19921875,28.3203125
27.83203125,-38.0859375,-54.6875,25.87890625
17.08984375,-75.68359375,-53.7109375,18.5546875
3.41796875,-83.49609375,-49.8046875,13.671875
1.953125,-61.03515625,-45.41015625,17.578125
12.20703125,-24.90234375,-45.41015625,20.5078125
20.99609375,-12.20703125,-50.78125,12.6953125
16.6015625,-35.15625,-57.12890625,0.0
-0.48828125,-67.87109375,-60.546875,-8.7890625
-9.27734375,-80.56640625,-58.10546875,-4.8828125
-5.37109375,-52.24609375,-57.6171875,0.0
5.37109375,-24.4140625,-55.17578125,-1.953125
7.32421875,-36.62109375,-49.31640625,-4.8828125
-8.30078125,-69.82421875,-50.78125,-10.7421875
-18.06640625,-70.80078125,-54.6875,-10.25390625
-12.20703125,-36.62109375,-51.7578125,-0.48828125
6.8359375,-16.11328125,-48.828125,8.30078125
9.27734375,-38.0859375,-54.19921875,6.34765625
-11.23046875,-74.70703125,-56.640625,-2.9296875
-25.87890625,-66.89453125,-56.640625,-9.27734375
-20.5078125,-38.57421875,-54.19921875,-2.9296875
-6.34765625,-28.80859375,-47.8515625,2.44140625
-1.46484375,-32.71484375,-48.33984375,-2.9296875
-11.23046875,-75.1953125,-52.24609375,-11.23046875
-26.85546875,-80.56640625,-54.19921875,-13.671875
-25.87890625,-43.45703125,-55.6640625,-8.30078125
-14.6484375,-15.13671875,-48.33984375,-11.23046875
-11.23046875,-27.34375,-41.50390625,-22.94921875
-19.53125,-62.98828125,-44.921875,-30.76171875
-37.109375,-74.21875,-45.41015625,-32.2265625
-36.1328125,-37.59765625,-44.921875,-25.87890625
-13.18359375,11.71875,-50.78125,-24.90234375
-12.20703125,-15.13671875,-50.78125,-25.87890625
-21.97265625,-68.359375,-50.78125,-29.78515625
-40.0390625,-82.03125,-50.78125,-33.203125
-55.17578125,-51.7578125,-53.22265625,-30.76171875
-39.0625,-9.765625,-55.17578125,-21.97265625
-28.80859375,-19.04296875,-52.734375,-23.4375
-33.203125,-65.91796875,-45.41015625,-33.69140625
-42.48046875,-87.890625,-42.48046875,-33.69140625
-46.38671875,-53.7109375,-49.8046875,-29.78515625
-31.73828125,-12.6953125,-48.828125,-26.85546875
-22.94921875,-14.6484375,-47.8515625,-25.390625
-26.85546875,-37.109375,-51.7578125,-33.69140625
-40.0390625,-82.03125,-55.17578125,-42.96875
-49.8046875,-78.125,-51.7578125,-39.0625
-34.66796875,-25.390625,-47.8515625,-29.78515625
-26.85546875,-23.92578125,-48.33984375,-31.25
-40.0390625,-61.03515625,-48.828125,-44.921875
-61.5234375,-88.37890625,-49.31640625,-56.640625
-68.84765625,-80.56640625,-48.828125,-52.24609375
-56.15234375,-27.83203125,-49.31640625,-44.43359375
-34.1796875,-2.9296875,-51.7578125,-39.55078125
-37.109375,-51.7578125,-55.17578125,-44.921875
-56.640625,-84.47265625,-55.17578125,-56.15234375
-63.4765625,-54.19921875,-52.734375,-47.36328125
-49.8046875,-30.2734375,-49.8046875,-31.25
-21.97265625,-23.92578125,-46.38671875,-22.94921875
-23.4375,-35.15625,-44.921875,-27.83203125
-42.96875,-69.3359375,-45.8984375,-38.57421875
-50.29296875,-60.546875,-46.38671875,-38.0859375
-44.43359375,-27.34375,-46.38671875,-27.83203125
-34.1796875,-22.94921875,-44.921875,-26.85546875
-34.66796875,-41.015625,-41.9921875,-37.59765625
-46.38671875,-64.453125,-43.45703125,-45.8984375
-59.08203125,-68.84765625,-47.8515625,-46.875
-53.7109375,-49.31640625,-49.8046875,-42.96875
-33.69140625,-9.27734375,-48.33984375,-40.0390625
-35.64453125,-28.3203125,-53.22265625,-41.9921875
-48.33984375,-80.078125,-52.24609375,-48.33984375
-61.03515625,-80.56640625,-46.875,-52.734375
-66.89453125,-48.33984375,-48.33984375,-46.38671875
-46.38671875,-19.04296875,-45.41015625,-33.203125
-41.9921875,-27.34375,-44.43359375,-40.0390625
-60.05859375,-56.640625,-53.7109375,-65.4296875
-65.4296875,-71.77734375,-58.59375,-69.3359375
-52.24609375,-46.38671875,-57.6171875,-49.31640625
-34.1796875,-22.4609375,-61.03515625,-38.0859375
-26.3671875,-19.53125,-62.01171875,-41.9921875
-33.203125,-26.85546875,-61.03515625,-50.29296875
-61.5234375,-74.21875,-62.98828125,-54.19921875
-78.61328125,-68.359375,-63.4765625,-53.7109375
-57.6171875,-19.04296875,-65.91796875,-46.875
-36.1328125,-30.76171875,-67.87109375,-43.9453125
-41.015625,-62.98828125,-64.453125,-56.15234375
-54.19921875,-78.61328125,-64.94140625,-62.01171875
-57.6171875,-64.453125,-66.40625,-53.22265625
-42.96875,-25.390625,-62.5,-42.48046875
-28.3203125,-15.625,-62.01171875,-39.0625
-37.109375,-55.6640625,-63.4765625,-43.45703125
-51.26953125,-72.75390625,-59.5703125,-39.55078125
-56.640625,-51.7578125,-53.22265625,-33.203125
-47.36328125,-33.69140625,-50.29296875,-30.2734375
-27.34375,-27.34375,-49.31640625,-28.3203125
-25.390625,-53.22265625,-46.38671875,-34.1796875
-46.875,-86.9140625,-45.8984375,-46.38671875
-55.6640625,-71.77734375,-44.921875,-46.38671875
-43.9453125,-20.01953125,-45.41015625,-38.0859375
-22.94921875,-21.484375,-45.8984375,-33.69140625
-30.76171875,-54.6875,-46.875,-38.57421875
-57.12890625,-71.77734375,-53.7109375,-46.38671875
-56.15234375,-83.984375,-58.59375,-45.41015625
-35.64453125,-32.71484375,-52.734375,-32.2265625
-18.06640625,3.41796875,-47.36328125,-22.4609375
-26.85546875,-47.8515625,-49.31640625,-29.78515625
-42.96875,-83.0078125,-56.15234375,-41.50390625
-53.22265625,-74.70703125,-57.6171875,-41.50390625
-53.22265625,-36.62109375,-48.33984375,-33.203125
-44.921875,-13.18359375,-40.52734375,-27.83203125
-35.15625,-29.78515625,-39.55078125,-28.80859375
-40.0390625,-65.4296875,-42.96875,-37.59765625
-56.640625,-62.5,-42.48046875,-39.0625
-51.7578125,-31.25,-40.0390625,-31.25
-32.2265625,-28.80859375,-44.921875,-26.85546875
-32.2265625,-38.0859375,-46.875,-34.66796875
-45.41015625,-55.17578125,-44.921875,-47.8515625
-50.78125,-84.47265625,-46.875,-52.24609375
-51.26953125,-59.5703125,-52.24609375,-48.828125
-38.0859375,-19.04296875,-51.7578125,-42.48046875
-25.390625,-25.390625,-49.8046875,-43.45703125
-37.109375,-63.96484375,-50.78125,-53.7109375
-51.7578125,-87.40234375,-47.8515625,-55.17578125
-53.7109375,-52.734375,-50.29296875,-52.24609375
-46.875,-15.13671875,-50.78125,-47.8515625
-34.1796875,-20.01953125,-45.41015625,-47.8515625
-37.109375,-53.22265625,-44.921875,-52.734375
-54.19921875,-68.359375,-46.38671875,-51.26953125
-50.78125,-43.45703125,-45.41015625,-42.48046875
-24.90234375,-16.11328125,-43.45703125,-32.2265625
-14.16015625,-30.76171875,-44.43359375,-30.2734375
-33.203125,-65.4296875,-46.38671875,-38.57421875
-60.546875,-75.1953125,-48.33984375,-48.828125
-71.2890625,-51.26953125,-51.26953125,-43.9453125
-57.12890625,-16.6015625,-52.24609375,-36.62109375
-38.0859375,-1.46484375,-46.38671875,-34.66796875
-34.1796875,-35.64453125,-48.33984375,-42.48046875
-44.921875,-73.73046875,-52.24609375,-49.8046875
-62.01171875,-66.40625,-51.26953125,-48.33984375
-55.17578125,-23.4375,-53.7109375,-44.43359375
-31.73828125,2.44140625,-47.8515625,-38.57421875
-30.76171875,-45.8984375,-36.62109375,-38.57421875
-43.45703125,-81.0546875,-38.57421875,-43.45703125
-55.6640625,-64.453125,-46.875,-54.19921875
-54.19921875,-40.0390625,-47.8515625,-50.78125
-40.0390625,-23.4375,-49.8046875,-48.33984375
-35.15625,-39.0625,-50.78125,-54.19921875
-47.8515625,-68.84765625,-48.33984375,-56.640625
-62.98828125,-80.078125,-47.8515625,-59.5703125
-61.5234375,-49.31640625,-51.26953125,-49.31640625
-46.875,-23.92578125,-48.33984375,-43.9453125
-37.109375,-31.73828125,-47.36328125,-48.33984375
-49.31640625,-55.17578125,-48.828125,-55.17578125
-65.4296875,-73.2421875,-47.8515625,-57.12890625
-62.98828125,-59.5703125,-52.24609375,-49.8046875
-44.43359375,-20.5078125,-53.7109375,-41.9921875
-26.3671875,-20.01953125,-50.78125,-41.015625
-36.62109375,-59.08203125,-53.22265625,-47.8515625
-59.08203125,-66.40625,-57.6171875,-50.78125
-54.19921875,-49.8046875,-52.734375,-42.96875
-29.78515625,-17.08984375,-49.31640625,-35.15625
-25.87890625,-21.97265625,-50.29296875,-42.96875
-42.48046875,-73.73046875,-52.24609375,-60.546875
-55.17578125,-78.61328125,-54.6875,-63.96484375
-47.36328125,-34.1796875,-53.22265625,-51.7578125
-32.71484375,-17.08984375,-46.875,-41.015625
-32.2265625,-28.80859375,-48.33984375,-43.9453125
-44.921875,-55.6640625,-53.7109375,-55.17578125
-67.3828125,-78.61328125,-55.6640625,-61.5234375
-72.265625,-44.921875,-52.734375,-55.6640625
-58.10546875,0.9765625,-49.8046875,-48.33984375
-51.26953125,-23.92578125,-49.8046875,-51.7578125
-50.29296875,-53.22265625,-44.921875,-58.10546875
-64.453125,-59.08203125,-44.43359375,-60.05859375
-73.2421875,-64.94140625,-50.29296875,-55.6640625
-62.98828125,-26.3671875,-54.19921875,-48.828125
-47.8515625,-2.9296875,-50.78125,-46.38671875
-41.9921875,-46.38671875,-44.43359375,-51.7578125
-50.78125,-93.75,-45.41015625,-54.6875
-56.15234375,-67.87109375,-49.8046875,-48.33984375
-46.875,-26.3671875,-47.36328125,-44.921875
-37.109375,-19.53125,-42.48046875,-51.7578125
-41.50390625,-38.57421875,-45.8984375,-61.03515625
-50.29296875,-72.75390625,-50.29296875,-67.3828125
-54.6875,-75.68359375,-49.8046875,-62.5
-43.45703125,-21.97265625,-48.33984375,-49.31640625
-31.25,-13.18359375,-45.41015625,-46.38671875
-40.52734375,-34.1796875,-46.875,-58.10546875
-50.78125,-52.734375,-46.875,-63.4765625
-55.6640625,-76.66015625,-47.8515625,-55.17578125
-51.7578125,-54.19921875,-52.24609375,-44.921875
-38.57421875,-28.3203125,-48.33984375,-40.0390625
-35.15625,-38.0859375,-44.43359375,-41.9921875
-49.31640625,-67.3828125,-48.33984375,-48.828125
-65.91796875,-78.61328125,-56.15234375,-46.875
-53.7109375,-38.0859375,-53.22265625,-35.15625
-29.296875,-11.23046875,-46.38671875,-31.25
-24.90234375,-34.66796875,-42.96875,-41.015625
-37.59765625,-74.70703125,-42.96875,-49.31640625
-58.10546875,-65.4296875,-45.8984375,-51.7578125
-58.59375,-24.4140625,-49.31640625,-44.43359375
-33.69140625,-20.99609375,-51.7578125,-34.66796875
-28.80859375,-29.296875,-49.31640625,-44.921875
-44.43359375,-59.5703125,-50.29296875,-59.5703125
-52.24609375,-85.9375,-52.734375,-54.6875
-50.78125,-53.22265625,-46.875,-45.8984375
-33.69140625,-20.99609375,-45.41015625,-40.0390625
-26.85546875,-24.4140625,-45.8984375,-42.96875
-41.50390625,-49.8046875,-46.38671875,-54.19921875
-58.59375,-66.89453125,-50.78125,-54.19921875
-60.546875,-55.6640625,-46.38671875,-44.43359375
-49.8046875,-21.97265625,-41.015625,-41.50390625
-44.43359375,-7.32421875,-45.8984375,-49.8046875
-49.8046875,-57.12890625,-48.828125,-56.640625
-63.96484375,-93.75,-42.96875,-52.24609375
-69.3359375,-66.40625,-43.45703125,-43.9453125
-55.17578125,-24.90234375,-47.36328125,-41.015625
-37.109375,-22.94921875,-44.43359375,-41.50390625
-36.62109375,-54.6875,-44.43359375,-50.29296875
-56.15234375,-91.796875,-46.38671875,-58.59375
-64.94140625,-80.078125,-45.41015625,-50.78125
-40.0390625,-34.1796875,-43.9453125,-27.34375
-29.78515625,-27.83203125,-40.52734375,-31.73828125
-48.33984375,-52.734375,-43.45703125,-59.5703125
-66.89453125,-62.98828125,-45.8984375,-66.89453125
-78.61328125,-83.49609375,-43.9453125,-60.05859375
-78.61328125,-62.01171875,-44.921875,-56.640625
-66.40625,-26.85546875,-44.921875,-57.6171875
-61.5234375,-43.45703125,-45.41015625,-61.03515625
-68.359375,-72.75390625,-43.9453125,-67.3828125
-74.21875,-72.265625,-45.41015625,-68.359375
-68.84765625,-37.59765625,-48.828125,-60.546875
-49.8046875,-22.4609375,-45.8984375,-62.5
-41.9921875,-35.64453125,-45.41015625,-67.87109375
-52.734375,-83.0078125,-45.41015625,-67.3828125
-59.5703125,-77.1484375,-41.50390625,-63.4765625
-60.546875,-22.4609375,-41.015625,-53.22265625
-53.7109375,-19.53125,-42.48046875,-42.48046875
-51.26953125,-46.38671875,-45.41015625,-44.43359375
-57.6171875,-63.96484375,-47.8515625,-49.8046875
-69.3359375,-78.125,-46.38671875,-49.31640625
-71.2890625,-62.98828125,-44.921875,-46.38671875
-48.828125,-20.01953125,-43.45703125,-39.0625
-35.64453125,-26.3671875,-42.96875,-37.59765625
-52.734375,-64.453125,-42.48046875,-50.29296875
-73.73046875,-75.68359375,-46.38671875,-55.17578125
-73.2421875,-54.19921875,-44.921875,-51.26953125
-57.6171875,-13.671875,-42.96875,-48.828125
-40.52734375,-4.8828125,-48.33984375,-46.875
-42.96875,-55.6640625,-50.29296875,-55.17578125
-59.08203125,-91.30859375,-48.33984375,-59.08203125
-60.546875,-59.08203125,-46.875,-52.24609375
-45.41015625,-17.08984375,-48.33984375,-46.38671875
-34.66796875,-15.13671875,-48.828125,-42.96875
-43.45703125,-52.24609375,-47.36328125,-45.8984375
-53.22265625,-71.77734375,-45.41015625,-48.828125
-56.15234375,-51.7578125,-47.8515625,-45.8984375
-38.57421875,-5.859375,-48.828125,-37.59765625
-25.87890625,-10.7421875,-48.33984375,-37.109375
-42.96875,-45.8984375,-48.828125,-46.38671875
-58.10546875,-53.7109375,-47.36328125,-53.22265625
-71.2890625,-81.0546875,-50.29296875,-53.22265625
-62.01171875,-42.96875,-48.828125,-44.921875
-33.203125,-9.765625,-39.55078125,-38.57421875
-35.15625,-63.4765625,-39.0625,-44.43359375
-55.17578125,-76.171875,-46.38671875,-52.734375
-62.01171875,-58.59375,-51.7578125,-50.78125
-46.38671875,-24.4140625,-46.875,-37.59765625
-29.78515625,-5.37109375,-43.45703125,-30.2734375
-28.80859375,-31.73828125,-43.45703125,-38.0859375
-45.41015625,-71.77734375,-40.52734375,-46.38671875
-63.96484375,-79.1015625,-43.45703125,-47.36328125
-58.10546875,-30.2734375,-44.921875,-40.0390625
-41.015625,-26.3671875,-41.015625,-40.52734375
-42.48046875,-58.59375,-43.45703125,-54.19921875
-51.7578125,-77.1484375,-46.875,-62.98828125
-67.87109375,-84.9609375,-49.8046875,-61.5234375
-64.453125,-45.8984375,-51.26953125,-51.7578125
-39.0625,-3.41796875,-46.875,-44.43359375
-40.52734375,-45.41015625,-45.41015625,-50.78125
-51.7578125,-84.9609375,-46.875,-58.59375
-62.01171875,-81.0546875,-51.26953125,-58.10546875
-64.453125,-55.17578125,-53.7109375,-48.33984375
-48.33984375,-3.90625,-49.8046875,-44.921875
-38.0859375,-15.13671875,-49.31640625,-51.26953125
-52.24609375,-81.0546875,-52.24609375,-56.15234375
-68.84765625,-88.8671875,-47.36328125,-57.12890625
-62.01171875,-48.33984375,-44.921875,-47.8515625
-37.109375,-16.6015625,-46.38671875,-34.66796875
-27.83203125,-21.484375,-44.43359375,-34.66796875
-39.55078125,-56.640625,-46.38671875,-44.43359375
-53.7109375,-79.58984375,-50.29296875,-48.828125
-59.5703125,-56.640625,-47.36328125,-45.41015625
-41.9921875,-15.13671875,-41.50390625,-38.57421875
-26.3671875,-33.203125,-49.8046875,-44.43359375
-36.62109375,-60.546875,-52.734375,-55.17578125
-48.828125,-63.96484375,-49.8046875,-60.05859375
-56.640625,-70.3125,-53.22265625,-58.10546875
-50.78125,-29.296875,-52.734375,-46.38671875
-40.52734375,-11.23046875,-46.875,-39.55078125
-51.7578125,-54.6875,-41.9921875,-47.36328125
-64.94140625,-71.77734375,-43.9453125,-51.7578125
-70.80078125,-67.87109375,-47.8515625,-49.8046875
-61.03515625,-31.73828125,-46.875,-46.875
-38.57421875,-11.23046875,-42.96875,-41.9921875
-42.96875,-52.734375,-44.43359375,-50.78125
-62.01171875,-86.42578125,-52.24609375,-60.05859375
-61.03515625,-66.40625,-49.8046875,-50.78125
-45.41015625,-8.7890625,-41.015625,-38.57421875
-32.2265625,-6.8359375,-39.0625,-39.0625
-34.1796875,-51.7578125,-41.015625,-45.8984375
-44.43359375,-78.125,-48.33984375,-52.734375
-61.5234375,-72.265625,-51.7578125,-51.7578125
-58.10546875,-26.85546875,-54.6875,-47.36328125
-40.52734375,-14.16015625,-56.640625,-46.38671875
-37.59765625,-43.9453125,-55.17578125,-49.8046875
-53.7109375,-73.73046875,-54.19921875,-58.10546875
-67.3828125,-73.73046875,-47.36328125,-50.78125
-61.03515625,-40.0390625,-45.8984375,-44.43359375
-41.015625,-23.4375,-48.33984375,-43.45703125
-36.62109375,-26.85546875,-46.38671875,-46.875
-54.6875,-76.171875,-47.36328125,-59.5703125
-66.89453125,-87.890625,-48.33984375,-56.640625
-67.87109375,-38.57421875,-50.29296875,-49.8046875
-49.8046875,-32.2265625,-53.22265625,-45.8984375
-26.3671875,-40.0390625,-50.29296875,-40.0390625
-41.50390625,-66.40625,-52.734375,-47.8515625
-61.5234375,-70.3125,-56.640625,-52.734375
-58.59375,-41.015625,-52.24609375,-45.8984375
-41.015625,-16.6015625,-49.8046875,-45.8984375
-36.1328125,-22.94921875,-49.31640625,-50.78125
-50.78125,-51.26953125,-43.45703125,-53.7109375
-62.5,-63.4765625,-42.96875,-54.6875
-66.89453125,-48.33984375,-49.8046875,-49.8046875
-55.17578125,-28.80859375,-51.26953125,-44.43359375
-41.9921875,-24.90234375,-48.828125,-46.875
-40.52734375,-58.59375,-50.78125,-52.734375
-52.734375,-75.1953125,-56.640625,-57.6171875
-56.15234375,-54.6875,-57.12890625,-44.43359375
-39.0625,-34.1796875,-51.26953125,-32.71484375
-26.85546875,-18.06640625,-48.33984375,-35.64453125
-32.71484375,-53.7109375,-50.29296875,-41.9921875
-41.9921875,-82.51953125,-50.29296875,-44.43359375
-43.9453125,-65.4296875,-46.875,-39.55078125
-33.69140625,-15.625,-46.38671875,-39.55078125
-23.92578125,-20.99609375,-45.8984375,-43.45703125
-33.203125,-59.5703125,-47.8515625,-50.29296875
-49.8046875,-67.3828125,-49.8046875,-57.12890625
-58.59375,-65.91796875,-50.29296875,-52.734375
-50.78125,-37.109375,-48.828125,-44.921875
-34.66796875,-16.6015625,-43.45703125,-43.45703125
-36.1328125,-50.78125,-40.0390625,-50.78125
-55.6640625,-70.80078125,-44.921875,-58.10546875
-66.40625,-64.94140625,-43.45703125,-52.24609375
-59.5703125,-51.26953125,-42.48046875,-41.9921875
-40.52734375,-22.94921875,-41.9921875,-34.1796875
-33.203125,-24.90234375,-38.57421875,-33.203125
-51.7578125,-80.56640625,-41.015625,-41.9921875
-64.453125,-94.7265625,-46.875,-42.96875
-46.38671875,-41.015625,-44.921875,-33.203125
-27.34375,-19.04296875,-41.9921875,-32.2265625
-27.83203125,-20.99609375,-39.55078125,-35.15625
-40.52734375,-47.8515625,-36.62109375,-46.38671875
-48.33984375,-81.54296875,-39.55078125,-49.8046875
-48.33984375,-49.31640625,-41.9921875,-41.015625
-40.0390625,-20.5078125,-42.96875,-42.96875
-30.76171875,-34.66796875,-48.828125,-48.828125
-36.1328125,-63.96484375,-49.31640625,-52.734375
-56.15234375,-56.640625,-45.8984375,-53.7109375
-62.98828125,-40.52734375,-48.33984375,-51.26953125
-45.41015625,-26.3671875,-51.7578125,-46.38671875
-37.109375,-28.80859375,-51.26953125,-49.8046875
-46.38671875,-56.15234375,-48.828125,-56.15234375
-63.4765625,-69.3359375,-47.8515625,-54.6875
-59.08203125,-50.78125,-46.875,-46.875
-33.69140625,-7.8125,-42.96875,-40.0390625
-20.5078125,-14.6484375,-46.875,-38.57421875
-33.69140625,-52.24609375,-46.38671875,-47.8515625
-49.31640625,-70.3125,-42.48046875,-53.7109375
-47.36328125,-44.43359375,-43.45703125,-43.9453125
-39.0625,2.44140625,-42.48046875,-39.55078125
-30.2734375,-24.90234375,-44.921875,-43.45703125
-36.1328125,-59.5703125,-53.7109375,-47.36328125
-48.33984375,-66.89453125,-53.22265625,-54.19921875
-56.15234375,-80.56640625,-49.8046875,-54.6875
-43.9453125,-25.390625,-51.7578125,-46.875
-24.4140625,-7.8125,-49.8046875,-44.921875
-32.2265625,-59.08203125,-47.36328125,-51.7578125
-49.8046875,-70.80078125,-45.41015625,-51.7578125
-53.22265625,-62.5,-47.8515625,-47.36328125
-51.7578125,-27.83203125,-50.29296875,-48.828125
-34.1796875,-3.41796875,-47.8515625,-45.8984375
-32.71484375,-41.50390625,-46.38671875,-49.31640625
-49.8046875,-81.54296875,-46.875,-58.59375
-57.6171875,-74.70703125,-47.8515625,-54.6875
-50.78125,-42.96875,-47.36328125,-48.33984375
-36.1328125,-29.78515625,-46.875,-44.43359375
-41.9921875,-37.109375,-45.8984375,-50.78125
-60.546875,-68.84765625,-49.31640625,-60.546875
-52.24609375,-81.0546875,-56.640625,-44.43359375
-29.296875,-40.0390625,-43.9453125,-25.390625
-31.73828125,-18.5546875,-34.66796875,-44.921875
-44.43359375,-41.9921875,-36.62109375,-62.5
-65.4296875,-73.73046875,-33.69140625,-68.359375
-93.75,-74.21875,-34.66796875,-79.1015625
-88.37890625,-73.73046875,-32.71484375,-74.21875
-68.359375,-57.6171875,-28.80859375,-62.98828125
-75.1953125,-54.6875,-24.90234375,-69.82421875
-95.21484375,-96.19140625,-21.484375,-85.44921875
-113.76953125,-98.14453125,-20.99609375,-87.40234375
-124.51171875,-73.73046875,-18.06640625,-82.03125
-109.86328125,-62.01171875,-15.13671875,-81.0546875
-97.65625,-59.08203125,-12.6953125,-88.37890625
-122.0703125,-87.40234375,-13.671875,-108.88671875
