TP9,AF7,AF8,TP10
-60.546875,-71.77734375,-36.1328125,-43.45703125
-48.33984375,-21.97265625,-41.9921875,-40.0390625
-19.53125,-3.41796875,-47.36328125,-33.69140625
-7.8125,-34.1796875,-46.875,-35.15625
-30.76171875,-71.2890625,-45.41015625,-44.921875
-62.5,-55.17578125,-45.8984375,-53.7109375
-59.5703125,-27.83203125,-43.45703125,-50.78125
-32.71484375,-11.23046875,-41.50390625,-48.828125
-33.203125,-33.203125,-41.015625,-50.78125
-57.6171875,-89.84375,-38.0859375,-57.6171875
-78.61328125,-91.796875,-38.57421875,-59.08203125
-69.82421875,-39.55078125,-43.45703125,-49.8046875
-39.55078125,-6.8359375,-47.8515625,-44.43359375
-31.25,-22.4609375,-52.734375,-47.8515625
-47.36328125,-63.96484375,-53.22265625,-49.31640625
-65.91796875,-76.171875,-50.29296875,-43.9453125
-66.89453125,-42.96875,-52.24609375,-39.55078125
-37.109375,-2.44140625,-54.19921875,-32.2265625
-20.01953125,-12.20703125,-49.8046875,-34.66796875
-41.50390625,-82.03125,-45.41015625,-44.43359375
-63.96484375,-101.07421875,-45.8984375,-46.38671875
-58.59375,-51.7578125,-40.0390625,-39.55078125
-29.78515625,1.46484375,-37.109375,-31.25
-16.11328125,-7.32421875,-47.36328125,-31.25
-38.57421875,-77.63671875,-48.33984375,-41.015625
-66.89453125,-102.5390625,-43.9453125,-49.31640625
-72.75390625,-67.87109375,-43.45703125,-46.38671875
-48.33984375,-17.578125,-43.45703125,-39.55078125
-30.76171875,-17.08984375,-43.45703125,-38.0859375
-44.921875,-56.640625,-46.38671875,-45.8984375
-64.453125,-98.6328125,-46.38671875,-59.5703125
-75.1953125,-89.84375,-39.55078125,-59.5703125
-60.546875,-14.16015625,-38.57421875,-57.12890625
-35.15625,-9.27734375,-45.8984375,-58.59375
-38.0859375,-65.91796875,-51.7578125,-60.05859375
-64.453125,-92.7734375,-53.7109375,-66.89453125
-76.171875,-71.77734375,-58.59375,-58.59375
-53.7109375,-17.08984375,-60.546875,-44.921875
-24.4140625,1.953125,-58.10546875,-39.55078125
-33.69140625,-56.15234375,-54.19921875,-43.45703125
-63.4765625,-89.35546875,-48.828125,-51.7578125
-76.66015625,-57.6171875,-49.31640625,-48.33984375
-65.4296875,-31.73828125,-51.7578125,-44.43359375
-43.9453125,-30.2734375,-48.828125,-50.78125
-43.45703125,-45.41015625,-48.33984375,-58.59375
-65.91796875,-89.35546875,-50.29296875,-64.94140625
-83.0078125,-89.84375,-55.17578125,-62.5
-67.87109375,-38.57421875,-50.29296875,-56.15234375
-37.109375,-11.23046875,-38.0859375,-43.45703125
-34.1796875,-38.57421875,-33.203125,-40.52734375
-51.26953125,-80.078125,-35.15625,-44.43359375
-71.2890625,-81.54296875,-36.62109375,-42.96875
-67.3828125,-38.0859375,-44.43359375,-39.55078125
-34.66796875,2.9296875,-46.38671875,-36.1328125
-26.85546875,-25.87890625,-43.45703125,-46.875
-53.7109375,-98.6328125,-52.24609375,-60.546875
-73.73046875,-109.375,-54.19921875,-58.10546875
-63.4765625,-56.15234375,-54.19921875,-50.29296875
-37.59765625,-14.16015625,-53.22265625,-41.015625
-18.5546875,-18.06640625,-44.921875,-34.1796875
-32.71484375,-68.359375,-42.48046875,-45.41015625
-60.546875,-89.35546875,-44.921875,-52.734375
-58.59375,-42.48046875,-48.828125,-45.8984375
-31.73828125,-16.11328125,-51.7578125,-33.69140625
-16.11328125,-17.578125,-51.26953125,-31.73828125
-32.2265625,-45.8984375,-51.26953125,-48.828125
-63.4765625,-98.14453125,-55.17578125,-61.03515625
-68.84765625,-61.5234375,-49.8046875,-51.7578125
-42.96875,-4.8828125,-40.0390625,-41.015625
-30.2734375,-25.87890625,-42.48046875,-45.41015625
-46.875,-61.03515625,-45.41015625,-54.6875
-72.75390625,-84.47265625,-45.41015625,-56.15234375
-79.1015625,-71.2890625,-51.7578125,-50.78125
-53.7109375,-21.484375,-52.734375,-44.921875
-25.87890625,-7.32421875,-50.29296875,-39.55078125
-29.78515625,-53.22265625,-55.17578125,-42.48046875
-54.19921875,-73.2421875,-54.19921875,-50.29296875
-67.87109375,-48.828125,-51.7578125,-48.33984375
-47.8515625,-19.04296875,-49.31640625,-42.48046875
-21.484375,-12.20703125,-50.29296875,-43.45703125
-26.3671875,-55.6640625,-50.29296875,-49.8046875
-56.15234375,-84.47265625,-49.8046875,-58.59375
-80.078125,-67.87109375,-54.6875,-63.96484375
-63.4765625,-27.83203125,-54.6875,-56.15234375
-36.1328125,-15.625,-53.7109375,-47.8515625
-46.875,-54.19921875,-51.26953125,-59.08203125
-75.68359375,-82.51953125,-52.24609375,-71.77734375
-88.8671875,-77.1484375,-56.640625,-65.4296875
-65.4296875,-16.11328125,-49.31640625,-56.640625
-33.69140625,26.3671875,-40.0390625,-45.41015625
-31.73828125,-38.0859375,-40.0390625,-50.78125
-53.7109375,-92.28515625,-43.9453125,-65.4296875
-71.77734375,-83.0078125,-41.9921875,-59.5703125
-63.96484375,-29.296875,-43.45703125,-44.921875
-33.69140625,-2.9296875,-41.9921875,-37.109375
-23.92578125,-20.01953125,-41.015625,-44.43359375
-46.875,-61.5234375,-44.921875,-52.24609375
-70.3125,-80.56640625,-45.41015625,-50.29296875
-59.08203125,-28.3203125,-50.78125,-44.921875
-23.92578125,-14.16015625,-53.22265625,-37.109375
-10.25390625,-32.2265625,-53.22265625,-36.1328125
-33.69140625,-56.640625,-49.8046875,-44.921875
-60.05859375,-85.44921875,-40.0390625,-52.24609375
-62.01171875,-57.6171875,-42.48046875,-48.828125
-36.62109375,-6.8359375,-45.41015625,-41.50390625
-20.99609375,-20.01953125,-45.41015625,-43.45703125
-43.45703125,-70.80078125,-44.43359375,-56.15234375
-70.3125,-82.51953125,-43.9453125,-62.01171875
-71.2890625,-37.59765625,-48.33984375,-55.6640625
-42.96875,-6.8359375,-51.7578125,-53.22265625
-19.04296875,-14.16015625,-57.12890625,-56.15234375
-30.2734375,-52.734375,-53.22265625,-60.546875
-51.26953125,-77.1484375,-47.8515625,-60.05859375
-54.19921875,-38.57421875,-56.640625,-60.05859375
-33.203125,-5.859375,-50.78125,-47.36328125
-19.53125,-28.3203125,-44.921875,-42.96875
-34.66796875,-60.546875,-49.8046875,-54.6875
-61.5234375,-82.03125,-47.36328125,-53.7109375
-73.73046875,-61.03515625,-49.8046875,-48.33984375
-49.8046875,-8.7890625,-53.7109375,-45.41015625
-25.390625,-8.30078125,-47.8515625,-41.50390625
-30.76171875,-48.828125,-48.828125,-42.48046875
-56.640625,-81.54296875,-50.78125,-47.36328125
-67.3828125,-72.75390625,-45.8984375,-42.96875
-44.921875,-19.53125,-44.43359375,-31.73828125
-18.5546875,9.27734375,-38.57421875,-23.92578125
-25.390625,-49.8046875,-33.69140625,-30.2734375
-51.26953125,-89.35546875,-38.0859375,-41.9921875
-61.5234375,-63.4765625,-45.41015625,-42.48046875
-48.828125,-25.87890625,-47.36328125,-39.0625
-20.01953125,-7.32421875,-47.36328125,-36.1328125
-16.11328125,-37.59765625,-47.8515625,-42.96875
-47.8515625,-80.078125,-40.0390625,-57.12890625
-79.1015625,-78.125,-37.59765625,-62.98828125
-73.2421875,-25.390625,-38.57421875,-56.640625
-44.921875,-5.37109375,-38.0859375,-54.19921875
-37.109375,-29.296875,-40.0390625,-61.5234375
-53.7109375,-58.59375,-42.48046875,-64.94140625
-77.1484375,-87.40234375,-54.19921875,-66.40625
-72.265625,-53.7109375,-58.10546875,-58.10546875
-41.015625,-2.44140625,-53.22265625,-49.8046875
-33.69140625,-30.2734375,-49.31640625,-57.12890625
-54.6875,-74.70703125,-45.41015625,-62.01171875
-73.2421875,-86.42578125,-50.29296875,-59.5703125
-70.3125,-48.828125,-55.17578125,-50.29296875
-41.9921875,-13.671875,-48.33984375,-29.78515625
-28.80859375,-25.390625,-47.8515625,-36.62109375
-44.43359375,-68.359375,-46.875,-53.7109375
-65.91796875,-85.9375,-44.921875,-49.31640625
-66.89453125,-26.85546875,-47.8515625,-44.43359375
-39.0625,-5.859375,-49.31640625,-41.50390625
-24.4140625,-40.0390625,-50.29296875,-47.36328125
-39.0625,-69.3359375,-51.26953125,-56.15234375
-60.05859375,-86.9140625,-51.26953125,-59.5703125
-68.359375,-62.01171875,-52.734375,-53.22265625
-42.48046875,-10.25390625,-53.22265625,-43.45703125
-19.04296875,-17.578125,-52.24609375,-44.921875
-34.1796875,-62.5,-48.33984375,-49.8046875
-61.5234375,-76.171875,-49.8046875,-51.7578125
-75.68359375,-69.82421875,-53.22265625,-49.31640625
-55.6640625,-17.578125,-48.33984375,-43.45703125
-28.3203125,3.41796875,-44.921875,-39.0625
-31.73828125,-56.640625,-39.0625,-37.59765625
-60.05859375,-92.7734375,-41.50390625,-46.38671875
-73.73046875,-66.40625,-52.24609375,-53.7109375
-47.8515625,-18.06640625,-52.734375,-43.9453125
-21.484375,-1.46484375,-48.828125,-39.0625
-33.69140625,-49.31640625,-52.24609375,-53.7109375
-68.359375,-81.54296875,-60.05859375,-65.4296875
-87.40234375,-73.73046875,-55.6640625,-60.546875
-73.2421875,-34.1796875,-49.31640625,-49.31640625
-41.015625,-11.71875,-50.78125,-48.33984375
-32.71484375,-32.71484375,-43.9453125,-61.5234375
-58.59375,-61.5234375,-45.8984375,-70.3125
-79.58984375,-76.171875,-52.24609375,-64.453125
-61.5234375,-39.0625,-51.26953125,-55.6640625
-34.66796875,-15.625,-54.19921875,-52.24609375
-34.1796875,-38.57421875,-48.33984375,-55.17578125
-54.6875,-77.1484375,-39.0625,-57.6171875
-73.2421875,-77.1484375,-38.57421875,-54.6875
-65.91796875,-26.3671875,-40.0390625,-47.36328125
-37.109375,-11.71875,-37.59765625,-35.64453125
-26.3671875,-31.73828125,-41.015625,-41.50390625
-45.8984375,-65.4296875,-48.33984375,-47.36328125
-64.453125,-67.3828125,-43.45703125,-41.9921875
-60.546875,-15.625,-43.9453125,-39.0625
-30.76171875,-3.90625,-41.9921875,-29.296875
-20.01953125,-34.1796875,-45.41015625,-29.78515625
-40.0390625,-58.10546875,-51.7578125,-40.52734375
-63.4765625,-79.58984375,-43.9453125,-47.8515625
-66.89453125,-45.8984375,-42.48046875,-43.45703125
-40.0390625,-6.34765625,-44.921875,-36.1328125
-23.92578125,-25.390625,-42.48046875,-40.52734375
-41.9921875,-65.4296875,-45.8984375,-55.17578125
-67.3828125,-77.63671875,-48.33984375,-62.98828125
-70.3125,-54.19921875,-49.31640625,-53.22265625
-40.52734375,-7.8125,-50.29296875,-45.41015625
-15.13671875,3.41796875,-45.41015625,-45.41015625
-33.69140625,-63.96484375,-44.921875,-54.6875
-66.89453125,-99.12109375,-48.33984375,-64.453125
-68.84765625,-61.03515625,-46.875,-54.19921875
-43.45703125,-14.16015625,-42.48046875,-40.52734375
-25.87890625,-9.27734375,-41.50390625,-40.52734375
-33.203125,-43.9453125,-42.48046875,-46.875
-58.10546875,-92.28515625,-46.38671875,-49.31640625
-70.80078125,-76.66015625,-45.8984375,-47.36328125
-49.8046875,-20.01953125,-41.015625,-43.9453125
-26.85546875,-6.34765625,-46.38671875,-42.96875
-34.66796875,-42.48046875,-51.7578125,-48.828125
-61.03515625,-75.1953125,-41.015625,-56.640625
-80.56640625,-86.42578125,-40.0390625,-62.01171875
-61.03515625,-56.15234375,-46.875,-60.546875
-30.76171875,-24.90234375,-46.38671875,-53.7109375
-30.76171875,-44.43359375,-45.41015625,-56.640625
-55.6640625,-75.68359375,-43.45703125,-68.84765625
-74.21875,-78.61328125,-41.9921875,-68.84765625
-62.98828125,-24.4140625,-44.921875,-56.15234375
-40.52734375,1.46484375,-49.31640625,-50.29296875
-37.109375,-32.71484375,-45.41015625,-51.26953125
-62.98828125,-91.796875,-43.45703125,-62.98828125
-83.49609375,-90.33203125,-45.8984375,-68.84765625
-62.01171875,-18.5546875,-45.41015625,-52.24609375
-27.34375,-15.625,-53.7109375,-47.8515625
-28.80859375,-58.10546875,-60.546875,-56.15234375
-55.6640625,-79.1015625,-54.6875,-60.546875
-78.125,-79.58984375,-53.7109375,-62.01171875
-71.2890625,-33.203125,-53.22265625,-49.31640625
-41.015625,-5.37109375,-52.734375,-41.50390625
-29.296875,-21.97265625,-49.8046875,-46.38671875
-47.8515625,-63.4765625,-46.38671875,-56.15234375
-71.2890625,-83.49609375,-46.38671875,-60.05859375
-65.91796875,-41.9921875,-45.41015625,-48.33984375
-36.1328125,-9.27734375,-48.33984375,-37.109375
-17.578125,-0.48828125,-45.8984375,-37.109375
-43.45703125,-58.10546875,-49.31640625,-49.8046875
-75.1953125,-104.00390625,-58.59375,-56.15234375
-71.2890625,-60.546875,-56.15234375,-48.33984375
-44.43359375,-13.18359375,-56.640625,-41.50390625
-24.90234375,-13.671875,-52.734375,-39.55078125
-37.109375,-64.453125,-44.43359375,-45.8984375
-62.98828125,-86.9140625,-45.41015625,-49.8046875
-78.61328125,-62.98828125,-55.17578125,-47.8515625
-55.17578125,-11.23046875,-55.17578125,-41.50390625
-31.25,-9.27734375,-49.8046875,-39.0625
-45.41015625,-63.96484375,-52.24609375,-45.8984375
-70.80078125,-65.4296875,-54.19921875,-51.26953125
-80.078125,-59.5703125,-54.6875,-50.29296875
-49.31640625,-16.11328125,-53.7109375,-39.55078125
-19.04296875,2.9296875,-49.31640625,-29.78515625
-35.15625,-64.453125,-52.24609375,-38.0859375
-66.40625,-95.703125,-57.6171875,-54.6875
-72.75390625,-74.21875,-51.26953125,-51.26953125
-47.36328125,-19.53125,-46.38671875,-35.15625
-23.92578125,-7.32421875,-47.8515625,-36.1328125
-26.3671875,-53.22265625,-43.45703125,-48.828125
-51.26953125,-81.54296875,-39.0625,-52.734375
-67.87109375,-66.40625,-37.109375,-48.33984375
-50.29296875,-6.8359375,-39.0625,-41.9921875
-26.3671875,-6.8359375,-47.36328125,-41.015625
-27.34375,-61.5234375,-42.96875,-43.9453125
-50.78125,-87.40234375,-41.9921875,-48.828125
-70.80078125,-82.03125,-48.33984375,-52.24609375
-60.546875,-32.71484375,-43.45703125,-45.41015625
-34.66796875,1.953125,-46.38671875,-43.45703125
-34.1796875,-44.43359375,-53.7109375,-55.6640625
-55.17578125,-91.796875,-52.24609375,-65.91796875
-75.68359375,-81.54296875,-44.43359375,-59.5703125
-68.84765625,-27.34375,-38.57421875,-53.22265625
-39.0625,5.859375,-41.015625,-51.26953125
-28.80859375,-7.32421875,-42.48046875,-45.8984375
-43.45703125,-77.63671875,-47.36328125,-48.33984375
-70.3125,-105.46875,-52.734375,-54.19921875
-69.82421875,-47.36328125,-47.36328125,-48.33984375
-34.66796875,-8.7890625,-37.109375,-36.1328125
-21.97265625,-27.34375,-37.109375,-38.0859375
-45.8984375,-81.0546875,-42.96875,-51.26953125
-65.91796875,-91.30859375,-44.43359375,-48.33984375
-64.94140625,-33.69140625,-42.96875,-44.921875
-38.57421875,2.44140625,-42.48046875,-41.50390625
-17.578125,-22.4609375,-46.38671875,-34.66796875
-36.62109375,-61.5234375,-50.29296875,-44.43359375
-57.12890625,-69.82421875,-47.36328125,-46.875
-57.6171875,-48.828125,-41.9921875,-36.62109375
-36.1328125,-18.5546875,-43.9453125,-32.71484375
-17.08984375,-13.671875,-48.33984375,-36.1328125
-25.390625,-58.59375,-45.8984375,-40.52734375
-51.7578125,-84.47265625,-47.36328125,-49.31640625
-62.98828125,-56.15234375,-55.6640625,-53.22265625
-35.15625,-11.23046875,-52.24609375,-47.36328125
-14.16015625,-1.46484375,-46.38671875,-45.41015625
-29.296875,-56.640625,-49.31640625,-58.59375
-56.640625,-94.7265625,-55.6640625,-68.84765625
-74.70703125,-63.4765625,-55.17578125,-60.546875
-55.6640625,-0.48828125,-48.828125,-56.15234375
-29.78515625,-7.32421875,-44.921875,-58.10546875
-35.64453125,-74.70703125,-45.8984375,-58.59375
-63.96484375,-105.95703125,-48.33984375,-65.4296875
-85.44921875,-82.03125,-47.36328125,-63.4765625
-65.91796875,-26.3671875,-44.921875,-47.8515625
-31.25,-5.37109375,-43.9453125,-35.64453125
-29.78515625,-45.41015625,-43.9453125,-39.55078125
-54.19921875,-82.51953125,-47.8515625,-47.8515625
-68.84765625,-73.73046875,-56.15234375,-44.921875
-51.26953125,-19.04296875,-55.17578125,-38.0859375
-23.92578125,5.37109375,-46.875,-37.109375
-20.5078125,-25.87890625,-45.8984375,-41.50390625
-36.1328125,-87.40234375,-48.33984375,-43.45703125
-57.12890625,-86.42578125,-48.33984375,-48.828125
-59.08203125,-29.296875,-47.8515625,-53.7109375
-40.0390625,-15.13671875,-45.41015625,-49.31640625
-28.3203125,-42.96875,-42.48046875,-53.22265625
-56.640625,-79.58984375,-53.22265625,-70.3125
-85.44921875,-84.47265625,-61.03515625,-79.58984375
-64.453125,-32.71484375,-49.8046875,-60.546875
-29.78515625,7.8125,-44.43359375,-44.921875
-20.5078125,-10.25390625,-38.0859375,-45.41015625
-42.96875,-55.6640625,-33.69140625,-56.640625
-74.70703125,-73.73046875,-39.55078125,-66.40625
-75.68359375,-40.52734375,-47.8515625,-58.10546875
-48.33984375,-17.578125,-53.22265625,-47.8515625
-33.203125,-21.97265625,-48.33984375,-40.52734375
-52.24609375,-74.70703125,-47.36328125,-52.24609375
-76.171875,-90.8203125,-49.8046875,-64.453125
-69.3359375,-44.921875,-45.41015625,-49.31640625
-41.50390625,-12.20703125,-39.55078125,-36.62109375
-26.3671875,-16.6015625,-41.50390625,-41.50390625
-43.45703125,-60.546875,-43.9453125,-50.29296875
-74.70703125,-92.28515625,-42.96875,-55.6640625
-78.125,-55.17578125,-41.50390625,-52.734375
-48.828125,1.953125,-39.0625,-41.015625
-33.69140625,-24.4140625,-47.8515625,-41.50390625
-43.45703125,-73.73046875,-48.33984375,-55.6640625
-67.3828125,-82.51953125,-41.50390625,-61.03515625
-82.51953125,-62.98828125,-42.48046875,-59.08203125
-62.01171875,-23.92578125,-42.96875,-49.31640625
-36.1328125,-10.7421875,-46.38671875,-43.45703125
-41.50390625,-45.41015625,-51.26953125,-51.26953125
-67.87109375,-80.56640625,-54.6875,-58.59375
-77.1484375,-64.94140625,-62.5,-56.640625
-54.19921875,-29.78515625,-59.08203125,-51.26953125
-31.73828125,-15.13671875,-47.36328125,-46.875
-31.73828125,-29.78515625,-42.48046875,-51.26953125
-59.5703125,-91.796875,-46.38671875,-60.546875
-76.171875,-105.95703125,-48.33984375,-56.640625
-59.08203125,-32.2265625,-44.921875,-46.38671875
-33.69140625,-2.9296875,-43.9453125,-38.57421875
-31.25,-48.828125,-46.38671875,-41.9921875
-57.6171875,-84.47265625,-52.24609375,-53.22265625
-77.63671875,-73.73046875,-54.6875,-51.26953125
-63.4765625,-32.71484375,-49.8046875,-44.43359375
-32.71484375,-5.37109375,-47.36328125,-34.66796875
-29.78515625,-30.2734375,-47.36328125,-39.0625
-46.875,-68.359375,-50.78125,-56.15234375
-59.5703125,-63.4765625,-53.22265625,-52.24609375
-52.734375,-30.76171875,-50.29296875,-44.921875
-28.80859375,-24.4140625,-47.36328125,-46.875
-22.94921875,-39.0625,-45.41015625,-51.7578125
-42.48046875,-70.3125,-51.7578125,-57.12890625
-66.89453125,-85.9375,-62.01171875,-55.6640625
-61.5234375,-28.80859375,-55.17578125,-42.48046875
-29.296875,3.90625,-40.0390625,-29.78515625
-19.53125,-23.4375,-39.55078125,-36.1328125
-42.48046875,-73.2421875,-46.875,-48.828125
-72.75390625,-96.6796875,-51.26953125,-57.12890625
-70.80078125,-51.26953125,-50.29296875,-58.59375
-39.0625,10.25390625,-46.38671875,-48.33984375
-22.94921875,-19.04296875,-44.43359375,-42.48046875
-41.9921875,-78.61328125,-49.8046875,-52.734375
-68.84765625,-74.70703125,-50.29296875,-55.17578125
-76.171875,-57.12890625,-44.921875,-48.828125
-51.7578125,-18.06640625,-43.9453125,-40.0390625
-30.76171875,-14.6484375,-49.8046875,-35.64453125
-43.9453125,-66.89453125,-50.29296875,-46.875
-63.96484375,-89.84375,-50.78125,-56.640625
-63.96484375,-62.01171875,-50.29296875,-47.8515625
-34.1796875,-12.6953125,-39.55078125,-32.2265625
-2.9296875,-5.37109375,-38.0859375,-20.99609375
-13.671875,-41.9921875,-45.41015625,-24.4140625
-44.921875,-84.9609375,-51.26953125,-41.015625
-56.15234375,-76.66015625,-58.10546875,-43.45703125
-35.64453125,-14.6484375,-43.9453125,-34.66796875
-9.765625,-8.30078125,-32.71484375,-32.71484375
-15.13671875,-46.38671875,-38.57421875,-41.50390625
-43.9453125,-72.75390625,-38.57421875,-52.24609375
-63.4765625,-83.0078125,-44.921875,-49.8046875
-46.38671875,-32.71484375,-48.33984375,-44.43359375
-21.484375,-3.90625,-46.38671875,-44.921875
-23.92578125,-44.43359375,-44.43359375,-48.33984375
-48.33984375,-72.75390625,-50.29296875,-57.12890625
-63.96484375,-57.6171875,-59.08203125,-57.6171875
-51.7578125,-24.4140625,-54.19921875,-50.29296875
-26.85546875,-9.27734375,-43.9453125,-39.0625
-20.01953125,-39.55078125,-46.38671875,-40.52734375
-46.38671875,-73.73046875,-53.22265625,-60.05859375
-72.265625,-66.40625,-51.7578125,-61.5234375
-66.89453125,-24.90234375,-52.24609375,-53.22265625
-40.0390625,-4.39453125,-51.26953125,-52.734375
-33.203125,-25.87890625,-47.36328125,-58.10546875
-53.7109375,-63.96484375,-42.96875,-61.5234375
-71.77734375,-84.9609375,-45.8984375,-60.546875
-64.94140625,-40.0390625,-57.12890625,-56.640625
-37.59765625,4.8828125,-53.22265625,-46.875
-28.80859375,-38.57421875,-47.8515625,-46.875
-43.9453125,-78.61328125,-49.31640625,-55.6640625
-63.96484375,-82.03125,-45.8984375,-56.640625
-66.40625,-35.64453125,-43.45703125,-47.36328125
-42.48046875,-3.90625,-41.50390625,-34.66796875
-26.3671875,-25.390625,-42.48046875,-33.203125
-41.015625,-69.82421875,-50.29296875,-45.8984375
-68.359375,-93.75,-49.8046875,-53.22265625
-68.359375,-51.7578125,-44.921875,-43.9453125
-32.71484375,-5.859375,-40.52734375,-29.296875
-21.484375,-20.01953125,-35.64453125,-28.3203125
-40.52734375,-51.26953125,-39.0625,-37.59765625
-68.84765625,-80.56640625,-46.38671875,-50.29296875
-78.125,-83.0078125,-49.8046875,-44.921875
-54.19921875,-33.69140625,-50.29296875,-36.62109375
-40.52734375,-16.11328125,-51.26953125,-43.45703125
-48.33984375,-60.05859375,-52.734375,-47.36328125
-66.89453125,-83.984375,-50.29296875,-46.38671875
-77.63671875,-54.6875,-49.8046875,-45.8984375
-57.6171875,-14.6484375,-48.828125,-41.50390625
-35.64453125,-3.41796875,-47.36328125,-43.45703125
-39.55078125,-46.38671875,-47.8515625,-59.08203125
-64.453125,-74.21875,-46.38671875,-63.96484375
-82.51953125,-47.8515625,-48.33984375,-62.01171875
-63.96484375,-27.34375,-52.734375,-58.59375
-33.69140625,-20.99609375,-51.7578125,-47.36328125
-33.203125,-37.109375,-50.78125,-44.921875
-58.59375,-86.42578125,-52.734375,-55.17578125
-79.1015625,-83.0078125,-48.33984375,-58.10546875
-67.3828125,-25.390625,-42.96875,-53.7109375
-37.109375,-4.39453125,-39.55078125,-46.38671875
-31.73828125,-41.50390625,-41.015625,-48.828125
-56.15234375,-93.26171875,-45.41015625,-58.59375
-72.75390625,-88.8671875,-48.828125,-58.10546875
-57.12890625,-35.15625,-52.24609375,-46.38671875
-20.01953125,5.859375,-44.921875,-34.1796875
-15.13671875,-34.66796875,-40.0390625,-34.66796875
-44.43359375,-92.28515625,-42.96875,-41.50390625
-71.77734375,-93.26171875,-38.0859375,-47.8515625
-68.359375,-46.875,-34.66796875,-45.41015625
-41.9921875,-1.953125,-38.0859375,-40.0390625
-31.73828125,-17.578125,-37.59765625,-48.33984375
-52.24609375,-75.68359375,-42.96875,-57.6171875
-82.51953125,-89.84375,-48.33984375,-59.5703125
-77.1484375,-43.45703125,-46.875,-50.78125
-41.9921875,-7.32421875,-49.8046875,-37.109375
-25.390625,-26.85546875,-52.24609375,-39.55078125
-34.66796875,-63.96484375,-48.828125,-47.36328125
-54.19921875,-88.8671875,-38.0859375,-46.875
-57.12890625,-55.17578125,-34.1796875,-42.48046875
-27.34375,-4.8828125,-39.55078125,-37.59765625
-7.8125,-17.08984375,-39.0625,-34.66796875
-28.3203125,-58.10546875,-37.109375,-46.38671875
-62.01171875,-80.078125,-41.9921875,-60.05859375
-66.89453125,-50.78125,-46.38671875,-50.78125
-43.9453125,5.37109375,-46.38671875,-43.9453125
-25.87890625,-0.48828125,-53.22265625,-47.36328125
-33.203125,-67.87109375,-58.10546875,-50.78125
-60.546875,-79.58984375,-46.875,-61.03515625
-63.4765625,-36.1328125,-38.57421875,-51.7578125
-34.66796875,-13.18359375,-44.921875,-42.48046875
-20.01953125,-16.11328125,-48.33984375,-47.36328125
-26.85546875,-48.33984375,-51.26953125,-46.38671875
-54.19921875,-82.03125,-56.15234375,-47.8515625
-73.2421875,-66.89453125,-57.12890625,-41.9921875
-55.6640625,-14.6484375,-57.6171875,-30.2734375
-35.15625,-7.32421875,-52.734375,-31.25
-38.0859375,-63.4765625,-51.7578125,-41.9921875
-59.5703125,-94.23828125,-47.8515625,-48.828125
-76.171875,-74.70703125,-42.48046875,-52.24609375
-61.03515625,-16.11328125,-50.29296875,-49.31640625
-31.25,8.30078125,-52.734375,-46.38671875
-30.76171875,-33.69140625,-48.33984375,-58.59375
-57.12890625,-87.40234375,-47.8515625,-67.3828125
-79.58984375,-101.07421875,-52.734375,-65.91796875
-67.3828125,-34.66796875,-52.24609375,-56.640625
-34.66796875,0.48828125,-47.8515625,-41.50390625
-38.57421875,-39.0625,-51.7578125,-52.734375
-68.84765625,-86.9140625,-54.19921875,-66.89453125
-78.61328125,-86.9140625,-52.24609375,-58.10546875
-65.91796875,-33.203125,-46.875,-51.26953125
-43.45703125,-8.7890625,-41.9921875,-48.33984375
-36.62109375,-30.2734375,-44.43359375,-47.36328125
-52.24609375,-63.96484375,-44.921875,-49.8046875
-78.125,-101.5625,-48.828125,-53.7109375
-77.1484375,-46.875,-48.828125,-50.29296875
-41.9921875,-1.953125,-42.96875,-39.55078125
-30.2734375,-40.52734375,-49.8046875,-41.50390625
-48.828125,-76.171875,-59.08203125,-51.26953125
-72.265625,-88.8671875,-50.29296875,-51.7578125
-74.70703125,-49.31640625,-46.38671875,-42.96875
-48.33984375,-9.765625,-49.8046875,-38.0859375
-30.76171875,-14.6484375,-45.8984375,-42.48046875
-41.9921875,-62.98828125,-49.8046875,-48.33984375
-70.80078125,-83.0078125,-50.29296875,-55.17578125
-73.2421875,-51.26953125,-41.9921875,-54.6875
-43.9453125,-13.671875,-42.48046875,-44.43359375
-27.83203125,-18.5546875,-48.33984375,-46.38671875
-40.52734375,-63.4765625,-42.96875,-50.78125
-66.89453125,-88.8671875,-47.36328125,-57.6171875
-76.66015625,-60.546875,-50.29296875,-52.24609375
-51.26953125,-12.6953125,-45.41015625,-38.57421875
-29.296875,-25.87890625,-43.45703125,-36.62109375
-34.66796875,-60.05859375,-38.0859375,-41.50390625
-54.6875,-72.265625,-40.0390625,-45.41015625
-64.453125,-60.546875,-45.41015625,-36.62109375
-44.921875,-15.13671875,-45.41015625,-30.2734375
-21.484375,6.34765625,-40.0390625,-32.2265625
-23.92578125,-58.10546875,-40.52734375,-37.59765625
-55.6640625,-103.515625,-44.921875,-47.36328125
-76.171875,-83.984375,-45.8984375,-51.7578125
-63.96484375,-33.203125,-43.9453125,-53.22265625
-37.59765625,-14.16015625,-44.921875,-52.734375
-31.25,-53.7109375,-49.8046875,-56.640625
-56.15234375,-89.84375,-55.17578125,-61.5234375
-83.0078125,-78.125,-51.26953125,-62.98828125
-67.87109375,-21.484375,-46.38671875,-58.59375
-34.1796875,-16.11328125,-51.26953125,-47.36328125
-33.203125,-48.828125,-56.640625,-54.19921875
-52.24609375,-64.94140625,-59.5703125,-63.4765625
-60.05859375,-75.68359375,-57.6171875,-55.17578125
-52.24609375,-42.96875,-53.7109375,-49.31640625
-36.1328125,-3.90625,-46.875,-55.17578125
-32.71484375,-32.2265625,-42.48046875,-61.5234375
-49.8046875,-91.796875,-50.29296875,-63.4765625
-75.1953125,-89.35546875,-56.15234375,-62.98828125
-70.3125,-34.1796875,-46.38671875,-52.24609375
-40.52734375,-22.4609375,-46.875,-37.109375
-26.3671875,-28.80859375,-46.875,-29.296875
-41.015625,-69.3359375,-46.38671875,-38.57421875
-69.82421875,-88.8671875,-48.828125,-48.33984375
-71.77734375,-32.71484375,-50.78125,-39.55078125
-41.9921875,-8.30078125,-51.7578125,-29.296875
-28.3203125,-48.33984375,-46.875,-38.57421875
-46.875,-86.42578125,-45.41015625,-54.6875
-69.82421875,-93.75,-48.828125,-60.05859375
-68.84765625,-62.98828125,-47.8515625,-52.24609375
-32.2265625,-6.34765625,-42.96875,-39.55078125
-5.37109375,-7.8125,-40.0390625,-35.15625
-27.34375,-75.68359375,-37.109375,-41.9921875
-55.6640625,-91.30859375,-36.1328125,-46.875
-57.12890625,-51.26953125,-43.45703125,-44.921875
-31.73828125,-3.41796875,-45.41015625,-41.9921875
-13.671875,13.671875,-40.0390625,-38.57421875
-27.34375,-59.5703125,-41.015625,-46.875
-53.22265625,-99.609375,-42.48046875,-50.78125
-62.5,-56.15234375,-50.29296875,-46.875
-39.55078125,-13.18359375,-52.734375,-45.41015625
-19.04296875,-2.44140625,-41.9921875,-40.0390625
-25.390625,-45.41015625,-40.52734375,-44.43359375
-52.734375,-77.1484375,-43.45703125,-48.828125
-72.75390625,-67.3828125,-42.96875,-46.38671875
-59.08203125,-22.4609375,-46.875,-39.0625
-31.73828125,-8.30078125,-45.8984375,-36.62109375
-33.203125,-40.0390625,-46.38671875,-46.38671875
-62.5,-77.1484375,-52.734375,-59.5703125
-82.51953125,-93.26171875,-49.31640625,-62.5
-65.91796875,-37.109375,-44.43359375,-48.33984375
-38.0859375,0.9765625,-47.36328125,-36.1328125
-36.62109375,-46.38671875,-52.24609375,-43.45703125
-59.08203125,-86.9140625,-47.8515625,-58.59375
-78.125,-74.70703125,-45.8984375,-57.12890625
-58.10546875,-36.1328125,-46.38671875,-45.8984375
-29.78515625,-11.23046875,-47.36328125,-43.9453125
-25.87890625,-27.83203125,-48.828125,-47.36328125
-50.29296875,-79.58984375,-51.26953125,-54.19921875
-71.77734375,-78.125,-52.24609375,-61.03515625
-58.10546875,-17.578125,-47.8515625,-55.6640625
-31.25,-27.83203125,-46.38671875,-50.78125
-25.390625,-52.734375,-51.7578125,-58.10546875
-45.8984375,-72.265625,-53.22265625,-62.01171875
-69.3359375,-83.984375,-53.22265625,-59.08203125
-64.94140625,-39.0625,-53.22265625,-62.98828125
-36.1328125,-5.37109375,-47.8515625,-60.546875
-25.390625,-34.1796875,-50.78125,-58.10546875
-40.52734375,-74.21875,-48.828125,-61.03515625
-68.359375,-75.68359375,-46.875,-58.10546875
-75.68359375,-61.5234375,-51.7578125,-58.10546875
-48.33984375,-21.484375,-53.22265625,-48.828125
-29.296875,-5.37109375,-53.7109375,-44.921875
-36.1328125,-57.6171875,-50.29296875,-51.26953125
-61.5234375,-94.7265625,-52.734375,-54.19921875
-74.21875,-62.01171875,-55.6640625,-48.828125
-49.8046875,-11.23046875,-54.6875,-34.66796875
-24.4140625,-11.71875,-51.26953125,-32.2265625
-27.83203125,-56.640625,-50.78125,-36.1328125
-49.8046875,-78.61328125,-44.43359375,-34.66796875
-60.05859375,-54.19921875,-42.48046875,-32.71484375
-38.57421875,3.41796875,-48.828125,-32.2265625
-17.578125,2.44140625,-45.8984375,-35.15625
-29.296875,-62.01171875,-42.96875,-41.015625
-52.734375,-80.078125,-41.9921875,-42.48046875
-69.82421875,-61.5234375,-51.7578125,-42.96875
-54.6875,-35.64453125,-58.59375,-40.0390625
-24.4140625,-16.6015625,-53.22265625,-31.73828125
-22.94921875,-41.9921875,-47.8515625,-36.1328125
-41.9921875,-76.171875,-51.7578125,-46.875
-61.03515625,-59.5703125,-55.17578125,-48.33984375
-45.8984375,-10.25390625,-51.7578125,-37.59765625
-20.5078125,-2.9296875,-50.29296875,-33.69140625
-29.78515625,-36.62109375,-52.24609375,-44.43359375
-59.5703125,-81.54296875,-52.734375,-52.24609375
-75.1953125,-78.125,-49.31640625,-52.24609375
-62.01171875,-10.7421875,-49.8046875,-48.33984375
-35.15625,-7.8125,-49.8046875,-46.38671875
-23.92578125,-41.9921875,-47.8515625,-46.875
-46.875,-71.2890625,-50.29296875,-55.6640625
-71.2890625,-88.37890625,-55.17578125,-62.01171875
-61.03515625,-35.64453125,-59.5703125,-50.29296875
-34.1796875,-9.765625,-56.640625,-40.52734375
-27.34375,-37.109375,-50.78125,-43.9453125
-50.29296875,-86.42578125,-51.26953125,-53.7109375
-75.68359375,-96.6796875,-44.43359375,-55.6640625
-66.89453125,-47.36328125,-42.48046875,-42.96875
-30.76171875,-10.7421875,-43.9453125,-34.1796875
-20.5078125,-11.23046875,-42.96875,-39.0625
-44.921875,-82.03125,-46.875,-51.26953125
-73.2421875,-105.46875,-54.6875,-62.01171875
-75.1953125,-47.36328125,-58.59375,-60.546875
-40.0390625,-12.6953125,-54.19921875,-53.22265625
-20.99609375,-10.25390625,-51.7578125,-53.22265625
-41.9921875,-52.734375,-54.19921875,-58.10546875
-76.171875,-94.23828125,-54.6875,-63.96484375
-80.56640625,-51.26953125,-47.36328125,-60.05859375
-47.36328125,6.8359375,-42.48046875,-49.31640625
-28.80859375,-9.765625,-49.8046875,-49.31640625
-38.57421875,-55.17578125,-53.22265625,-47.36328125
-62.5,-73.2421875,-51.7578125,-48.33984375
-71.2890625,-72.75390625,-48.33984375,-41.9921875
-46.875,-30.2734375,-47.8515625,-31.25
-32.2265625,-9.765625,-49.8046875,-34.1796875
-46.875,-60.05859375,-49.31640625,-42.48046875
-72.75390625,-89.35546875,-54.19921875,-54.19921875
-82.51953125,-61.03515625,-56.15234375,-57.6171875
-54.6875,-16.6015625,-53.22265625,-51.26953125
-27.83203125,-5.37109375,-46.875,-46.38671875
-34.1796875,-45.8984375,-41.015625,-50.78125
-63.96484375,-94.23828125,-43.9453125,-56.15234375
-78.125,-66.89453125,-42.96875,-55.6640625
-54.19921875,-3.41796875,-39.0625,-49.8046875
-32.71484375,-9.765625,-42.96875,-42.96875
-37.109375,-62.01171875,-47.8515625,-47.8515625
-60.05859375,-94.23828125,-49.8046875,-58.59375
-79.1015625,-81.0546875,-46.875,-52.734375
-62.01171875,-22.4609375,-38.0859375,-38.0859375
-30.2734375,0.0,-34.1796875,-35.64453125
-29.296875,-36.62109375,-33.69140625,-44.921875
-57.12890625,-86.9140625,-36.1328125,-57.12890625
-79.1015625,-75.68359375,-42.96875,-60.546875
-66.89453125,-18.06640625,-42.48046875,-59.08203125
-40.0390625,-6.8359375,-43.45703125,-57.12890625
-34.1796875,-21.484375,-42.48046875,-52.734375
-54.19921875,-64.453125,-41.9921875,-62.5
-81.0546875,-93.26171875,-53.7109375,-63.96484375
-68.359375,-50.29296875,-54.6875,-53.7109375
-33.203125,-13.671875,-46.38671875,-47.8515625
-23.4375,-20.99609375,-44.43359375,-42.48046875
-40.52734375,-68.84765625,-42.96875,-47.8515625
-67.3828125,-82.03125,-39.55078125,-52.734375
-65.4296875,-31.73828125,-41.50390625,-44.921875
-34.66796875,-6.8359375,-45.41015625,-38.0859375
-22.4609375,-26.85546875,-49.8046875,-43.45703125
-39.55078125,-56.15234375,-52.24609375,-48.828125
-59.08203125,-72.265625,-47.8515625,-46.38671875
-62.5,-59.5703125,-52.24609375,-45.8984375
-34.1796875,-17.578125,-55.17578125,-41.50390625
-18.5546875,-10.7421875,-54.6875,-36.1328125
-39.55078125,-68.359375,-57.12890625,-43.45703125
-62.01171875,-88.37890625,-58.59375,-54.6875
-67.87109375,-46.38671875,-56.640625,-58.59375
-40.0390625,8.30078125,-48.33984375,-49.31640625
-16.6015625,-0.9765625,-42.96875,-43.45703125
-21.97265625,-60.546875,-44.43359375,-47.36328125
-45.41015625,-84.47265625,-45.8984375,-47.36328125
-57.12890625,-57.12890625,-43.45703125,-42.96875
-39.0625,0.9765625,-45.8984375,-36.62109375
-25.87890625,-6.8359375,-50.78125,-33.203125
-38.0859375,-75.1953125,-52.24609375,-41.015625
-62.5,-89.35546875,-51.7578125,-44.43359375
-74.70703125,-71.2890625,-48.828125,-41.015625
-53.7109375,-23.4375,-46.38671875,-35.64453125
-23.92578125,-1.953125,-47.8515625,-31.25
-27.34375,-61.5234375,-52.24609375,-43.9453125
-51.26953125,-87.40234375,-56.640625,-52.734375
-69.3359375,-76.171875,-57.12890625,-47.36328125
-54.6875,-32.71484375,-55.6640625,-40.52734375
-26.3671875,-3.41796875,-56.15234375,-39.55078125
-24.90234375,-20.99609375,-48.33984375,-42.96875
-59.08203125,-82.51953125,-53.22265625,-63.96484375
-85.44921875,-107.421875,-63.96484375,-72.75390625
-62.5,-33.203125,-58.10546875,-49.31640625
-27.83203125,-0.9765625,-52.24609375,-38.57421875
-30.2734375,-35.15625,-54.19921875,-47.8515625
-55.17578125,-65.91796875,-59.5703125,-59.08203125
-71.2890625,-82.51953125,-60.05859375,-59.5703125
-61.03515625,-35.64453125,-57.12890625,-54.6875
-31.73828125,0.48828125,-57.6171875,-51.7578125
-24.90234375,-48.828125,-55.6640625,-49.8046875
-48.33984375,-80.56640625,-48.828125,-53.22265625
-75.1953125,-62.98828125,-48.828125,-55.17578125
-77.63671875,-45.8984375,-57.12890625,-49.31640625
-46.875,-22.94921875,-54.19921875,-40.52734375
-32.2265625,-28.3203125,-49.8046875,-45.8984375
-51.7578125,-77.1484375,-44.43359375,-58.59375
-71.2890625,-85.9375,-40.52734375,-57.6171875
-74.70703125,-49.31640625,-47.8515625,-50.78125
-41.9921875,-14.6484375,-50.29296875,-35.64453125
-20.99609375,-22.94921875,-44.921875,-30.2734375
-35.15625,-72.265625,-42.96875,-37.59765625
-54.6875,-83.49609375,-44.921875,-35.64453125
-60.546875,-41.015625,-40.52734375,-25.87890625
-29.296875,13.18359375,-38.57421875,-18.06640625
0.0,0.9765625,-32.71484375,-16.11328125
-18.06640625,-77.63671875,-30.2734375,-27.34375
-47.36328125,-88.8671875,-33.203125,-40.52734375
-56.640625,-54.6875,-31.73828125,-42.48046875
-36.1328125,-9.27734375,-38.0859375,-37.59765625
-20.01953125,-8.30078125,-44.921875,-40.52734375
-28.80859375,-53.7109375,-45.8984375,-46.875
-50.29296875,-74.70703125,-41.015625,-44.43359375
-68.359375,-71.77734375,-40.52734375,-48.33984375
-46.38671875,-22.94921875,-43.45703125,-47.8515625
-22.4609375,-4.39453125,-41.50390625,-43.9453125
-32.71484375,-38.57421875,-41.015625,-50.78125
-64.453125,-87.890625,-43.9453125,-62.01171875
-87.890625,-83.0078125,-45.41015625,-61.03515625
-69.3359375,-13.18359375,-46.38671875,-52.734375
-41.9921875,-5.37109375,-48.828125,-51.26953125
-48.33984375,-50.29296875,-49.8046875,-55.17578125
-70.80078125,-81.0546875,-52.24609375,-61.5234375
-84.9609375,-74.70703125,-52.734375,-59.08203125
-70.3125,-29.78515625,-55.17578125,-53.22265625
-39.55078125,-10.25390625,-53.7109375,-48.33984375
-31.25,-40.52734375,-49.31640625,-50.29296875
-49.31640625,-79.1015625,-45.8984375,-58.10546875
-71.2890625,-73.2421875,-40.0390625,-55.17578125
-63.96484375,-45.8984375,-44.921875,-42.48046875
-30.76171875,-23.4375,-49.31640625,-44.43359375
-17.578125,-28.80859375,-44.921875,-46.875
-38.0859375,-76.171875,-50.29296875,-42.96875
-65.4296875,-86.42578125,-56.640625,-47.8515625
-62.98828125,-32.71484375,-56.15234375,-46.875
-36.1328125,-18.5546875,-54.6875,-43.9453125
-27.83203125,-41.9921875,-53.22265625,-50.29296875
-46.38671875,-71.2890625,-48.828125,-61.03515625
-69.3359375,-89.84375,-46.875,-59.5703125
-66.89453125,-44.921875,-44.43359375,-43.9453125
-38.57421875,3.41796875,-39.0625,-39.0625
-22.4609375,-24.90234375,-46.38671875,-35.64453125
-41.9921875,-86.42578125,-54.19921875,-40.52734375
-69.3359375,-93.26171875,-51.7578125,-57.6171875
-68.84765625,-51.7578125,-50.29296875,-50.29296875
-41.50390625,4.8828125,-51.7578125,-34.1796875
-25.87890625,2.9296875,-48.33984375,-38.0859375
-40.52734375,-70.80078125,-42.48046875,-49.31640625
-64.453125,-92.7734375,-41.50390625,-54.19921875
-69.82421875,-51.26953125,-42.48046875,-49.31640625
-45.41015625,-25.390625,-43.9453125,-39.0625
-27.34375,-29.78515625,-46.38671875,-36.1328125
-35.64453125,-51.26953125,-40.52734375,-39.55078125
-57.6171875,-90.33203125,-40.0390625,-43.45703125
-69.82421875,-76.171875,-44.43359375,-39.55078125
-46.875,-18.5546875,-42.48046875,-39.0625
-24.90234375,-4.39453125,-41.50390625,-44.921875
-33.69140625,-47.8515625,-45.41015625,-48.828125
-62.01171875,-83.0078125,-45.41015625,-57.6171875
-75.68359375,-73.73046875,-47.36328125,-59.08203125
-57.12890625,-25.87890625,-51.7578125,-54.6875
-35.15625,-5.859375,-54.6875,-56.15234375
-37.109375,-50.29296875,-53.22265625,-60.546875
-62.01171875,-97.65625,-54.6875,-63.96484375
-71.77734375,-76.171875,-56.15234375,-55.6640625
-55.17578125,-17.578125,-54.6875,-51.7578125
-32.71484375,-8.30078125,-55.6640625,-51.7578125
-32.2265625,-42.96875,-54.19921875,-53.22265625
-61.03515625,-82.03125,-47.8515625,-65.91796875
-76.66015625,-87.890625,-44.921875,-62.01171875
-64.94140625,-38.57421875,-50.29296875,-51.26953125
-42.48046875,-18.06640625,-51.26953125,-52.24609375
-34.66796875,-44.43359375,-48.828125,-55.17578125
-54.6875,-79.1015625,-51.26953125,-61.5234375
-74.21875,-80.078125,-48.828125,-58.59375
-64.94140625,-25.390625,-52.24609375,-53.7109375
-35.64453125,0.48828125,-52.24609375,-47.36328125
-22.94921875,-42.96875,-46.38671875,-41.9921875
-44.921875,-80.078125,-52.734375,-52.24609375
-74.70703125,-81.54296875,-54.6875,-54.6875
-75.1953125,-60.05859375,-49.8046875,-44.921875
-44.921875,-20.5078125,-46.875,-36.62109375
-27.83203125,-24.4140625,-47.36328125,-38.57421875
-45.8984375,-75.1953125,-46.38671875,-50.78125
-71.77734375,-98.14453125,-42.96875,-52.24609375
-71.2890625,-46.38671875,-41.9921875,-48.33984375
-39.55078125,-7.8125,-40.0390625,-42.96875
-20.99609375,-13.671875,-41.50390625,-45.41015625
-30.2734375,-45.41015625,-42.48046875,-52.24609375
-63.96484375,-93.75,-46.875,-56.640625
-78.61328125,-67.87109375,-48.828125,-56.15234375
-44.921875,-4.8828125,-42.48046875,-47.36328125
-26.3671875,-23.4375,-43.45703125,-44.921875
-37.59765625,-69.82421875,-47.8515625,-48.828125
-57.6171875,-75.68359375,-46.38671875,-48.828125
-67.3828125,-68.359375,-48.828125,-48.33984375
-39.0625,-19.53125,-48.828125,-38.57421875
-20.99609375,-14.6484375,-50.78125,-36.62109375
-33.69140625,-60.05859375,-53.22265625,-48.828125
-55.6640625,-78.61328125,-50.78125,-60.05859375
-68.359375,-47.8515625,-49.31640625,-58.10546875
-42.48046875,-19.04296875,-48.33984375,-45.41015625
-20.99609375,-38.0859375,-49.31640625,-48.33984375
-34.1796875,-66.89453125,-53.22265625,-61.5234375
-58.10546875,-89.84375,-52.734375,-63.96484375
-74.21875,-73.73046875,-52.734375,-60.05859375
-58.10546875,-14.16015625,-52.24609375,-53.7109375
-25.87890625,4.8828125,-46.38671875,-43.45703125
-21.97265625,-36.1328125,-46.875,-45.41015625
-45.41015625,-81.54296875,-50.29296875,-51.26953125
-71.2890625,-88.8671875,-50.29296875,-48.33984375
-63.96484375,-36.62109375,-49.8046875,-44.43359375
-29.78515625,16.6015625,-48.33984375,-32.71484375
-26.85546875,-38.0859375,-44.921875,-28.3203125
-53.22265625,-98.14453125,-39.55078125,-44.921875
-75.68359375,-76.171875,-41.50390625,-54.6875
-68.359375,-29.296875,-43.45703125,-46.38671875
-37.59765625,-8.7890625,-43.45703125,-43.9453125
-33.69140625,-29.296875,-49.8046875,-56.15234375
-54.6875,-78.125,-47.36328125,-63.4765625
-69.3359375,-82.51953125,-43.45703125,-61.5234375
-62.98828125,-41.50390625,-46.38671875,-57.12890625
-38.0859375,-24.90234375,-43.45703125,-46.38671875
-27.34375,-29.296875,-41.50390625,-44.921875
-42.48046875,-47.36328125,-42.96875,-50.29296875
-65.91796875,-75.68359375,-41.015625,-55.17578125
-66.89453125,-61.5234375,-39.55078125,-52.24609375
-36.1328125,-16.11328125,-45.8984375,-44.921875
-23.4375,-22.4609375,-44.921875,-45.8984375
-40.0390625,-62.98828125,-43.9453125,-57.12890625
-58.10546875,-78.61328125,-48.33984375,-63.96484375
-63.96484375,-44.921875,-51.7578125,-60.05859375
-40.52734375,-12.20703125,-54.19921875,-52.734375
-25.87890625,-14.6484375,-53.22265625,-53.22265625
-41.50390625,-61.03515625,-52.734375,-56.640625
-65.4296875,-83.49609375,-47.36328125,-57.12890625
-75.1953125,-48.828125,-41.015625,-55.17578125
-51.7578125,-26.3671875,-40.52734375,-47.36328125
-33.69140625,-19.53125,-42.48046875,-46.875
-44.921875,-52.734375,-46.875,-55.6640625
-68.359375,-92.7734375,-48.828125,-62.5
-80.56640625,-67.87109375,-48.828125,-52.734375
-61.5234375,-15.13671875,-47.36328125,-51.26953125
-35.15625,-3.41796875,-47.36328125,-52.24609375
-36.1328125,-49.8046875,-45.8984375,-48.828125
-63.4765625,-75.1953125,-44.43359375,-55.6640625
-78.61328125,-67.87109375,-50.29296875,-57.6171875
-58.10546875,-10.7421875,-51.26953125,-51.26953125
-26.85546875,20.01953125,-43.45703125,-39.0625
-21.484375,-46.875,-42.48046875,-39.0625
-51.7578125,-89.84375,-47.36328125,-58.10546875
-72.75390625,-71.2890625,-46.38671875,-54.6875
-55.6640625,-21.97265625,-45.8984375,-41.015625
-24.4140625,7.32421875,-47.36328125,-40.0390625
-22.4609375,-37.59765625,-46.38671875,-38.57421875
-51.7578125,-105.46875,-43.9453125,-46.875
-73.73046875,-94.7265625,-41.015625,-51.26953125
-62.98828125,-29.78515625,-41.9921875,-49.31640625
-41.9921875,-14.6484375,-44.43359375,-48.828125
-34.66796875,-33.69140625,-44.43359375,-49.8046875
-50.29296875,-59.08203125,-46.875,-55.6640625
-74.21875,-95.21484375,-49.31640625,-56.15234375
-73.73046875,-52.24609375,-46.875,-51.7578125
-40.52734375,-8.7890625,-47.8515625,-45.41015625
-25.390625,-25.390625,-47.8515625,-43.45703125
-49.31640625,-73.73046875,-48.33984375,-51.7578125
-73.73046875,-87.40234375,-46.875,-53.7109375
-69.3359375,-36.62109375,-43.45703125,-45.41015625
-34.66796875,0.48828125,-43.45703125,-38.57421875
-21.484375,-17.578125,-43.9453125,-43.45703125
-43.9453125,-79.1015625,-44.921875,-59.5703125
-68.84765625,-84.9609375,-42.96875,-63.96484375
-66.40625,-32.2265625,-40.52734375,-54.6875
-39.55078125,-17.578125,-40.52734375,-50.29296875
-27.34375,-30.76171875,-43.45703125,-48.33984375
-43.9453125,-56.15234375,-50.29296875,-55.17578125
-74.70703125,-84.47265625,-48.33984375,-62.01171875
-81.54296875,-58.10546875,-42.48046875,-55.17578125
-47.8515625,-7.8125,-44.43359375,-39.0625
-20.5078125,-3.90625,-47.36328125,-37.109375
-29.78515625,-57.12890625,-43.45703125,-39.55078125
-55.6640625,-82.51953125,-41.50390625,-39.55078125
-64.94140625,-67.87109375,-40.52734375,-39.55078125
-42.48046875,-21.97265625,-39.55078125,-34.66796875
-21.97265625,4.39453125,-39.0625,-26.85546875
-26.85546875,-46.38671875,-43.9453125,-30.2734375
-50.29296875,-97.65625,-53.7109375,-44.43359375
-65.91796875,-78.61328125,-52.734375,-42.48046875
-41.50390625,-5.37109375,-46.875,-29.78515625
-14.6484375,9.27734375,-41.50390625,-29.78515625
-27.34375,-41.015625,-40.0390625,-40.0390625
-49.8046875,-67.87109375,-43.9453125,-43.45703125
-64.453125,-62.5,-44.43359375,-41.9921875
-54.6875,-26.3671875,-42.96875,-39.0625
-23.92578125,-6.8359375,-46.38671875,-33.203125
-20.5078125,-36.1328125,-43.45703125,-37.109375
-42.96875,-56.15234375,-41.015625,-48.828125
-60.546875,-74.70703125,-47.8515625,-46.875
-50.29296875,-38.0859375,-53.22265625,-43.45703125
-27.34375,7.8125,-51.7578125,-43.45703125
-28.3203125,-41.9921875,-53.22265625,-46.875
-55.6640625,-90.8203125,-57.6171875,-58.10546875
-81.0546875,-82.51953125,-56.640625,-59.5703125
-74.70703125,-40.0390625,-54.19921875,-52.24609375
-45.41015625,-20.01953125,-50.29296875,-48.828125
-27.83203125,-33.69140625,-45.8984375,-47.36328125
-44.921875,-79.1015625,-43.45703125,-52.24609375
-73.73046875,-92.28515625,-45.41015625,-55.17578125
-70.3125,-36.1328125,-47.8515625,-50.29296875
-35.15625,-16.11328125,-46.875,-42.96875
-20.01953125,-51.7578125,-43.45703125,-41.9921875
-42.48046875,-84.9609375,-45.8984375,-47.36328125
-57.12890625,-86.9140625,-44.921875,-43.45703125
-54.6875,-38.0859375,-47.8515625,-46.38671875
-29.296875,5.37109375,-52.24609375,-45.41015625
-16.11328125,-22.94921875,-46.875,-37.59765625
-34.1796875,-69.82421875,-40.0390625,-41.015625
-63.4765625,-93.26171875,-41.015625,-49.31640625
-74.21875,-62.01171875,-50.29296875,-53.7109375
-45.8984375,-3.41796875,-49.8046875,-45.41015625
-19.53125,16.6015625,-43.9453125,-37.59765625
-30.76171875,-46.38671875,-46.38671875,-41.9921875
-62.5,-104.4921875,-52.24609375,-52.24609375
-70.80078125,-67.87109375,-50.29296875,-52.734375
-44.43359375,-6.34765625,-43.45703125,-38.57421875
-23.4375,-4.39453125,-47.36328125,-35.15625
-31.25,-58.59375,-47.8515625,-44.921875
-55.6640625,-87.40234375,-40.52734375,-50.78125
-67.3828125,-63.4765625,-38.57421875,-44.921875
-43.45703125,-15.13671875,-39.55078125,-32.71484375
-21.97265625,-14.16015625,-43.9453125,-32.2265625
-32.2265625,-39.55078125,-45.8984375,-42.48046875
-57.12890625,-74.21875,-43.45703125,-53.22265625
-77.63671875,-89.35546875,-45.8984375,-49.31640625
-60.546875,-37.109375,-42.48046875,-34.1796875
-33.203125,-12.20703125,-42.96875,-30.76171875
-37.109375,-57.12890625,-46.38671875,-38.0859375
-61.03515625,-88.8671875,-41.9921875,-51.7578125
-80.078125,-81.0546875,-46.38671875,-54.19921875
-65.91796875,-24.4140625,-50.78125,-49.8046875
-36.62109375,4.8828125,-46.38671875,-46.875
-33.203125,-37.59765625,-51.26953125,-46.38671875
-53.22265625,-73.2421875,-57.12890625,-59.08203125
-73.2421875,-68.84765625,-55.17578125,-69.3359375
-59.08203125,-9.765625,-50.78125,-62.98828125
-28.80859375,13.671875,-51.26953125,-52.24609375
-29.78515625,-42.96875,-55.6640625,-55.6640625
-50.29296875,-88.8671875,-50.29296875,-62.5
-74.70703125,-90.8203125,-56.15234375,-63.96484375
-68.84765625,-41.50390625,-62.5,-56.15234375
-33.203125,-0.9765625,-52.734375,-45.41015625
-21.484375,-16.6015625,-49.8046875,-44.921875
-45.8984375,-78.125,-53.7109375,-50.78125
-70.3125,-102.05078125,-54.6875,-55.6640625
-71.2890625,-56.640625,-53.7109375,-53.22265625
-42.96875,-12.20703125,-51.7578125,-38.57421875
-26.3671875,-2.9296875,-50.78125,-37.59765625
-47.36328125,-54.6875,-49.8046875,-50.29296875
-69.82421875,-96.6796875,-43.45703125,-53.22265625
-71.77734375,-60.546875,-41.9921875,-47.8515625
-43.9453125,-28.80859375,-45.8984375,-38.0859375
-26.3671875,-24.90234375,-49.8046875,-37.109375
-42.48046875,-73.73046875,-49.8046875,-47.36328125
-65.4296875,-100.5859375,-46.875,-49.31640625
-71.2890625,-53.7109375,-44.921875,-44.43359375
-48.33984375,-10.25390625,-44.921875,-42.96875
-32.2265625,-28.3203125,-51.26953125,-51.7578125
-42.48046875,-60.05859375,-52.24609375,-59.08203125
-61.03515625,-63.96484375,-55.17578125,-59.08203125
-71.2890625,-64.94140625,-59.5703125,-61.03515625
-43.9453125,-22.94921875,-48.33984375,-52.24609375
-15.625,-2.44140625,-44.921875,-38.0859375
-18.5546875,-53.7109375,-49.8046875,-41.9921875
-44.43359375,-76.66015625,-49.8046875,-51.7578125
-63.96484375,-59.08203125,-52.24609375,-47.8515625
-47.36328125,-25.390625,-48.828125,-42.96875
-26.85546875,-8.7890625,-49.31640625,-42.96875
-30.76171875,-42.48046875,-51.26953125,-44.921875
-56.15234375,-74.21875,-49.31640625,-50.29296875
-80.078125,-75.1953125,-50.29296875,-54.6875
-65.91796875,-10.25390625,-45.41015625,-47.36328125
-36.1328125,-0.9765625,-34.1796875,-43.45703125
-38.57421875,-62.01171875,-32.71484375,-49.31640625
-63.96484375,-83.984375,-40.52734375,-61.03515625
-79.58984375,-76.66015625,-43.45703125,-65.91796875
-67.3828125,-33.69140625,-44.921875,-54.19921875
-40.52734375,-4.8828125,-47.8515625,-45.8984375
-33.203125,-36.62109375,-47.8515625,-50.29296875
-56.640625,-74.70703125,-51.7578125,-62.5
-76.171875,-74.70703125,-56.15234375,-67.87109375
-64.94140625,-44.43359375,-55.6640625,-61.5234375
-40.0390625,-21.97265625,-51.26953125,-54.19921875
-31.25,-24.90234375,-48.33984375,-59.08203125
-47.36328125,-78.125,-50.78125,-65.91796875
-68.359375,-104.98046875,-52.734375,-63.4765625
-66.89453125,-47.36328125,-51.26953125,-61.5234375
-41.9921875,-8.30078125,-46.875,-55.17578125
-34.66796875,-36.1328125,-43.45703125,-54.6875
-50.78125,-67.87109375,-43.45703125,-62.5
-73.2421875,-82.03125,-44.43359375,-64.94140625
-80.078125,-56.15234375,-46.875,-59.5703125
-49.31640625,-9.765625,-42.96875,-41.50390625
-25.390625,-20.5078125,-40.52734375,-38.57421875
-43.9453125,-69.82421875,-47.36328125,-53.7109375
-68.84765625,-70.80078125,-52.24609375,-56.640625
-71.77734375,-45.41015625,-53.22265625,-47.36328125
-42.48046875,-20.01953125,-48.828125,-41.50390625
-16.11328125,-20.01953125,-38.0859375,-39.55078125
-24.4140625,-59.08203125,-36.1328125,-41.9921875
-41.50390625,-69.82421875,-41.9921875,-48.828125
-49.8046875,-52.734375,-41.50390625,-45.41015625
-31.73828125,-18.06640625,-40.52734375,-40.0390625
-9.765625,-1.46484375,-38.57421875,-34.1796875
-21.97265625,-44.43359375,-38.0859375,-36.1328125
-51.26953125,-83.984375,-41.9921875,-45.41015625
-65.4296875,-64.94140625,-47.36328125,-48.33984375
-46.38671875,2.44140625,-44.43359375,-43.45703125
-22.94921875,-2.9296875,-38.0859375,-41.50390625
-32.2265625,-63.4765625,-39.55078125,-45.41015625
-60.546875,-91.796875,-40.52734375,-54.19921875
-83.984375,-85.9375,-42.96875,-60.05859375
-72.265625,-24.4140625,-51.26953125,-50.78125
-45.8984375,-5.37109375,-47.36328125,-42.96875
-46.875,-58.10546875,-40.52734375,-53.22265625
-74.70703125,-96.19140625,-43.45703125,-63.96484375
-94.23828125,-82.51953125,-47.36328125,-63.4765625
-75.68359375,-32.71484375,-47.36328125,-57.12890625
-48.33984375,-3.41796875,-42.96875,-50.29296875
-41.50390625,-19.04296875,-41.50390625,-46.875
-59.08203125,-74.70703125,-43.45703125,-51.26953125
-83.0078125,-92.28515625,-46.38671875,-59.08203125
-71.2890625,-27.34375,-50.29296875,-52.24609375
-31.73828125,11.71875,-47.36328125,-36.1328125
-26.3671875,-13.18359375,-44.921875,-38.0859375
-54.19921875,-61.5234375,-50.78125,-53.7109375
-72.75390625,-83.49609375,-54.19921875,-54.6875
-63.4765625,-41.50390625,-48.33984375,-49.8046875
-29.78515625,4.39453125,-39.0625,-42.48046875
-17.08984375,-20.5078125,-36.62109375,-37.59765625
-36.62109375,-70.3125,-36.62109375,-44.43359375
-61.03515625,-73.2421875,-37.59765625,-49.31640625
-61.5234375,-42.96875,-43.45703125,-44.921875
-28.80859375,-8.30078125,-44.43359375,-34.1796875
-7.32421875,-12.20703125,-44.921875,-28.80859375
-26.85546875,-62.98828125,-47.8515625,-41.015625
-58.59375,-86.9140625,-44.43359375,-52.734375
-62.01171875,-44.921875,-45.41015625,-45.41015625
-39.0625,0.48828125,-43.45703125,-37.59765625
-21.484375,-6.8359375,-43.45703125,-34.66796875
-29.78515625,-49.31640625,-48.33984375,-33.203125
-60.05859375,-93.26171875,-48.33984375,-42.48046875
-79.58984375,-62.01171875,-44.43359375,-53.22265625
-53.7109375,3.90625,-40.0390625,-47.36328125
-32.71484375,-17.578125,-39.0625,-45.41015625
-45.41015625,-67.87109375,-42.48046875,-55.17578125
-64.453125,-82.51953125,-38.57421875,-55.6640625
-77.63671875,-67.3828125,-38.0859375,-50.29296875
-57.12890625,-14.16015625,-38.0859375,-45.41015625
-34.66796875,-1.953125,-34.66796875,-47.36328125
-43.9453125,-49.31640625,-39.0625,-61.03515625
-71.2890625,-92.28515625,-45.8984375,-72.75390625
-84.9609375,-69.3359375,-50.29296875,-66.40625
-60.546875,-26.85546875,-53.22265625,-53.22265625
-33.203125,-19.04296875,-52.24609375,-46.875
-34.66796875,-39.0625,-49.31640625,-52.24609375
-58.59375,-80.56640625,-56.15234375,-60.546875
-78.125,-96.19140625,-57.6171875,-61.03515625
-67.3828125,-31.25,-50.29296875,-52.24609375
-41.50390625,-2.44140625,-49.31640625,-49.31640625
-35.64453125,-46.38671875,-49.8046875,-61.03515625
-55.6640625,-84.9609375,-55.6640625,-68.359375
-77.1484375,-85.9375,-61.5234375,-63.4765625
-62.98828125,-30.76171875,-55.6640625,-51.26953125
-24.4140625,-4.39453125,-50.29296875,-42.96875
-19.53125,-40.0390625,-46.38671875,-43.45703125
-50.29296875,-83.984375,-45.8984375,-46.875
-73.73046875,-68.359375,-46.875,-52.734375
-69.82421875,-40.0390625,-45.41015625,-48.828125
-45.41015625,-19.04296875,-41.9921875,-37.59765625
-34.1796875,-19.04296875,-41.50390625,-41.50390625
-49.31640625,-81.0546875,-45.41015625,-49.31640625
-69.3359375,-100.5859375,-49.8046875,-46.38671875
-67.87109375,-41.50390625,-55.6640625,-41.9921875
-40.52734375,-5.859375,-52.734375,-33.203125
-19.53125,-21.484375,-47.8515625,-28.3203125
-35.15625,-66.40625,-48.33984375,-40.0390625
-62.5,-85.9375,-44.43359375,-45.8984375
-64.453125,-30.2734375,-42.48046875,-39.55078125
-35.15625,11.71875,-43.9453125,-34.1796875
-17.578125,-21.484375,-41.9921875,-37.109375
-36.1328125,-81.54296875,-43.45703125,-46.38671875
-66.89453125,-88.37890625,-50.78125,-48.33984375
-75.1953125,-56.15234375,-56.15234375,-46.875
-45.41015625,0.48828125,-51.26953125,-38.0859375
-22.4609375,-5.859375,-44.43359375,-30.2734375
-40.52734375,-79.1015625,-46.38671875,-43.45703125
-67.3828125,-83.0078125,-46.38671875,-59.5703125
-75.1953125,-63.96484375,-42.96875,-56.640625
-47.8515625,-20.5078125,-43.45703125,-44.921875
-21.484375,5.859375,-47.36328125,-39.55078125
-30.2734375,-30.76171875,-46.38671875,-44.43359375
-59.5703125,-88.8671875,-52.734375,-53.22265625
-77.1484375,-79.1015625,-59.08203125,-55.6640625
-63.4765625,-23.4375,-52.734375,-43.9453125
-35.15625,-4.39453125,-46.875,-37.59765625
-31.25,-45.41015625,-45.41015625,-45.8984375
-56.640625,-81.54296875,-48.828125,-54.19921875
-72.75390625,-75.1953125,-49.31640625,-54.19921875
-55.6640625,-13.18359375,-47.8515625,-48.33984375
-29.296875,16.11328125,-50.29296875,-50.78125
-28.80859375,-48.828125,-54.6875,-61.5234375
-52.734375,-80.078125,-57.6171875,-62.98828125
-75.1953125,-67.87109375,-60.546875,-60.546875
-64.453125,-32.71484375,-62.01171875,-54.6875
-33.69140625,-14.16015625,-54.6875,-45.8984375
-34.1796875,-35.64453125,-49.8046875,-49.8046875
-56.15234375,-81.54296875,-52.734375,-60.546875
-78.61328125,-91.796875,-55.17578125,-61.5234375
-70.80078125,-35.15625,-51.26953125,-53.22265625
-31.73828125,-6.8359375,-50.78125,-46.38671875
-20.5078125,-32.71484375,-48.828125,-42.48046875
-39.55078125,-72.265625,-44.921875,-44.921875
-62.5,-82.03125,-43.9453125,-47.36328125
-61.5234375,-36.1328125,-43.9453125,-44.43359375
-33.69140625,0.9765625,-42.48046875,-40.0390625
-25.390625,-28.3203125,-40.52734375,-45.41015625
-47.36328125,-87.40234375,-45.41015625,-51.7578125
-66.89453125,-100.5859375,-46.875,-52.24609375
-64.453125,-46.38671875,-40.0390625,-45.8984375
-38.0859375,4.8828125,-40.0390625,-32.71484375
-18.06640625,-16.11328125,-43.9453125,-29.296875
-34.1796875,-66.89453125,-46.38671875,-38.0859375
-64.94140625,-89.84375,-53.7109375,-45.8984375
-68.84765625,-58.10546875,-55.6640625,-43.45703125
-41.015625,-4.8828125,-55.6640625,-36.1328125
-20.01953125,-4.39453125,-54.19921875,-42.48046875
-31.25,-51.26953125,-53.7109375,-54.6875
-53.7109375,-93.75,-54.6875,-55.17578125
-64.453125,-82.51953125,-51.26953125,-50.29296875
-41.50390625,-20.99609375,-49.8046875,-42.96875
-17.08984375,-17.578125,-52.734375,-36.1328125
-35.15625,-68.359375,-53.22265625,-42.96875
-62.98828125,-79.1015625,-50.78125,-55.6640625
-62.01171875,-58.10546875,-47.36328125,-42.96875
-39.0625,-11.23046875,-47.36328125,-31.73828125
-20.01953125,0.9765625,-52.24609375,-32.2265625
-26.85546875,-54.19921875,-49.8046875,-37.109375
-54.6875,-88.8671875,-44.43359375,-46.875
-67.87109375,-66.40625,-41.9921875,-43.45703125
-55.17578125,-36.62109375,-44.921875,-40.52734375
-25.87890625,-24.4140625,-48.828125,-41.015625
-20.01953125,-48.33984375,-47.8515625,-44.921875
-51.26953125,-95.21484375,-52.24609375,-54.6875
-71.2890625,-78.61328125,-52.734375,-53.7109375
-53.22265625,-16.11328125,-46.38671875,-46.38671875
-31.73828125,-10.25390625,-42.96875,-48.33984375
-37.109375,-42.96875,-41.015625,-54.6875
-62.01171875,-77.63671875,-43.45703125,-57.6171875
-84.9609375,-75.1953125,-44.43359375,-54.6875
-76.66015625,-22.94921875,-46.38671875,-51.7578125
-47.36328125,-0.48828125,-47.36328125,-44.43359375
-39.0625,-43.45703125,-49.8046875,-43.9453125
-58.10546875,-92.28515625,-51.26953125,-54.19921875
-78.125,-89.35546875,-42.48046875,-51.26953125
-70.3125,-41.015625,-41.015625,-41.50390625
-39.0625,-5.859375,-44.43359375,-40.52734375
-29.296875,-21.484375,-41.50390625,-41.9921875
-49.31640625,-89.84375,-44.43359375,-50.29296875
-80.078125,-110.83984375,-50.78125,-62.98828125
-82.03125,-55.6640625,-52.734375,-58.59375
-47.8515625,-34.66796875,-59.08203125,-45.41015625
-28.3203125,-35.64453125,-54.6875,-40.52734375
-40.52734375,-57.12890625,-43.45703125,-47.8515625
-68.84765625,-98.6328125,-38.0859375,-56.15234375
-72.75390625,-66.89453125,-36.1328125,-51.7578125
-38.57421875,-6.34765625,-31.73828125,-37.59765625
-18.06640625,-12.20703125,-33.69140625,-30.76171875
-30.2734375,-62.01171875,-40.52734375,-35.64453125
-54.6875,-88.8671875,-37.109375,-40.0390625
-60.546875,-57.12890625,-38.57421875,-37.59765625
-30.76171875,-14.6484375,-43.45703125,-28.80859375
-6.34765625,-3.41796875,-41.50390625,-26.85546875
-19.04296875,-46.38671875,-39.0625,-39.55078125
-46.38671875,-80.56640625,-38.0859375,-45.8984375
-57.12890625,-37.109375,-41.015625,-43.9453125
-37.109375,8.7890625,-44.921875,-40.52734375
-20.01953125,-17.578125,-46.875,-41.9921875
-26.85546875,-59.08203125,-43.9453125,-47.36328125
-57.6171875,-74.21875,-43.45703125,-52.24609375
-74.21875,-52.24609375,-50.29296875,-50.29296875
-53.22265625,-10.25390625,-45.41015625,-39.55078125
-31.73828125,-1.953125,-36.62109375,-38.0859375
-39.55078125,-49.31640625,-41.50390625,-52.24609375
-67.3828125,-87.40234375,-40.52734375,-57.12890625
-82.51953125,-79.1015625,-36.62109375,-50.29296875
-58.10546875,-18.06640625,-41.015625,-40.0390625
-25.390625,12.20703125,-42.48046875,-32.71484375
-25.87890625,-49.8046875,-41.015625,-33.69140625
-50.29296875,-86.42578125,-43.9453125,-41.50390625
-70.3125,-76.171875,-50.78125,-48.33984375
-61.5234375,-42.96875,-52.734375,-41.50390625
-34.66796875,-18.06640625,-47.36328125,-35.64453125
-26.3671875,-40.0390625,-48.828125,-42.48046875
-48.828125,-83.984375,-49.31640625,-50.29296875
-67.87109375,-89.84375,-45.41015625,-49.31640625
-56.640625,-27.34375,-47.8515625,-48.33984375
-29.296875,-0.9765625,-52.24609375,-45.41015625
-18.5546875,-30.76171875,-59.08203125,-47.36328125
-41.50390625,-62.5,-62.5,-58.59375
-69.82421875,-80.56640625,-57.6171875,-63.4765625
-72.265625,-49.31640625,-57.12890625,-61.03515625
-48.828125,-9.765625,-56.15234375,-56.640625
-28.3203125,-28.3203125,-54.6875,-52.24609375
-40.0390625,-62.01171875,-48.33984375,-58.59375
-64.453125,-77.1484375,-44.43359375,-62.5
-64.94140625,-53.7109375,-52.734375,-54.6875
-41.9921875,-13.18359375,-56.15234375,-43.9453125
-25.87890625,-17.08984375,-49.8046875,-37.109375
-38.0859375,-70.80078125,-46.38671875,-43.45703125
-58.10546875,-83.49609375,-47.8515625,-47.8515625
-60.05859375,-31.25,-47.8515625,-44.921875
-41.015625,-13.671875,-48.828125,-42.48046875
-20.01953125,-26.3671875,-45.8984375,-36.1328125
-29.296875,-61.03515625,-42.48046875,-36.1328125
-59.5703125,-92.7734375,-43.45703125,-44.921875
-69.3359375,-67.87109375,-39.55078125,-41.50390625
-44.921875,-13.18359375,-40.0390625,-31.73828125
-17.08984375,-3.90625,-44.921875,-25.87890625
-20.5078125,-49.8046875,-38.0859375,-35.64453125
-52.734375,-83.49609375,-34.1796875,-51.7578125
-68.84765625,-78.61328125,-40.52734375,-52.734375
-42.48046875,-20.01953125,-41.015625,-43.45703125
-16.6015625,11.23046875,-41.9921875,-40.52734375
-16.6015625,-42.96875,-42.96875,-45.8984375
-40.52734375,-83.0078125,-49.8046875,-51.26953125
-64.94140625,-66.89453125,-54.19921875,-52.24609375
-50.78125,-13.671875,-46.875,-49.8046875
-22.94921875,5.37109375,-41.9921875,-42.96875
-24.90234375,-40.52734375,-44.43359375,-52.24609375
-57.6171875,-83.49609375,-47.8515625,-70.80078125
-85.44921875,-85.44921875,-45.8984375,-72.75390625
-74.21875,-33.69140625,-46.38671875,-62.98828125
-46.38671875,-14.6484375,-47.8515625,-58.10546875
-41.9921875,-25.390625,-53.7109375,-62.01171875
-60.546875,-55.6640625,-63.96484375,-64.94140625
-77.1484375,-82.51953125,-64.453125,-62.01171875
-67.87109375,-47.36328125,-53.22265625,-48.33984375
-41.015625,-20.99609375,-41.50390625,-40.0390625
-29.78515625,-34.1796875,-36.62109375,-41.015625
-42.96875,-67.87109375,-37.59765625,-48.33984375
-66.40625,-79.58984375,-41.9921875,-54.19921875
-62.01171875,-41.015625,-48.33984375,-51.7578125
-34.66796875,-8.30078125,-51.26953125,-44.43359375
-27.83203125,-21.484375,-49.31640625,-43.45703125
-44.43359375,-76.66015625,-45.41015625,-51.7578125
-63.4765625,-82.51953125,-42.48046875,-56.15234375
-67.87109375,-21.484375,-43.9453125,-55.17578125
-39.55078125,-19.04296875,-45.41015625,-46.38671875
-23.92578125,-43.9453125,-49.31640625,-43.9453125
-43.45703125,-63.4765625,-47.36328125,-55.17578125
-69.3359375,-90.8203125,-45.41015625,-60.546875
-72.75390625,-56.15234375,-52.734375,-57.6171875
-37.109375,-8.7890625,-53.7109375,-40.0390625
-19.53125,-9.765625,-53.7109375,-36.62109375
-38.57421875,-55.6640625,-54.19921875,-47.36328125
-61.5234375,-77.63671875,-49.8046875,-46.38671875
-70.80078125,-53.22265625,-47.8515625,-43.9453125
-47.8515625,-0.9765625,-44.43359375,-40.52734375
-27.83203125,8.30078125,-45.41015625,-43.45703125
-39.0625,-58.59375,-48.33984375,-54.19921875
-64.94140625,-91.796875,-47.8515625,-58.10546875
-79.58984375,-67.87109375,-46.875,-53.7109375
-53.22265625,-20.99609375,-44.921875,-49.31640625
-26.3671875,1.953125,-46.38671875,-44.43359375
-29.78515625,-32.2265625,-42.96875,-45.8984375
-52.24609375,-84.9609375,-41.50390625,-52.734375
-73.2421875,-76.66015625,-43.9453125,-48.33984375
-52.24609375,-20.01953125,-47.36328125,-37.59765625
-30.76171875,-16.6015625,-45.41015625,-35.15625
-45.41015625,-52.734375,-43.9453125,-44.43359375
-70.3125,-64.94140625,-47.8515625,-52.734375
-87.890625,-83.984375,-55.6640625,-56.15234375
-68.84765625,-41.015625,-53.22265625,-46.38671875
-30.76171875,-5.859375,-38.57421875,-29.78515625
-23.92578125,-37.109375,-33.203125,-34.1796875
-48.828125,-79.58984375,-38.0859375,-46.38671875
-72.265625,-90.33203125,-48.33984375,-45.8984375
-59.08203125,-37.109375,-53.22265625,-37.59765625
-33.203125,-8.7890625,-52.24609375,-41.50390625
-26.85546875,-34.1796875,-46.875,-46.875
-51.7578125,-88.8671875,-51.7578125,-52.734375
-76.171875,-86.42578125,-58.59375,-58.59375
-65.91796875,-17.08984375,-51.7578125,-53.7109375
-37.109375,-9.27734375,-47.8515625,-51.7578125
-35.15625,-50.78125,-53.22265625,-59.5703125
-59.08203125,-75.1953125,-61.03515625,-67.3828125
-80.56640625,-92.28515625,-66.40625,-71.77734375
-73.2421875,-51.26953125,-63.96484375,-65.4296875
-40.52734375,-3.41796875,-54.6875,-49.8046875
-27.83203125,-21.97265625,-48.33984375,-46.875
-42.48046875,-80.078125,-44.43359375,-55.17578125
-61.5234375,-90.33203125,-49.31640625,-50.78125
-60.546875,-41.9921875,-47.8515625,-42.96875
-42.48046875,-8.7890625,-50.29296875,-41.50390625
-25.87890625,-1.46484375,-54.19921875,-40.0390625
-33.69140625,-49.8046875,-45.41015625,-44.43359375
-65.91796875,-99.12109375,-48.828125,-46.875
-68.84765625,-66.40625,-56.640625,-44.43359375
-39.55078125,-23.92578125,-55.17578125,-31.73828125
-20.99609375,-25.390625,-52.734375,-27.34375
-29.78515625,-60.05859375,-52.734375,-39.55078125
-58.59375,-88.37890625,-46.38671875,-46.875
-69.82421875,-69.82421875,-47.36328125,-43.45703125
-44.43359375,-15.625,-48.33984375,-32.71484375
-27.34375,-3.41796875,-48.33984375,-41.50390625
-39.0625,-53.22265625,-48.33984375,-55.6640625
-62.01171875,-68.84765625,-42.96875,-52.734375
-69.82421875,-70.80078125,-42.48046875,-47.36328125
-45.8984375,-32.71484375,-43.45703125,-46.875
-22.94921875,-2.9296875,-42.96875,-43.45703125
-28.3203125,-57.6171875,-44.43359375,-40.52734375
-47.8515625,-81.0546875,-40.0390625,-41.50390625
-63.4765625,-70.3125,-38.0859375,-41.9921875
-51.26953125,-26.3671875,-39.55078125,-37.109375
-28.80859375,-0.9765625,-37.59765625,-31.73828125
-25.390625,-37.59765625,-37.109375,-28.80859375
-45.41015625,-85.44921875,-35.15625,-37.109375
-67.87109375,-73.73046875,-41.015625,-44.43359375
-50.78125,-12.6953125,-44.921875,-36.62109375
-27.34375,-10.25390625,-41.015625,-33.69140625
-28.3203125,-51.26953125,-41.015625,-36.1328125
-50.78125,-83.0078125,-39.55078125,-41.015625
-73.2421875,-88.37890625,-39.0625,-43.9453125
-60.546875,-25.87890625,-45.8984375,-38.57421875
-31.73828125,8.7890625,-40.52734375,-33.203125
-27.83203125,-37.59765625,-32.71484375,-41.50390625
-53.7109375,-83.984375,-42.96875,-53.7109375
-79.58984375,-84.9609375,-51.7578125,-61.5234375
-72.265625,-36.1328125,-50.78125,-62.98828125
-42.48046875,1.46484375,-47.8515625,-58.59375
-35.64453125,-8.7890625,-49.8046875,-61.03515625
-54.19921875,-80.078125,-58.59375,-71.2890625
-73.2421875,-105.95703125,-59.5703125,-72.75390625
-76.171875,-47.8515625,-54.19921875,-64.94140625
-50.29296875,-16.11328125,-56.640625,-59.08203125
-35.64453125,-38.0859375,-59.08203125,-60.546875
-49.31640625,-71.77734375,-53.7109375,-62.5
-70.80078125,-81.54296875,-53.22265625,-64.453125
-74.21875,-51.7578125,-55.6640625,-56.15234375
-45.8984375,-14.6484375,-56.15234375,-41.9921875
-23.4375,-28.80859375,-53.7109375,-40.0390625
-32.71484375,-62.5,-47.8515625,-46.875
-57.6171875,-66.40625,-46.875,-48.33984375
-64.94140625,-66.89453125,-46.875,-41.50390625
-39.0625,-27.34375,-40.52734375,-31.73828125
-14.16015625,-2.44140625,-36.1328125,-28.80859375
-22.4609375,-58.10546875,-43.45703125,-41.015625
-47.36328125,-88.8671875,-43.9453125,-49.31640625
-61.5234375,-61.03515625,-34.1796875,-47.8515625
-41.015625,-5.859375,-36.1328125,-39.55078125
-12.20703125,6.34765625,-44.43359375,-37.59765625
-16.11328125,-40.0390625,-46.875,-45.41015625
-47.36328125,-71.2890625,-40.0390625,-57.6171875
-67.87109375,-65.91796875,-38.0859375,-59.08203125
-55.17578125,1.46484375,-39.55078125,-50.78125
-36.62109375,9.765625,-40.52734375,-50.29296875
-39.55078125,-64.453125,-47.36328125,-48.828125
-62.98828125,-95.21484375,-55.17578125,-57.12890625
-80.078125,-72.265625,-54.6875,-56.640625
-64.453125,-8.30078125,-48.33984375,-46.38671875
-35.15625,18.06640625,-46.38671875,-42.48046875
-30.76171875,-25.87890625,-49.8046875,-48.33984375
-60.546875,-83.0078125,-50.78125,-59.5703125
-79.1015625,-87.40234375,-47.8515625,-59.5703125
-58.59375,-41.9921875,-46.875,-48.33984375
-30.2734375,-22.4609375,-41.9921875,-40.0390625
-25.390625,-32.2265625,-44.43359375,-38.0859375
-44.921875,-91.30859375,-54.19921875,-44.921875
-66.40625,-92.7734375,-44.43359375,-50.29296875
-60.05859375,-23.92578125,-40.52734375,-46.38671875
-33.69140625,-20.5078125,-55.6640625,-42.48046875
-19.04296875,-36.62109375,-51.26953125,-40.0390625
-37.59765625,-77.1484375,-42.96875,-52.24609375
-65.4296875,-87.890625,-49.31640625,-58.10546875
-62.5,-46.38671875,-49.8046875,-51.7578125
-36.1328125,-11.71875,-49.31640625,-48.828125
-20.99609375,-20.99609375,-52.734375,-48.828125
-38.57421875,-64.453125,-59.08203125,-56.15234375
-67.87109375,-65.4296875,-61.03515625,-66.40625
-73.2421875,-42.96875,-58.10546875,-61.5234375
-49.31640625,-21.97265625,-57.6171875,-46.875
-33.69140625,-15.13671875,-57.6171875,-48.33984375
-45.8984375,-71.2890625,-55.17578125,-55.6640625
-70.3125,-85.9375,-52.24609375,-55.6640625
-81.0546875,-47.36328125,-50.78125,-52.734375
-53.7109375,-25.87890625,-49.31640625,-47.8515625
-31.73828125,-22.4609375,-52.734375,-45.8984375
-38.0859375,-64.453125,-49.8046875,-45.41015625
-56.640625,-88.8671875,-45.41015625,-48.33984375
-63.96484375,-47.8515625,-46.38671875,-44.43359375
-36.1328125,3.41796875,-50.29296875,-33.203125
-15.625,-26.85546875,-55.6640625,-36.62109375
-28.3203125,-76.66015625,-48.33984375,-44.921875
-53.7109375,-90.33203125,-41.50390625,-53.7109375
-65.4296875,-71.77734375,-42.96875,-52.734375
-43.45703125,-21.484375,-40.52734375,-44.43359375
-20.01953125,-9.765625,-40.52734375,-43.9453125
-25.390625,-57.12890625,-48.33984375,-49.31640625
-44.43359375,-94.23828125,-48.33984375,-52.734375
-59.08203125,-77.63671875,-43.45703125,-50.78125
-45.41015625,-34.1796875,-47.8515625,-40.52734375
-22.94921875,-3.41796875,-53.7109375,-37.59765625
-27.34375,-29.78515625,-49.31640625,-53.7109375
-55.6640625,-92.7734375,-51.7578125,-68.359375
-81.54296875,-100.09765625,-57.6171875,-68.84765625
-71.77734375,-39.55078125,-57.12890625,-63.4765625
-37.109375,-4.39453125,-49.8046875,-51.26953125
-32.71484375,-30.76171875,-44.921875,-46.875
-61.5234375,-71.2890625,-49.31640625,-56.640625
-76.66015625,-80.078125,-53.7109375,-60.05859375
-71.2890625,-33.203125,-56.15234375,-52.734375
-41.9921875,-2.9296875,-53.22265625,-41.50390625
-32.2265625,-35.64453125,-51.7578125,-48.828125
-56.15234375,-67.87109375,-50.78125,-63.96484375
-77.63671875,-63.4765625,-51.26953125,-67.3828125
-81.0546875,-32.2265625,-54.6875,-64.453125
-58.59375,-17.08984375,-57.12890625,-58.59375
-41.9921875,-37.59765625,-56.640625,-62.98828125
-54.19921875,-69.82421875,-58.10546875,-74.70703125
-74.21875,-86.42578125,-59.08203125,-72.75390625
-72.75390625,-50.29296875,-57.12890625,-64.94140625
-43.45703125,-4.39453125,-51.7578125,-54.19921875
-22.94921875,-12.20703125,-45.8984375,-44.921875
-31.73828125,-64.453125,-49.31640625,-51.7578125
-56.15234375,-90.8203125,-47.36328125,-59.08203125
-62.5,-50.78125,-44.43359375,-49.8046875
-31.73828125,9.765625,-41.50390625,-34.1796875
-10.7421875,-13.18359375,-41.015625,-31.25
-25.390625,-65.4296875,-42.96875,-39.55078125
-51.7578125,-78.125,-44.921875,-43.9453125
-63.4765625,-71.2890625,-45.8984375,-39.55078125
-33.69140625,-15.625,-40.0390625,-28.80859375
-12.20703125,-6.8359375,-41.9921875,-27.34375
-28.80859375,-51.26953125,-42.48046875,-42.48046875
-54.19921875,-75.1953125,-40.52734375,-48.33984375
-72.265625,-63.96484375,-41.015625,-50.29296875
-53.22265625,-19.04296875,-43.9453125,-53.7109375
-23.92578125,-2.44140625,-43.45703125,-48.33984375
-22.94921875,-33.203125,-42.48046875,-44.921875
-49.31640625,-83.984375,-48.828125,-47.36328125
-69.82421875,-86.42578125,-52.734375,-48.33984375
-53.22265625,-19.04296875,-44.43359375,-39.55078125
-25.390625,-5.37109375,-40.52734375,-34.66796875
-28.3203125,-41.9921875,-41.015625,-44.921875
-55.17578125,-71.77734375,-41.015625,-57.6171875
-72.75390625,-83.984375,-44.43359375,-57.12890625
-58.59375,-26.3671875,-41.9921875,-48.828125
-23.4375,0.48828125,-38.57421875,-37.109375
-14.16015625,-39.55078125,-40.52734375,-32.71484375
-39.0625,-70.80078125,-44.43359375,-41.9921875
-61.03515625,-64.94140625,-42.48046875,-38.57421875
-50.29296875,-37.59765625,-34.66796875,-24.4140625
-26.85546875,-20.01953125,-38.0859375,-20.01953125
-22.94921875,-34.66796875,-45.41015625,-23.4375
-44.43359375,-72.75390625,-46.38671875,-35.15625
-68.359375,-83.49609375,-48.33984375,-43.9453125
-58.10546875,-29.296875,-43.45703125,-42.96875
-32.71484375,-6.34765625,-40.52734375,-46.38671875
-24.90234375,-31.73828125,-41.015625,-49.31640625
-43.9453125,-66.89453125,-46.38671875,-54.6875
-68.84765625,-92.28515625,-52.734375,-59.5703125
-70.80078125,-53.7109375,-47.8515625,-51.7578125
-36.1328125,6.8359375,-41.9921875,-42.48046875
-21.484375,-14.6484375,-46.38671875,-48.828125
-41.9921875,-74.21875,-51.7578125,-58.10546875
-71.2890625,-86.42578125,-52.734375,-65.91796875
-77.1484375,-57.6171875,-50.29296875,-61.5234375
-47.36328125,-14.6484375,-47.8515625,-51.26953125
-34.66796875,-21.484375,-44.921875,-53.22265625
-52.24609375,-74.70703125,-52.734375,-59.08203125
-77.1484375,-95.703125,-62.5,-59.08203125
-83.984375,-71.2890625,-56.640625,-51.7578125
-56.640625,-20.01953125,-50.78125,-41.015625
-31.73828125,-10.25390625,-47.36328125,-41.50390625
-32.71484375,-44.921875,-37.109375,-42.48046875
-50.78125,-82.03125,-38.0859375,-42.48046875
-61.5234375,-76.171875,-41.50390625,-41.9921875
-40.0390625,-17.578125,-42.96875,-32.71484375
-17.578125,-6.8359375,-43.45703125,-32.71484375
-20.01953125,-47.8515625,-36.1328125,-43.9453125
-42.96875,-67.3828125,-39.0625,-51.26953125
-62.01171875,-58.59375,-47.36328125,-53.22265625
-47.36328125,-19.04296875,-52.734375,-47.36328125
-25.87890625,-12.6953125,-53.7109375,-47.36328125
-33.69140625,-57.6171875,-52.24609375,-65.91796875
-61.5234375,-78.61328125,-50.29296875,-76.66015625
-77.1484375,-62.5,-46.875,-71.2890625
-59.5703125,-23.92578125,-48.828125,-61.5234375
-35.15625,-0.9765625,-50.78125,-57.12890625
-34.1796875,-34.1796875,-48.33984375,-63.96484375
-62.98828125,-99.12109375,-52.734375,-71.2890625
-88.37890625,-101.07421875,-61.03515625,-71.77734375
-73.73046875,-33.69140625,-56.640625,-63.4765625
-40.0390625,1.953125,-51.7578125,-44.921875
-32.2265625,-32.2265625,-53.22265625,-39.0625
-60.546875,-87.890625,-49.31640625,-53.22265625
-81.54296875,-92.7734375,-43.45703125,-52.24609375
-62.98828125,-36.1328125,-41.50390625,-35.15625
-31.73828125,4.39453125,-44.921875,-28.80859375
-20.99609375,-41.50390625,-46.875,-30.76171875
-42.48046875,-97.16796875,-48.33984375,-38.57421875
-72.75390625,-91.30859375,-53.22265625,-44.921875
-62.01171875,-44.921875,-49.31640625,-39.0625
-21.484375,1.46484375,-43.9453125,-30.2734375
-14.16015625,-20.99609375,-42.96875,-35.64453125
-36.1328125,-80.56640625,-42.96875,-48.828125
-59.08203125,-90.8203125,-46.875,-55.6640625
-57.12890625,-44.43359375,-42.48046875,-55.6640625
-32.2265625,-5.37109375,-41.9921875,-49.31640625
-19.53125,-10.25390625,-46.875,-49.31640625
-31.73828125,-41.9921875,-49.8046875,-55.6640625
-55.6640625,-89.84375,-57.6171875,-57.6171875
-57.12890625,-59.5703125,-58.10546875,-50.78125
-24.90234375,2.44140625,-49.8046875,-40.52734375
-6.8359375,-16.6015625,-52.734375,-36.62109375
-27.34375,-52.24609375,-58.59375,-48.33984375
-54.6875,-74.70703125,-52.24609375,-52.734375
-59.08203125,-57.6171875,-39.0625,-46.38671875
-36.62109375,-6.34765625,-37.109375,-46.38671875
-15.13671875,7.8125,-43.9453125,-41.50390625
-27.34375,-51.26953125,-46.38671875,-44.43359375
-67.87109375,-90.8203125,-47.8515625,-50.29296875
-82.51953125,-38.0859375,-46.875,-46.875
-56.640625,-13.671875,-42.48046875,-41.9921875
-35.15625,-33.203125,-46.38671875,-43.9453125
-40.0390625,-57.6171875,-54.6875,-56.15234375
-62.5,-77.63671875,-53.22265625,-63.96484375
-80.56640625,-73.2421875,-51.7578125,-63.96484375
-61.03515625,-28.3203125,-46.875,-54.6875
-33.69140625,-6.8359375,-41.015625,-52.24609375
-35.15625,-50.29296875,-44.921875,-67.87109375
-56.640625,-91.796875,-51.26953125,-70.80078125
-72.265625,-85.9375,-57.12890625,-63.4765625
-55.6640625,-24.4140625,-56.15234375,-51.7578125
-24.90234375,1.953125,-53.22265625,-41.015625
-21.97265625,-35.64453125,-57.6171875,-45.41015625
-56.640625,-98.6328125,-63.4765625,-58.59375
-79.58984375,-106.4453125,-52.24609375,-57.6171875
-66.40625,-35.15625,-42.48046875,-47.36328125
-37.109375,-9.765625,-38.57421875,-39.0625
-34.66796875,-38.57421875,-35.15625,-41.9921875
-62.98828125,-84.47265625,-42.96875,-50.78125
-86.42578125,-95.703125,-43.45703125,-55.6640625
-79.58984375,-41.9921875,-45.8984375,-51.26953125
-46.38671875,-19.04296875,-51.7578125,-39.0625
-33.69140625,-28.80859375,-52.24609375,-41.50390625
-53.22265625,-60.05859375,-53.22265625,-55.6640625
-78.125,-100.09765625,-48.828125,-57.6171875
-77.63671875,-55.17578125,-41.9921875,-47.8515625
-44.43359375,0.48828125,-39.55078125,-41.50390625
-24.90234375,-30.2734375,-43.45703125,-40.52734375
-39.55078125,-74.70703125,-44.43359375,-45.8984375
-67.87109375,-91.30859375,-44.43359375,-52.734375
-66.89453125,-54.6875,-43.45703125,-42.48046875
-28.3203125,-5.37109375,-35.64453125,-24.4140625
-7.32421875,-10.25390625,-38.57421875,-27.34375
-23.4375,-56.640625,-47.8515625,-40.52734375
-54.6875,-77.1484375,-50.78125,-44.921875
-68.84765625,-35.64453125,-47.8515625,-43.45703125
-44.43359375,-6.34765625,-49.31640625,-38.57421875
-26.85546875,-15.625,-55.17578125,-41.50390625
-33.203125,-50.29296875,-48.828125,-45.8984375
-55.6640625,-74.70703125,-41.9921875,-56.15234375
-75.1953125,-53.7109375,-50.29296875,-64.453125
-50.78125,-9.27734375,-53.7109375,-51.7578125
-29.296875,-20.5078125,-53.22265625,-44.43359375
-43.45703125,-59.08203125,-56.15234375,-59.5703125
-71.2890625,-81.0546875,-52.734375,-71.2890625
-89.35546875,-73.73046875,-54.19921875,-71.2890625
-67.87109375,-13.18359375,-57.12890625,-66.40625
-39.0625,5.37109375,-54.19921875,-63.96484375
-46.38671875,-66.40625,-54.19921875,-68.359375
-70.80078125,-98.6328125,-52.24609375,-70.80078125
-81.0546875,-69.82421875,-47.8515625,-61.5234375
-56.640625,-19.04296875,-43.45703125,-42.96875
-29.296875,-5.37109375,-41.9921875,-34.1796875
-35.15625,-44.43359375,-44.921875,-39.55078125
-56.640625,-87.40234375,-43.9453125,-44.43359375
-71.2890625,-82.03125,-45.8984375,-39.55078125
-61.03515625,-36.1328125,-51.7578125,-37.59765625
-27.83203125,-28.3203125,-47.8515625,-35.15625
-17.08984375,-40.0390625,-38.57421875,-41.015625
-40.52734375,-67.3828125,-38.57421875,-54.19921875
-64.94140625,-86.42578125,-46.875,-50.78125
-61.5234375,-45.41015625,-49.31640625,-46.875
-37.109375,-15.13671875,-46.38671875,-49.31640625
-27.34375,-28.80859375,-48.33984375,-51.7578125
-43.45703125,-61.03515625,-51.7578125,-56.640625
-70.80078125,-76.171875,-52.24609375,-62.5
-72.75390625,-40.0390625,-50.78125,-60.05859375
-40.52734375,-0.9765625,-39.0625,-48.828125
-22.94921875,-17.08984375,-38.57421875,-45.41015625
-44.43359375,-65.91796875,-47.8515625,-50.78125
-70.3125,-70.3125,-49.31640625,-50.29296875
-71.2890625,-29.296875,-47.36328125,-47.36328125
-42.96875,4.8828125,-42.96875,-40.0390625
-24.4140625,-24.90234375,-41.9921875,-37.59765625
-34.66796875,-75.68359375,-47.36328125,-37.59765625
-60.05859375,-95.21484375,-50.78125,-38.0859375
-65.4296875,-66.89453125,-48.33984375,-34.1796875
-34.66796875,-15.13671875,-48.828125,-28.3203125
-13.671875,-17.578125,-55.17578125,-31.25
-20.5078125,-49.31640625,-51.7578125,-38.57421875
-47.8515625,-76.66015625,-45.41015625,-46.875
-63.4765625,-61.03515625,-47.8515625,-52.734375
-41.50390625,-0.9765625,-44.43359375,-47.36328125
-17.578125,15.13671875,-37.59765625,-40.0390625
-28.80859375,-61.03515625,-45.41015625,-54.19921875
-61.5234375,-93.75,-50.29296875,-74.70703125
-71.2890625,-48.828125,-45.8984375,-66.89453125
-51.26953125,-6.34765625,-41.9921875,-54.6875
-34.66796875,-6.8359375,-42.48046875,-55.17578125
-39.55078125,-46.38671875,-46.38671875,-56.15234375
-60.546875,-77.63671875,-52.24609375,-57.6171875
-76.171875,-71.77734375,-54.6875,-49.31640625
-54.6875,-5.859375,-47.8515625,-36.62109375
-24.4140625,0.48828125,-44.921875,-29.78515625
-32.71484375,-49.8046875,-47.8515625,-37.59765625
-59.5703125,-70.80078125,-52.24609375,-46.38671875
-73.73046875,-77.1484375,-48.33984375,-40.0390625
-59.08203125,-35.64453125,-40.0390625,-39.55078125
-38.0859375,-9.27734375,-43.9453125,-45.41015625
-39.0625,-41.9921875,-48.828125,-51.26953125
-60.05859375,-68.84765625,-53.7109375,-57.12890625
-77.63671875,-74.70703125,-56.15234375,-57.12890625
-69.82421875,-42.96875,-54.19921875,-55.17578125
-41.015625,-10.25390625,-53.22265625,-52.734375
-28.3203125,-33.69140625,-55.6640625,-56.15234375
-48.828125,-77.1484375,-57.12890625,-62.98828125
-68.84765625,-73.73046875,-52.24609375,-58.10546875
-62.98828125,-6.34765625,-48.33984375,-41.50390625
-36.1328125,3.90625,-47.36328125,-31.25
-26.3671875,-33.203125,-42.96875,-38.0859375
-47.36328125,-67.3828125,-42.48046875,-48.828125
-72.265625,-84.9609375,-48.33984375,-53.7109375
-72.265625,-47.8515625,-52.24609375,-50.29296875
-42.48046875,-8.30078125,-49.8046875,-40.52734375
-28.3203125,-31.73828125,-47.36328125,-38.57421875
-52.24609375,-71.2890625,-48.828125,-45.8984375
-73.73046875,-77.63671875,-48.33984375,-46.38671875
-65.4296875,-52.734375,-47.8515625,-44.921875
-40.0390625,-9.27734375,-46.875,-43.45703125
-27.83203125,0.0,-36.62109375,-41.9921875
-39.0625,-59.08203125,-39.0625,-56.15234375
-68.359375,-103.515625,-43.9453125,-69.82421875
-75.68359375,-66.89453125,-44.43359375,-62.98828125
-49.8046875,-17.578125,-49.8046875,-46.875
-25.87890625,-19.04296875,-46.38671875,-47.8515625
-37.109375,-65.91796875,-44.43359375,-66.40625
-69.3359375,-94.23828125,-54.19921875,-70.3125
-75.1953125,-72.75390625,-59.08203125,-54.19921875
-50.78125,-20.5078125,-55.6640625,-44.43359375
-29.296875,-13.18359375,-56.15234375,-44.921875
-31.25,-50.78125,-55.6640625,-44.43359375
-55.6640625,-63.96484375,-53.7109375,-49.8046875
-73.2421875,-61.03515625,-50.29296875,-49.31640625
-54.19921875,-41.015625,-46.38671875,-40.0390625
-25.87890625,-18.06640625,-44.43359375,-34.66796875
-28.3203125,-55.6640625,-43.9453125,-38.57421875
-53.22265625,-82.51953125,-47.36328125,-48.33984375
-69.3359375,-66.40625,-49.31640625,-48.828125
-53.22265625,-17.578125,-52.24609375,-40.52734375
-19.04296875,0.48828125,-50.78125,-31.25
-16.11328125,-43.9453125,-43.9453125,-35.64453125
-41.015625,-83.0078125,-48.828125,-44.921875
-62.98828125,-77.63671875,-55.6640625,-43.45703125
-56.15234375,-15.625,-47.36328125,-39.0625
-23.92578125,-15.13671875,-41.9921875,-30.76171875
-11.71875,-51.7578125,-41.9921875,-30.76171875
-39.55078125,-65.4296875,-39.0625,-49.31640625
-66.40625,-77.1484375,-42.48046875,-57.6171875
-56.640625,-32.2265625,-41.9921875,-42.48046875
-23.4375,8.7890625,-39.55078125,-31.25
-17.08984375,-18.06640625,-41.9921875,-37.109375
-46.38671875,-74.70703125,-45.8984375,-53.7109375
-73.73046875,-86.42578125,-48.828125,-61.03515625
-68.359375,-52.24609375,-46.38671875,-51.7578125
-38.0859375,-6.8359375,-42.48046875,-45.8984375
-19.53125,-1.46484375,-42.96875,-45.41015625
-30.76171875,-68.359375,-50.29296875,-49.31640625
-62.5,-95.703125,-54.19921875,-54.6875
-68.84765625,-53.22265625,-52.734375,-52.24609375
-36.1328125,-10.7421875,-46.38671875,-46.38671875
-20.01953125,0.0,-45.8984375,-44.921875
-42.48046875,-54.6875,-49.8046875,-52.734375
-68.359375,-95.703125,-50.78125,-58.59375
-74.70703125,-61.03515625,-45.41015625,-50.29296875
-47.36328125,-9.27734375,-44.43359375,-41.9921875
-20.5078125,-13.18359375,-50.78125,-44.43359375
-30.76171875,-56.15234375,-40.52734375,-46.875
-53.22265625,-65.91796875,-37.109375,-48.828125
-68.84765625,-61.5234375,-48.33984375,-49.8046875
-46.38671875,-27.83203125,-46.875,-40.52734375
-22.4609375,-17.578125,-40.52734375,-37.59765625
-34.66796875,-58.59375,-41.50390625,-48.33984375
-60.05859375,-82.03125,-44.921875,-57.6171875
-71.2890625,-60.05859375,-48.828125,-57.12890625
-49.8046875,-15.625,-47.8515625,-49.8046875
-23.4375,0.0,-47.36328125,-39.0625
-27.34375,-33.69140625,-54.19921875,-40.52734375
-57.12890625,-88.37890625,-57.12890625,-61.5234375
-74.21875,-65.91796875,-56.640625,-62.98828125
-55.6640625,2.44140625,-49.8046875,-45.41015625
-29.78515625,-8.7890625,-44.921875,-42.48046875
-25.390625,-56.15234375,-42.48046875,-48.33984375
-52.24609375,-86.42578125,-42.96875,-54.19921875
-73.2421875,-79.1015625,-52.24609375,-53.22265625
-55.17578125,-17.578125,-52.734375,-41.50390625
-29.296875,-2.44140625,-44.921875,-38.0859375
-27.83203125,-41.9921875,-42.48046875,-41.9921875
-52.734375,-83.984375,-47.8515625,-48.33984375
-74.21875,-93.26171875,-51.26953125,-46.38671875
-62.98828125,-45.8984375,-47.36328125,-38.57421875
-29.296875,-6.8359375,-45.8984375,-34.66796875
-20.01953125,-19.53125,-47.36328125,-34.66796875
-44.921875,-75.68359375,-46.38671875,-40.52734375
-67.87109375,-107.421875,-43.9453125,-43.9453125
-67.3828125,-58.59375,-47.8515625,-38.57421875
-40.52734375,-21.97265625,-50.78125,-31.25
-30.2734375,-48.33984375,-50.29296875,-37.109375
-46.38671875,-80.56640625,-48.33984375,-41.9921875
-71.77734375,-85.9375,-47.36328125,-46.38671875
-74.21875,-52.24609375,-49.31640625,-49.31640625
-41.50390625,-0.9765625,-47.36328125,-41.9921875
-23.92578125,-10.25390625,-47.8515625,-43.9453125
-44.43359375,-61.5234375,-55.17578125,-51.26953125
-71.77734375,-71.2890625,-61.5234375,-62.98828125
-76.171875,-62.01171875,-61.03515625,-67.87109375
-49.31640625,-14.16015625,-55.6640625,-55.6640625
-26.85546875,-0.48828125,-48.33984375,-51.26953125
-41.9921875,-64.94140625,-45.8984375,-60.05859375
-71.2890625,-94.23828125,-47.8515625,-65.4296875
-77.63671875,-71.77734375,-48.828125,-57.6171875
-47.8515625,-20.99609375,-45.41015625,-48.33984375
-22.94921875,-13.671875,-46.875,-41.50390625
-34.66796875,-56.640625,-50.29296875,-41.9921875
-60.05859375,-92.28515625,-46.875,-49.31640625
-72.265625,-61.03515625,-49.8046875,-42.48046875
-48.828125,1.46484375,-50.29296875,-33.203125
-26.3671875,-17.578125,-47.8515625,-36.62109375
-35.64453125,-66.89453125,-49.8046875,-46.38671875
-62.01171875,-80.56640625,-45.41015625,-51.7578125
-78.61328125,-75.1953125,-49.8046875,-53.7109375
-51.7578125,-11.71875,-46.875,-42.96875
-21.484375,6.34765625,-37.59765625,-31.25
-25.390625,-48.33984375,-38.0859375,-35.15625
-48.33984375,-78.61328125,-41.9921875,-44.921875
-70.3125,-72.265625,-43.45703125,-52.24609375
-57.6171875,-25.390625,-43.45703125,-45.8984375
-29.78515625,-4.39453125,-48.33984375,-37.59765625
-25.390625,-19.04296875,-47.36328125,-44.921875
-47.36328125,-72.75390625,-41.50390625,-59.08203125
-78.125,-95.703125,-41.50390625,-61.5234375
-67.87109375,-39.55078125,-44.43359375,-55.17578125
-37.109375,-19.53125,-42.96875,-43.45703125
-36.62109375,-42.48046875,-43.9453125,-45.41015625
-55.6640625,-73.73046875,-42.96875,-55.17578125
-69.3359375,-80.078125,-41.50390625,-50.78125
-58.10546875,-32.71484375,-46.875,-44.921875
-33.203125,0.9765625,-50.29296875,-40.52734375
-28.80859375,-36.1328125,-53.22265625,-44.43359375
-54.19921875,-85.44921875,-56.15234375,-58.10546875
-77.63671875,-77.1484375,-52.24609375,-63.96484375
-74.21875,-57.12890625,-49.8046875,-58.59375
-46.875,-31.73828125,-52.24609375,-52.24609375
-30.76171875,-25.390625,-48.33984375,-56.640625
-47.36328125,-74.21875,-47.36328125,-61.03515625
-71.77734375,-81.0546875,-48.828125,-57.6171875
-68.84765625,-30.76171875,-49.31640625,-49.31640625
-43.45703125,-6.8359375,-49.31640625,-46.38671875
-33.203125,-24.90234375,-53.7109375,-51.7578125
-42.48046875,-67.3828125,-54.19921875,-59.08203125
-62.5,-87.40234375,-49.31640625,-57.12890625
-67.87109375,-51.26953125,-46.875,-48.33984375
-43.45703125,1.953125,-42.48046875,-40.52734375
-24.90234375,-8.30078125,-38.0859375,-35.64453125
-32.71484375,-84.9609375,-41.50390625,-38.0859375
-55.6640625,-104.4921875,-46.38671875,-42.48046875
-70.3125,-64.94140625,-50.29296875,-51.26953125
-50.78125,-17.08984375,-54.6875,-50.78125
-22.94921875,-10.25390625,-53.22265625,-44.921875
-29.296875,-50.78125,-52.24609375,-54.6875
-59.5703125,-85.44921875,-51.7578125,-61.5234375
-73.73046875,-64.94140625,-51.26953125,-51.7578125
-53.22265625,-14.16015625,-45.8984375,-43.45703125
-28.80859375,-0.48828125,-39.0625,-36.62109375
-34.1796875,-31.25,-39.0625,-39.0625
-63.96484375,-94.23828125,-40.52734375,-46.38671875
-82.03125,-83.49609375,-41.015625,-47.8515625
-65.4296875,-16.6015625,-42.96875,-41.50390625
-39.0625,-19.04296875,-50.29296875,-39.0625
-41.50390625,-48.828125,-50.29296875,-55.17578125
-66.89453125,-72.75390625,-44.43359375,-65.91796875
-76.171875,-69.3359375,-37.109375,-55.17578125
-61.03515625,-24.90234375,-37.59765625,-40.52734375
-29.78515625,4.8828125,-44.43359375,-35.64453125
-24.90234375,-38.57421875,-43.45703125,-42.48046875
-52.24609375,-77.1484375,-44.921875,-51.26953125
-70.3125,-69.3359375,-49.31640625,-50.78125
-56.640625,-44.921875,-46.875,-39.0625
-26.85546875,-19.53125,-42.96875,-31.25
-19.53125,-27.83203125,-45.41015625,-40.52734375
-45.41015625,-76.66015625,-55.6640625,-49.31640625
-72.75390625,-90.33203125,-53.7109375,-49.8046875
-68.84765625,-24.90234375,-47.36328125,-47.8515625
-37.109375,-17.08984375,-43.45703125,-38.0859375
-25.390625,-49.31640625,-35.64453125,-37.109375
-44.43359375,-67.87109375,-34.1796875,-49.8046875
-71.77734375,-94.23828125,-39.0625,-50.29296875
-75.68359375,-47.36328125,-40.0390625,-44.921875
-48.33984375,4.8828125,-41.9921875,-46.875
-29.78515625,-29.78515625,-44.43359375,-51.26953125
-38.0859375,-84.47265625,-41.9921875,-59.08203125
-61.03515625,-98.6328125,-45.41015625,-60.05859375
-61.5234375,-61.5234375,-50.78125,-51.26953125
-29.78515625,-4.39453125,-47.8515625,-39.55078125
-5.37109375,-0.9765625,-44.921875,-29.296875
-21.97265625,-59.08203125,-48.828125,-35.64453125
-56.640625,-86.42578125,-53.22265625,-46.38671875
-65.4296875,-55.17578125,-50.78125,-47.36328125
-45.41015625,-21.484375,-45.8984375,-41.9921875
-25.390625,-15.625,-47.8515625,-40.0390625
-30.76171875,-43.45703125,-53.22265625,-47.8515625
-59.5703125,-85.44921875,-53.7109375,-56.640625
-81.54296875,-87.40234375,-58.10546875,-60.546875
-61.03515625,-23.92578125,-65.4296875,-52.734375
-25.390625,3.41796875,-58.10546875,-32.2265625
-30.76171875,-51.26953125,-53.7109375,-36.1328125
-68.84765625,-82.51953125,-57.12890625,-57.12890625
-87.890625,-71.77734375,-53.22265625,-58.59375
-73.73046875,-18.5546875,-46.875,-61.03515625
-47.36328125,-2.44140625,-42.48046875,-65.91796875
-41.50390625,-53.7109375,-44.921875,-63.96484375
-66.89453125,-82.03125,-52.24609375,-72.75390625
-83.49609375,-62.5,-49.8046875,-74.70703125
-69.3359375,-27.83203125,-47.8515625,-62.98828125
-46.875,-32.2265625,-50.29296875,-47.36328125
-36.1328125,-57.12890625,-46.875,-43.9453125
-47.36328125,-87.890625,-47.8515625,-50.29296875
-64.453125,-86.9140625,-49.8046875,-44.921875
-55.17578125,-32.71484375,-47.8515625,-39.55078125
-24.4140625,-4.8828125,-46.875,-29.78515625
-18.06640625,-27.83203125,-49.8046875,-32.71484375
-45.41015625,-74.21875,-52.24609375,-49.31640625
-69.82421875,-90.8203125,-53.7109375,-57.12890625
-63.96484375,-25.390625,-56.640625,-54.6875
-33.69140625,17.578125,-50.78125,-46.38671875
-25.87890625,-36.62109375,-50.78125,-51.7578125
-53.7109375,-89.35546875,-57.6171875,-61.5234375
-76.171875,-84.47265625,-58.59375,-64.453125
-77.1484375,-54.19921875,-54.6875,-63.4765625
-45.8984375,-13.18359375,-48.33984375,-52.734375
-24.90234375,-14.6484375,-46.38671875,-52.734375
-43.9453125,-54.19921875,-48.33984375,-59.5703125
-61.5234375,-81.0546875,-45.41015625,-61.03515625
-55.6640625,-42.48046875,-45.41015625,-55.6640625
-29.296875,9.27734375,-46.38671875,-42.48046875
-12.6953125,-9.765625,-46.875,-34.66796875
-24.4140625,-42.96875,-48.33984375,-40.0390625
-52.24609375,-69.82421875,-51.7578125,-41.9921875
-65.4296875,-69.3359375,-50.78125,-35.64453125
-42.48046875,-11.23046875,-47.36328125,-31.25
-23.4375,-2.9296875,-46.38671875,-33.203125
-38.0859375,-59.5703125,-46.875,-41.50390625
-60.546875,-80.56640625,-41.50390625,-47.36328125
-66.40625,-72.265625,-36.62109375,-37.59765625
-46.875,-25.390625,-38.0859375,-26.3671875
-27.34375,-2.9296875,-40.0390625,-32.71484375
-38.57421875,-52.24609375,-44.43359375,-43.45703125
-67.3828125,-75.68359375,-49.31640625,-52.24609375
-82.03125,-42.48046875,-52.24609375,-55.17578125
-63.96484375,-15.13671875,-55.17578125,-55.17578125
-41.015625,-16.11328125,-48.33984375,-59.08203125
-44.43359375,-47.36328125,-42.48046875,-63.96484375
-68.84765625,-77.63671875,-49.8046875,-69.3359375
-80.078125,-66.40625,-54.19921875,-63.96484375
-56.640625,-10.25390625,-52.24609375,-57.6171875
-26.3671875,3.41796875,-49.8046875,-47.8515625
-25.390625,-33.69140625,-52.24609375,-48.828125
-54.19921875,-72.75390625,-52.24609375,-64.453125
-75.68359375,-89.35546875,-52.24609375,-63.96484375
-60.05859375,-33.203125,-47.36328125,-51.26953125
-34.66796875,7.32421875,-43.9453125,-43.9453125
-34.1796875,-38.0859375,-43.45703125,-49.31640625
-57.6171875,-92.7734375,-43.45703125,-55.17578125
-78.61328125,-90.8203125,-41.015625,-54.19921875
-69.3359375,-32.71484375,-36.1328125,-43.45703125
-36.1328125,-3.90625,-36.1328125,-30.2734375
-20.5078125,-26.3671875,-40.0390625,-26.3671875
-46.875,-71.77734375,-47.36328125,-37.59765625
-71.77734375,-93.26171875,-44.43359375,-41.9921875
-70.3125,-39.55078125,-41.9921875,-38.0859375
-41.9921875,-14.16015625,-38.0859375,-36.1328125
-26.85546875,-30.76171875,-33.203125,-37.109375
-48.828125,-57.6171875,-37.109375,-44.43359375
-75.68359375,-90.33203125,-39.0625,-47.8515625
-78.125,-62.98828125,-41.50390625,-47.8515625
-47.8515625,-14.16015625,-50.78125,-44.921875
-24.4140625,-18.06640625,-49.8046875,-41.015625
-33.69140625,-54.19921875,-46.875,-49.31640625
-57.6171875,-77.63671875,-50.78125,-59.08203125
-59.5703125,-53.22265625,-47.36328125,-47.36328125
-27.34375,-5.859375,-37.109375,-27.83203125
-8.7890625,-13.18359375,-37.109375,-29.78515625
-27.34375,-61.03515625,-43.45703125,-43.45703125
-57.6171875,-73.73046875,-44.43359375,-52.734375
-72.75390625,-42.96875,-44.921875,-55.17578125
-52.24609375,-23.4375,-50.78125,-49.31640625
-34.1796875,-20.99609375,-58.59375,-49.8046875
-45.41015625,-44.43359375,-55.6640625,-55.17578125
-72.75390625,-85.44921875,-55.17578125,-63.96484375
-88.37890625,-78.61328125,-57.12890625,-62.5
-63.4765625,-17.08984375,-45.41015625,-49.31640625
-39.55078125,-6.34765625,-41.015625,-46.875
-51.26953125,-62.98828125,-47.8515625,-59.5703125
-74.21875,-90.33203125,-48.828125,-67.3828125
-88.8671875,-82.03125,-47.8515625,-67.3828125
-70.80078125,-39.0625,-51.26953125,-62.5
-43.9453125,-11.71875,-51.26953125,-57.12890625
-48.33984375,-67.3828125,-47.36328125,-61.03515625
-65.91796875,-105.95703125,-41.9921875,-65.4296875
-77.1484375,-82.51953125,-45.41015625,-60.546875
-57.6171875,-30.2734375,-48.828125,-49.31640625
-28.80859375,4.39453125,-48.33984375,-46.875
-28.80859375,-21.484375,-52.734375,-52.24609375
-52.24609375,-85.44921875,-51.7578125,-58.10546875
-77.1484375,-91.30859375,-48.33984375,-64.453125
-64.94140625,-31.25,-47.8515625,-55.6640625
-29.296875,-12.20703125,-49.31640625,-43.45703125
-21.484375,-37.59765625,-46.875,-49.31640625
-43.9453125,-55.6640625,-41.9921875,-58.59375
-67.3828125,-80.078125,-48.828125,-57.6171875
-62.01171875,-48.33984375,-55.17578125,-58.10546875
-34.1796875,-2.9296875,-43.45703125,-49.8046875
-27.83203125,-19.04296875,-41.50390625,-47.8515625
-48.828125,-62.98828125,-49.8046875,-56.15234375
-66.89453125,-84.9609375,-52.734375,-60.546875
-61.5234375,-41.015625,-54.19921875,-53.7109375
-38.0859375,-6.34765625,-51.7578125,-42.96875
-23.92578125,-20.99609375,-45.41015625,-44.921875
-39.55078125,-73.2421875,-40.0390625,-50.29296875
-61.03515625,-83.0078125,-41.015625,-50.29296875
-59.08203125,-29.78515625,-46.38671875,-41.015625
-32.2265625,-15.625,-44.43359375,-32.71484375
-16.11328125,-32.71484375,-38.57421875,-34.1796875
-34.66796875,-68.84765625,-45.41015625,-43.9453125
-62.5,-83.984375,-49.8046875,-49.8046875
-73.73046875,-57.6171875,-48.828125,-49.31640625
-53.22265625,-15.13671875,-49.8046875,-50.29296875
-31.73828125,-2.44140625,-48.828125,-52.24609375
-42.48046875,-64.94140625,-45.8984375,-60.546875
-73.2421875,-100.5859375,-44.921875,-69.3359375
-86.9140625,-81.0546875,-45.41015625,-67.87109375
-56.640625,-29.78515625,-43.9453125,-59.08203125
-27.34375,9.765625,-46.875,-53.22265625
-32.2265625,-44.921875,-48.33984375,-54.6875
-56.15234375,-97.16796875,-51.7578125,-63.96484375
-70.3125,-71.2890625,-54.6875,-66.40625
-54.6875,-20.99609375,-57.6171875,-60.546875
-32.71484375,-11.71875,-49.8046875,-55.6640625
-34.1796875,-53.22265625,-40.0390625,-53.7109375
-58.10546875,-71.2890625,-43.9453125,-56.640625
-76.171875,-67.87109375,-48.33984375,-56.640625
-59.5703125,-24.90234375,-51.7578125,-47.8515625
-31.73828125,-5.859375,-50.78125,-40.52734375
-28.80859375,-41.015625,-47.36328125,-41.9921875
-52.734375,-63.4765625,-47.8515625,-50.29296875
-78.125,-94.7265625,-50.78125,-53.22265625
-68.84765625,-52.24609375,-49.31640625,-43.45703125
-37.109375,-0.9765625,-41.50390625,-35.15625
-30.76171875,-44.43359375,-41.9921875,-46.38671875
-53.7109375,-87.40234375,-48.33984375,-61.5234375
-66.89453125,-85.44921875,-51.7578125,-59.08203125
-56.15234375,-37.59765625,-52.24609375,-48.828125
-29.296875,-10.25390625,-48.33984375,-42.96875
-17.578125,-27.34375,-47.8515625,-43.45703125
-35.15625,-72.75390625,-49.8046875,-50.78125
-55.6640625,-82.51953125,-55.6640625,-50.78125
-49.8046875,-16.11328125,-52.734375,-36.1328125
-28.80859375,-9.27734375,-43.45703125,-27.83203125
-25.390625,-38.0859375,-38.57421875,-34.1796875
-40.52734375,-63.96484375,-38.0859375,-45.8984375
-67.3828125,-92.7734375,-38.57421875,-48.828125
-71.77734375,-52.24609375,-43.45703125,-40.52734375
-41.015625,-1.46484375,-50.29296875,-32.2265625
-27.34375,-23.92578125,-50.78125,-32.2265625
-44.921875,-74.21875,-52.734375,-39.0625
-69.82421875,-85.44921875,-58.10546875,-44.43359375
-79.58984375,-54.6875,-59.08203125,-43.9453125
-56.640625,-10.7421875,-51.26953125,-40.0390625
-40.0390625,-10.7421875,-46.38671875,-41.015625
-51.26953125,-73.73046875,-49.8046875,-48.33984375
-74.70703125,-99.609375,-50.78125,-60.546875
-83.984375,-67.87109375,-52.734375,-56.640625
-59.08203125,-15.13671875,-51.7578125,-43.45703125
-33.69140625,-14.6484375,-46.875,-38.0859375
-36.62109375,-56.640625,-47.8515625,-48.828125
-62.5,-79.58984375,-57.12890625,-59.08203125
-75.68359375,-53.22265625,-52.734375,-47.8515625
-54.19921875,-3.90625,-40.0390625,-40.52734375
-27.83203125,-17.08984375,-39.55078125,-44.921875
-30.2734375,-52.24609375,-39.0625,-50.78125
-57.12890625,-76.171875,-42.48046875,-55.6640625
-74.21875,-84.9609375,-53.22265625,-56.640625
-58.10546875,-30.76171875,-54.19921875,-55.17578125
-29.296875,-7.8125,-46.38671875,-47.8515625
-33.69140625,-51.7578125,-46.875,-51.7578125
-60.05859375,-83.984375,-45.41015625,-60.05859375
-74.21875,-83.0078125,-48.33984375,-56.640625
-56.15234375,-26.3671875,-51.26953125,-44.43359375
-24.90234375,6.8359375,-43.45703125,-35.64453125
-19.04296875,-23.4375,-40.52734375,-35.15625
-41.50390625,-81.54296875,-39.55078125,-37.109375
-66.40625,-84.47265625,-38.0859375,-41.015625
-54.19921875,-10.25390625,-40.52734375,-35.64453125
-19.04296875,3.41796875,-42.48046875,-29.78515625
-12.6953125,-50.78125,-44.921875,-36.62109375
-39.0625,-92.28515625,-47.36328125,-44.921875
-60.05859375,-83.0078125,-45.41015625,-42.48046875
-48.828125,-30.76171875,-45.8984375,-26.3671875
-16.11328125,8.7890625,-45.41015625,-18.06640625
-2.44140625,-0.48828125,-38.0859375,-18.5546875
-24.90234375,-64.94140625,-39.0625,-28.3203125
-61.03515625,-82.51953125,-43.45703125,-44.43359375
-64.94140625,-46.38671875,-45.41015625,-42.48046875
-36.1328125,-6.34765625,-42.96875,-31.73828125
-24.90234375,5.859375,-41.9921875,-38.57421875
-49.31640625,-75.1953125,-48.33984375,-63.4765625
-80.078125,-101.5625,-56.640625,-73.73046875
-78.125,-31.25,-54.19921875,-62.98828125
-49.8046875,-14.6484375,-49.31640625,-57.12890625
-37.59765625,-24.4140625,-52.734375,-60.05859375
-51.26953125,-64.94140625,-53.7109375,-64.94140625
-78.125,-83.984375,-50.29296875,-70.3125
-92.28515625,-62.98828125,-51.7578125,-62.5
-63.96484375,-19.04296875,-49.8046875,-49.31640625
-36.62109375,-16.11328125,-47.8515625,-47.36328125
-49.8046875,-60.05859375,-51.7578125,-56.15234375
-70.3125,-64.453125,-56.640625,-61.5234375
-73.2421875,-61.03515625,-51.26953125,-51.7578125
-49.8046875,-31.25,-44.921875,-34.66796875
-22.4609375,-5.859375,-43.9453125,-29.296875
-33.203125,-53.22265625,-43.9453125,-41.50390625
-62.98828125,-86.42578125,-48.33984375,-56.640625
-80.56640625,-67.3828125,-49.8046875,-55.17578125
-60.05859375,-32.71484375,-52.734375,-44.921875
-31.25,-11.23046875,-54.19921875,-41.9921875
-34.66796875,-51.26953125,-49.31640625,-46.875
-53.7109375,-81.54296875,-49.31640625,-54.6875
-73.2421875,-68.359375,-55.6640625,-59.5703125
-61.5234375,-10.25390625,-58.10546875,-54.19921875
-34.1796875,-15.625,-55.6640625,-51.26953125
-30.76171875,-61.5234375,-55.17578125,-59.08203125
-52.24609375,-82.03125,-50.29296875,-64.94140625
-75.68359375,-81.0546875,-47.36328125,-62.5
-56.15234375,-36.1328125,-44.921875,-46.38671875
-24.4140625,-6.34765625,-41.9921875,-41.50390625
-21.97265625,-32.71484375,-40.52734375,-53.7109375
-35.15625,-58.59375,-41.015625,-54.6875
-53.7109375,-59.08203125,-43.9453125,-54.19921875
-52.24609375,-36.62109375,-46.38671875,-46.875
-22.94921875,-4.8828125,-46.38671875,-32.71484375
-11.71875,-1.953125,-53.22265625,-37.59765625
-32.71484375,-70.3125,-54.19921875,-44.921875
-57.12890625,-105.46875,-42.48046875,-45.8984375
-53.22265625,-25.87890625,-39.0625,-34.66796875
-23.4375,0.0,-40.0390625,-22.4609375
-13.671875,-27.83203125,-41.50390625,-29.296875
-36.1328125,-71.2890625,-41.50390625,-40.52734375
-64.94140625,-96.6796875,-39.55078125,-44.921875
-73.2421875,-57.6171875,-40.0390625,-39.55078125
-44.43359375,-8.7890625,-44.43359375,-32.71484375
-27.34375,-22.4609375,-48.828125,-44.43359375
-48.828125,-70.80078125,-48.33984375,-60.546875
-75.1953125,-83.0078125,-49.8046875,-61.03515625
-71.77734375,-57.12890625,-51.7578125,-54.19921875
-40.52734375,-22.94921875,-51.26953125,-49.8046875
-20.99609375,-31.73828125,-44.43359375,-49.31640625
-28.3203125,-62.5,-47.36328125,-52.734375
-52.734375,-79.1015625,-55.17578125,-58.10546875
-55.17578125,-60.546875,-52.24609375,-50.78125
-33.203125,-10.25390625,-46.38671875,-42.96875
-34.1796875,-1.46484375,-43.45703125,-52.734375
-44.921875,-51.7578125,-54.19921875,-62.01171875
-62.5,-87.890625,-62.5,-68.84765625
-74.21875,-68.84765625,-58.10546875,-62.5
-55.17578125,8.7890625,-54.19921875,-58.10546875
-33.203125,1.46484375,-53.22265625,-54.19921875
-41.9921875,-64.453125,-51.7578125,-58.59375
-69.82421875,-78.61328125,-51.26953125,-72.75390625
-82.03125,-70.80078125,-48.828125,-63.4765625
-62.01171875,-17.08984375,-50.78125,-52.24609375
-28.80859375,-4.39453125,-51.7578125,-44.43359375
-21.97265625,-47.8515625,-48.828125,-43.45703125
-42.48046875,-76.66015625,-49.31640625,-48.828125
-58.10546875,-68.84765625,-48.828125,-45.41015625
-46.38671875,-21.97265625,-46.875,-34.66796875
-24.90234375,3.41796875,-40.52734375,-25.390625
-20.5078125,-20.01953125,-40.52734375,-28.3203125
-41.015625,-84.9609375,-47.8515625,-34.1796875
-62.98828125,-96.6796875,-45.8984375,-35.15625
-54.6875,-34.66796875,-41.9921875,-31.25
-25.390625,0.9765625,-45.8984375,-31.73828125
-10.7421875,-20.99609375,-46.38671875,-36.62109375
-30.2734375,-64.453125,-40.0390625,-40.52734375
-63.4765625,-81.0546875,-41.50390625,-49.8046875
-63.4765625,-29.78515625,-43.9453125,-48.828125
-35.64453125,6.34765625,-47.8515625,-40.52734375
-25.87890625,-26.3671875,-45.8984375,-35.15625
-44.43359375,-72.75390625,-44.43359375,-37.59765625
-66.89453125,-64.453125,-46.875,-42.48046875
-68.359375,-42.48046875,-45.41015625,-41.9921875
-40.0390625,-24.90234375,-43.9453125,-38.57421875
-21.97265625,-26.85546875,-40.0390625,-37.109375
-44.43359375,-72.75390625,-39.0625,-46.38671875
-67.3828125,-89.35546875,-36.62109375,-49.31640625
-68.84765625,-60.546875,-42.96875,-46.875
-45.8984375,-25.87890625,-52.24609375,-41.50390625
-28.80859375,-22.94921875,-44.921875,-44.43359375
-41.015625,-60.05859375,-41.50390625,-50.29296875
-63.96484375,-102.05078125,-48.828125,-49.8046875
-68.84765625,-53.7109375,-57.12890625,-45.8984375
-42.96875,5.859375,-59.5703125,-40.0390625
-23.92578125,-23.92578125,-48.828125,-42.96875
-34.1796875,-75.68359375,-46.38671875,-53.22265625
-58.10546875,-93.75,-53.7109375,-61.03515625
-67.3828125,-64.94140625,-57.12890625,-56.15234375
-46.875,-17.578125,-55.17578125,-47.8515625
-22.4609375,-1.46484375,-47.8515625,-41.50390625
-32.71484375,-43.9453125,-49.8046875,-47.36328125
-65.91796875,-91.30859375,-62.5,-62.98828125
-76.171875,-66.89453125,-63.4765625,-60.546875
-54.19921875,-5.37109375,-62.01171875,-54.6875
-27.34375,6.34765625,-60.546875,-49.8046875
-27.83203125,-24.90234375,-53.7109375,-52.734375
-54.19921875,-72.75390625,-53.22265625,-63.96484375
-77.1484375,-103.515625,-49.31640625,-58.59375
-58.10546875,-38.57421875,-49.31640625,-48.33984375
-23.92578125,3.90625,-48.33984375,-46.38671875
-20.5078125,-36.62109375,-46.38671875,-48.828125
-39.55078125,-80.078125,-49.31640625,-54.6875
-56.15234375,-80.078125,-50.78125,-49.31640625
-43.45703125,-26.3671875,-54.19921875,-41.50390625
-16.11328125,-6.34765625,-51.7578125,-38.57421875
-19.53125,-40.0390625,-50.29296875,-39.55078125
-44.921875,-78.125,-43.9453125,-47.36328125
-68.359375,-70.3125,-38.0859375,-49.31640625
-66.40625,-39.0625,-42.48046875,-40.52734375
-36.62109375,-22.94921875,-42.96875,-34.66796875
-23.92578125,-27.34375,-45.41015625,-39.55078125
-43.9453125,-85.9375,-50.29296875,-48.33984375
-65.91796875,-95.703125,-49.8046875,-50.78125
-59.5703125,-41.015625,-48.33984375,-41.9921875
-30.76171875,-1.953125,-49.31640625,-38.0859375
-24.90234375,-16.6015625,-44.921875,-46.38671875
-46.875,-71.2890625,-44.43359375,-58.59375
-75.68359375,-99.12109375,-51.7578125,-66.89453125
-79.1015625,-51.7578125,-51.7578125,-56.640625
-49.31640625,5.859375,-44.43359375,-46.875
-33.69140625,-23.92578125,-45.41015625,-57.6171875
-48.33984375,-83.0078125,-53.7109375,-65.91796875
-77.1484375,-87.890625,-57.12890625,-66.40625
-84.9609375,-57.6171875,-62.01171875,-66.89453125
-56.640625,-11.71875,-66.40625,-60.546875
-34.1796875,-2.44140625,-64.94140625,-54.6875
-41.9921875,-60.05859375,-51.26953125,-59.08203125
-73.2421875,-93.75,-45.8984375,-63.4765625
-88.37890625,-73.2421875,-50.78125,-58.59375
-64.453125,-27.34375,-52.24609375,-48.828125
-39.55078125,-5.37109375,-46.38671875,-43.45703125
-39.55078125,-38.0859375,-42.96875,-47.36328125
-64.453125,-94.7265625,-49.31640625,-56.15234375
-74.70703125,-84.9609375,-47.36328125,-41.9921875
-50.78125,-16.6015625,-43.9453125,-31.25
-27.34375,-4.39453125,-48.828125,-40.0390625
-30.76171875,-52.734375,-49.8046875,-45.41015625
-54.6875,-79.58984375,-46.38671875,-50.29296875
-69.82421875,-73.73046875,-46.38671875,-49.31640625
-51.7578125,-19.53125,-48.828125,-41.015625
-26.85546875,2.9296875,-43.45703125,-36.1328125
-25.390625,-44.43359375,-40.0390625,-35.15625
-44.921875,-63.4765625,-42.96875,-39.55078125
-69.82421875,-58.59375,-46.38671875,-41.015625
-62.98828125,-43.9453125,-56.640625,-39.55078125
-33.203125,-14.16015625,-57.12890625,-35.64453125
-23.92578125,-34.66796875,-50.78125,-34.66796875
-46.875,-85.44921875,-50.78125,-49.31640625
-66.40625,-79.1015625,-44.921875,-51.26953125
-57.6171875,-29.296875,-35.15625,-39.55078125
-35.15625,-12.20703125,-34.1796875,-37.59765625
-27.34375,-27.83203125,-32.2265625,-45.41015625
-45.8984375,-68.84765625,-34.66796875,-57.12890625
-71.77734375,-91.796875,-41.50390625,-58.10546875
-71.77734375,-39.0625,-46.38671875,-50.78125
-36.1328125,10.25390625,-43.9453125,-42.96875
-23.92578125,-17.08984375,-38.57421875,-42.48046875
-47.8515625,-86.9140625,-41.50390625,-52.734375
-81.0546875,-108.3984375,-52.734375,-60.05859375
-82.03125,-48.828125,-54.6875,-53.7109375
-46.875,-0.48828125,-51.7578125,-47.36328125
-31.25,-14.6484375,-56.640625,-54.6875
-45.8984375,-69.3359375,-56.640625,-62.01171875
-69.82421875,-87.890625,-51.26953125,-60.05859375
-78.125,-49.31640625,-52.24609375,-57.12890625
-55.17578125,-10.25390625,-58.10546875,-56.15234375
-33.203125,-11.23046875,-62.01171875,-55.17578125
-35.15625,-42.96875,-55.17578125,-58.59375
-63.96484375,-91.796875,-50.78125,-62.98828125
-83.0078125,-62.98828125,-45.8984375,-57.12890625
-58.59375,-2.9296875,-41.9921875,-49.8046875
-35.64453125,-30.76171875,-41.9921875,-45.8984375
-43.9453125,-61.5234375,-38.57421875,-52.734375
-62.98828125,-66.40625,-43.45703125,-58.10546875
-68.359375,-55.6640625,-46.875,-51.7578125
-46.38671875,-21.97265625,-44.43359375,-40.0390625
-19.53125,-13.671875,-45.8984375,-37.109375
-20.99609375,-48.33984375,-41.50390625,-45.41015625
-49.31640625,-71.2890625,-40.52734375,-49.31640625
-66.40625,-52.734375,-44.921875,-47.8515625
-51.7578125,-28.80859375,-48.828125,-44.921875
-28.80859375,-24.4140625,-50.29296875,-42.48046875
-33.69140625,-45.8984375,-45.8984375,-49.8046875
-55.6640625,-83.984375,-43.45703125,-56.640625
-73.2421875,-76.66015625,-47.8515625,-53.7109375
-60.05859375,-16.11328125,-48.828125,-42.96875
-33.203125,-17.578125,-47.8515625,-39.55078125
-28.80859375,-43.9453125,-49.31640625,-42.96875
-51.7578125,-79.58984375,-48.33984375,-48.828125
-73.73046875,-90.8203125,-43.45703125,-45.41015625
-62.5,-44.43359375,-44.921875,-39.0625
-30.76171875,11.23046875,-46.38671875,-39.55078125
-18.5546875,-34.1796875,-43.45703125,-39.55078125
-44.921875,-108.88671875,-40.52734375,-50.29296875
-72.265625,-96.6796875,-39.0625,-52.24609375
-65.91796875,-47.36328125,-41.015625,-45.8984375
-37.59765625,-20.99609375,-42.48046875,-37.59765625
-24.4140625,-29.78515625,-38.0859375,-37.109375
-46.875,-81.0546875,-39.0625,-51.26953125
-78.125,-94.23828125,-40.0390625,-56.640625
-74.70703125,-32.2265625,-36.62109375,-48.33984375
-44.43359375,-11.23046875,-39.55078125,-41.50390625
-27.34375,-25.390625,-45.8984375,-45.41015625
-48.33984375,-55.6640625,-41.015625,-51.7578125
-83.49609375,-104.4921875,-38.0859375,-62.01171875
-89.35546875,-82.51953125,-45.41015625,-63.4765625
-56.15234375,-16.6015625,-42.96875,-54.6875
-33.203125,-22.4609375,-45.41015625,-53.7109375
-50.78125,-76.171875,-54.6875,-61.03515625
-76.66015625,-97.16796875,-52.734375,-63.4765625
-78.61328125,-62.5,-49.8046875,-56.640625
-50.78125,-15.13671875,-49.31640625,-49.31640625
-28.80859375,-15.13671875,-44.43359375,-45.8984375
-38.57421875,-59.5703125,-44.43359375,-48.33984375
-64.453125,-79.1015625,-51.26953125,-52.24609375
-70.80078125,-41.50390625,-53.7109375,-47.8515625
-47.8515625,-8.30078125,-50.29296875,-41.9921875
-28.3203125,-30.2734375,-47.36328125,-42.48046875
-33.69140625,-64.453125,-46.38671875,-43.45703125
-61.03515625,-86.42578125,-47.8515625,-46.38671875
-73.2421875,-69.82421875,-50.78125,-51.7578125
-47.8515625,-12.20703125,-49.31640625,-48.828125
-17.578125,-1.46484375,-47.8515625,-40.52734375
-21.484375,-42.96875,-45.8984375,-41.9921875
-50.29296875,-76.66015625,-45.41015625,-48.33984375
-70.3125,-73.2421875,-47.8515625,-51.7578125
-55.17578125,-17.578125,-50.78125,-42.96875
-27.34375,11.23046875,-46.38671875,-37.109375
-26.85546875,-45.41015625,-41.9921875,-43.9453125
-48.828125,-97.16796875,-45.41015625,-52.24609375
-64.453125,-85.44921875,-43.45703125,-50.78125
-51.26953125,-34.1796875,-42.96875,-39.0625
-27.34375,-6.34765625,-47.36328125,-32.71484375
-23.92578125,-42.96875,-41.015625,-33.69140625
-51.7578125,-84.9609375,-39.0625,-45.8984375
-74.21875,-82.51953125,-44.43359375,-53.7109375
-59.08203125,-41.015625,-41.50390625,-40.52734375
-28.3203125,-19.53125,-41.9921875,-32.71484375
-29.296875,-44.43359375,-45.41015625,-37.59765625
-56.640625,-74.21875,-44.43359375,-46.875
-79.1015625,-101.07421875,-41.50390625,-54.19921875
-73.73046875,-62.5,-40.52734375,-50.78125
-39.55078125,-11.23046875,-36.1328125,-41.50390625
-28.3203125,-32.2265625,-35.64453125,-41.9921875
-50.78125,-65.91796875,-42.48046875,-52.24609375
-74.70703125,-71.77734375,-47.8515625,-59.5703125
-79.1015625,-51.7578125,-49.8046875,-59.08203125
-49.8046875,-17.578125,-51.26953125,-53.22265625
-29.78515625,-20.5078125,-53.22265625,-46.38671875
-51.7578125,-67.3828125,-51.7578125,-52.24609375
-78.125,-86.9140625,-43.45703125,-62.98828125
-77.63671875,-22.4609375,-39.0625,-54.6875
-44.921875,4.39453125,-43.9453125,-40.52734375
-29.296875,-25.390625,-48.33984375,-44.921875
-41.9921875,-61.5234375,-45.8984375,-54.19921875
-64.453125,-85.44921875,-44.921875,-55.6640625
-69.82421875,-51.26953125,-48.828125,-52.734375
-40.52734375,-2.44140625,-52.734375,-47.8515625
-21.484375,-4.39453125,-54.19921875,-52.734375
-35.15625,-51.26953125,-57.12890625,-62.01171875
-61.5234375,-73.73046875,-55.6640625,-62.5
-75.1953125,-76.171875,-47.8515625,-58.10546875
-55.6640625,-25.390625,-47.36328125,-47.8515625
-27.34375,1.953125,-43.45703125,-38.0859375
-31.25,-54.6875,-41.50390625,-48.828125
-56.640625,-83.984375,-41.015625,-61.03515625
-70.80078125,-76.171875,-45.41015625,-55.6640625
-48.33984375,-36.1328125,-47.8515625,-41.9921875
-17.08984375,-14.16015625,-48.33984375,-36.1328125
-16.11328125,-42.96875,-52.734375,-37.59765625
-36.62109375,-84.9609375,-54.19921875,-42.48046875
-57.12890625,-82.51953125,-54.6875,-45.8984375
-46.875,-23.4375,-50.29296875,-39.0625
-16.6015625,-5.37109375,-44.921875,-37.109375
-20.01953125,-38.57421875,-42.96875,-45.41015625
-56.640625,-63.96484375,-49.31640625,-54.19921875
-75.1953125,-73.73046875,-46.875,-52.24609375
-66.40625,-53.22265625,-44.43359375,-51.7578125
-41.015625,-20.5078125,-47.8515625,-44.43359375
-25.87890625,-25.390625,-45.8984375,-43.45703125
-43.45703125,-73.73046875,-51.7578125,-52.24609375
-69.82421875,-86.9140625,-53.7109375,-53.7109375
-65.91796875,-32.2265625,-47.36328125,-47.36328125
-34.1796875,0.9765625,-44.921875,-41.50390625
-28.80859375,-20.99609375,-46.38671875,-48.828125
-54.19921875,-69.3359375,-48.33984375,-58.59375
-75.68359375,-77.1484375,-49.31640625,-59.08203125
-75.1953125,-19.04296875,-49.31640625,-57.12890625
-46.38671875,-13.18359375,-49.8046875,-53.22265625
-26.85546875,-32.71484375,-43.9453125,-47.36328125
-41.015625,-48.828125,-41.015625,-57.6171875
-68.84765625,-84.9609375,-44.921875,-63.96484375
-75.1953125,-61.03515625,-44.43359375,-50.78125
-45.41015625,-20.99609375,-49.8046875,-40.0390625
-22.94921875,-20.01953125,-62.01171875,-41.9921875
-39.55078125,-60.546875,-62.01171875,-48.828125
-68.84765625,-82.51953125,-55.6640625,-51.26953125
-76.66015625,-58.59375,-53.22265625,-46.875
-50.29296875,-6.34765625,-45.41015625,-38.0859375
-30.76171875,0.48828125,-46.38671875,-35.15625
-48.828125,-78.125,-49.8046875,-44.921875
-78.125,-110.83984375,-43.45703125,-54.6875
-87.40234375,-79.1015625,-47.36328125,-49.31640625
-62.5,-29.78515625,-53.22265625,-40.0390625
-37.109375,-11.23046875,-49.8046875,-41.015625
-40.0390625,-46.875,-47.36328125,-43.45703125
-67.3828125,-98.6328125,-49.31640625,-52.24609375
-81.0546875,-87.890625,-43.9453125,-54.19921875
-59.5703125,-23.92578125,-42.48046875,-43.9453125
-35.64453125,-20.01953125,-49.31640625,-40.52734375
-34.1796875,-58.59375,-46.38671875,-47.8515625
-57.12890625,-72.265625,-41.50390625,-57.6171875
-75.1953125,-78.125,-42.96875,-56.15234375
-58.10546875,-42.96875,-47.36328125,-50.29296875
-24.4140625,-14.16015625,-47.36328125,-43.45703125
-20.99609375,-44.921875,-42.96875,-40.52734375
-54.19921875,-88.37890625,-42.48046875,-47.8515625
-69.82421875,-79.1015625,-41.50390625,-42.96875
-51.26953125,-22.4609375,-36.62109375,-32.71484375
-21.97265625,3.41796875,-36.62109375,-32.2265625
-19.04296875,-25.390625,-40.0390625,-36.62109375
-46.875,-91.796875,-42.48046875,-45.8984375
-70.80078125,-89.84375,-49.8046875,-53.22265625
-67.87109375,-19.04296875,-52.24609375,-49.8046875
-41.9921875,-16.6015625,-49.8046875,-43.45703125
-30.2734375,-42.48046875,-48.828125,-43.45703125
-50.29296875,-64.94140625,-49.8046875,-47.8515625
-76.171875,-84.9609375,-54.6875,-52.734375
-76.171875,-38.57421875,-54.6875,-43.45703125
-42.48046875,-9.765625,-46.38671875,-36.62109375
-31.25,-20.99609375,-47.8515625,-44.43359375
-49.8046875,-63.96484375,-48.33984375,-52.734375
-71.2890625,-91.796875,-51.7578125,-54.19921875
-75.68359375,-57.6171875,-55.17578125,-48.33984375
-49.8046875,-10.25390625,-54.6875,-44.43359375
-29.296875,-3.90625,-57.12890625,-49.8046875
-40.0390625,-66.40625,-60.05859375,-58.10546875
-66.40625,-98.6328125,-57.6171875,-63.4765625
-68.359375,-63.96484375,-48.33984375,-55.6640625
-36.62109375,-20.5078125,-43.45703125,-45.41015625
-21.484375,-20.01953125,-43.9453125,-41.015625
-41.015625,-62.01171875,-44.43359375,-45.41015625
-64.453125,-88.37890625,-44.921875,-52.734375
-79.1015625,-68.359375,-50.29296875,-55.17578125
-57.12890625,-15.13671875,-51.7578125,-47.36328125
-26.3671875,-11.23046875,-46.38671875,-41.50390625
-31.73828125,-49.31640625,-42.96875,-48.33984375
-57.6171875,-65.91796875,-51.7578125,-50.29296875
-72.265625,-78.61328125,-61.5234375,-52.24609375
-49.31640625,-34.1796875,-59.5703125,-54.6875
-21.484375,-10.7421875,-49.8046875,-41.9921875
-31.73828125,-78.61328125,-49.31640625,-40.52734375
-57.12890625,-96.19140625,-55.6640625,-51.26953125
-71.2890625,-73.2421875,-52.24609375,-51.7578125
-50.78125,-24.4140625,-48.33984375,-45.8984375
-20.5078125,-2.44140625,-48.828125,-39.55078125
-20.01953125,-48.33984375,-48.828125,-43.45703125
-42.96875,-80.078125,-47.8515625,-51.7578125
-63.96484375,-74.21875,-48.33984375,-52.24609375
-55.17578125,-20.5078125,-55.17578125,-48.828125
-24.4140625,-3.90625,-52.24609375,-40.52734375
-20.5078125,-49.31640625,-47.36328125,-43.9453125
-48.33984375,-86.9140625,-48.828125,-53.7109375
-72.265625,-86.42578125,-48.33984375,-53.22265625
-61.03515625,-19.53125,-41.50390625,-45.8984375
-36.1328125,1.46484375,-38.0859375,-40.0390625
-29.296875,-44.921875,-40.52734375,-37.59765625
-42.96875,-74.70703125,-35.15625,-47.8515625
-65.4296875,-75.1953125,-34.66796875,-47.36328125
-68.84765625,-33.203125,-45.41015625,-41.015625
-39.0625,-3.41796875,-50.78125,-41.015625
-20.99609375,-2.44140625,-45.8984375,-39.0625
-40.0390625,-59.5703125,-42.96875,-44.921875
-65.4296875,-103.02734375,-47.8515625,-52.24609375
-66.40625,-44.43359375,-47.8515625,-49.31640625
-41.015625,0.9765625,-41.9921875,-43.45703125
-26.85546875,-20.01953125,-42.48046875,-46.875
-43.45703125,-70.3125,-46.875,-56.15234375
-65.91796875,-90.33203125,-47.36328125,-63.96484375
-65.4296875,-48.33984375,-47.8515625,-57.12890625
-39.0625,-1.953125,-47.8515625,-41.9921875
-23.4375,-15.13671875,-49.31640625,-37.109375
-37.109375,-49.31640625,-51.7578125,-48.828125
-66.40625,-60.05859375,-51.26953125,-58.10546875
-80.56640625,-65.4296875,-43.9453125,-54.6875
-55.17578125,-27.34375,-42.96875,-47.8515625
-30.2734375,-2.9296875,-47.36328125,-47.36328125
-37.59765625,-55.6640625,-46.38671875,-56.15234375
-70.80078125,-93.26171875,-52.734375,-65.91796875
-81.0546875,-67.3828125,-53.22265625,-59.08203125
-51.7578125,-13.671875,-44.921875,-50.78125
-29.296875,-7.8125,-42.96875,-48.33984375
-39.0625,-53.22265625,-50.78125,-51.26953125
-64.94140625,-93.26171875,-53.22265625,-64.94140625
-79.1015625,-72.75390625,-46.38671875,-63.96484375
-58.59375,0.9765625,-50.78125,-51.26953125
-27.83203125,1.46484375,-47.36328125,-48.33984375
-25.87890625,-65.91796875,-42.96875,-55.17578125
-52.24609375,-88.8671875,-55.6640625,-61.03515625
-69.82421875,-74.70703125,-56.15234375,-56.640625
-51.7578125,-14.6484375,-42.48046875,-46.38671875
-24.90234375,5.37109375,-37.59765625,-46.38671875
-21.97265625,-35.15625,-37.59765625,-51.26953125
-44.921875,-72.265625,-41.015625,-55.6640625
-69.82421875,-79.1015625,-43.45703125,-52.734375
-62.98828125,-35.15625,-40.52734375,-43.45703125
-27.34375,-9.765625,-43.45703125,-32.2265625
-13.671875,-15.625,-58.10546875,-33.69140625
-43.45703125,-79.58984375,-55.6640625,-47.8515625
-69.82421875,-94.7265625,-46.38671875,-53.22265625
-58.59375,-17.578125,-50.29296875,-44.43359375
-27.83203125,-14.6484375,-42.48046875,-32.2265625
-22.4609375,-48.33984375,-39.55078125,-34.1796875
-42.48046875,-75.68359375,-49.31640625,-46.38671875
-67.87109375,-84.9609375,-49.8046875,-55.17578125
-74.21875,-49.31640625,-47.36328125,-57.12890625
-43.9453125,-10.7421875,-48.828125,-52.734375
-29.78515625,-35.64453125,-47.8515625,-55.17578125
-46.875,-73.73046875,-41.015625,-58.59375
-72.265625,-78.61328125,-44.43359375,-66.40625
-82.03125,-64.453125,-52.734375,-69.82421875
-50.78125,-28.3203125,-51.26953125,-58.10546875
-30.2734375,-21.484375,-60.546875,-61.03515625
-45.8984375,-64.94140625,-62.98828125,-65.91796875
-72.75390625,-88.37890625,-59.5703125,-73.73046875
-80.56640625,-53.7109375,-60.05859375,-72.75390625
-50.29296875,-19.53125,-58.10546875,-60.05859375
-30.2734375,-21.97265625,-53.7109375,-58.10546875
-44.43359375,-63.4765625,-51.26953125,-61.5234375
-64.453125,-89.84375,-56.640625,-60.05859375
-66.40625,-49.31640625,-53.22265625,-43.45703125
-41.50390625,1.953125,-46.875,-22.4609375
-21.484375,-21.97265625,-47.36328125,-25.390625
-38.0859375,-73.2421875,-53.7109375,-42.48046875
-65.4296875,-86.42578125,-61.5234375,-49.31640625
-73.73046875,-70.3125,-58.59375,-46.38671875
-57.6171875,-18.06640625,-45.41015625,-39.0625
-29.78515625,2.9296875,-39.0625,-34.1796875
-29.296875,-49.31640625,-45.8984375,-41.50390625
-53.7109375,-85.44921875,-47.8515625,-48.33984375
