TP9,AF7,AF8,TP10
174.8046875,-129.8828125,662.109375,79.1015625
146.484375,999.51171875,999.51171875,82.51953125
-85.44921875,610.3515625,229.98046875,30.2734375
-285.64453125,-803.7109375,-1000.0,-8.7890625
-186.5234375,-1000.0,-794.921875,18.5546875
89.84375,60.546875,533.203125,80.56640625
130.37109375,999.51171875,999.51171875,86.9140625
-91.30859375,347.65625,349.12109375,25.87890625
-286.1328125,-921.38671875,-995.60546875,-15.625
-187.5,-1000.0,-966.796875,3.41796875
98.6328125,-281.73828125,314.94140625,43.45703125
178.22265625,997.55859375,999.51171875,55.6640625
-10.7421875,985.3515625,614.74609375,5.37109375
-234.86328125,-268.06640625,-740.234375,-46.38671875
-209.9609375,-1000.0,-1000.0,-32.2265625
83.984375,-177.24609375,183.59375,29.78515625
185.546875,975.09765625,999.51171875,49.31640625
31.25,999.51171875,839.35546875,0.0
-195.3125,137.20703125,-409.1796875,-50.29296875
-234.86328125,-1000.0,-1000.0,-41.9921875
47.8515625,-450.1953125,-43.45703125,12.6953125
189.453125,916.50390625,999.51171875,43.9453125
42.48046875,999.51171875,925.78125,11.71875
-209.47265625,-28.80859375,-276.85546875,-42.96875
-279.296875,-1000.0,-1000.0,-48.828125
17.578125,-370.60546875,-144.53125,4.8828125
196.2890625,907.71484375,999.51171875,43.45703125
59.08203125,999.51171875,999.51171875,15.13671875
-170.8984375,187.5,-72.265625,-50.29296875
-277.83203125,-1000.0,-1000.0,-69.3359375
-31.73828125,-736.328125,-229.4921875,-18.06640625
192.3828125,634.27734375,982.421875,19.53125
97.16796875,999.51171875,999.51171875,-6.34765625
-166.015625,155.76171875,60.05859375,-57.12890625
-295.41015625,-1000.0,-1000.0,-70.3125
-55.17578125,-995.60546875,-431.15234375,-25.87890625
175.78125,221.19140625,874.0234375,22.94921875
104.00390625,999.51171875,999.51171875,10.7421875
-113.28125,643.06640625,168.45703125,-49.8046875
-270.5078125,-745.60546875,-1000.0,-85.44921875
-91.30859375,-1000.0,-686.03515625,-55.17578125
179.19921875,206.0546875,665.52734375,5.859375
136.23046875,999.51171875,999.51171875,11.71875
-117.1875,159.66796875,124.51171875,-46.38671875
-288.0859375,-996.09375,-1000.0,-76.171875
-138.671875,-1000.0,-982.421875,-36.1328125
129.39453125,-265.13671875,222.65625,15.625
158.69140625,999.51171875,999.51171875,19.53125
-80.56640625,494.62890625,151.3671875,-46.38671875
-276.85546875,-886.71875,-1000.0,-91.30859375
-164.55078125,-1000.0,-1000.0,-62.01171875
99.12109375,-168.9453125,-34.1796875,-12.6953125
152.83203125,962.40234375,999.51171875,4.39453125
-49.31640625,999.51171875,267.578125,-44.921875
-255.37109375,196.77734375,-978.02734375,-83.0078125
-206.0546875,-1000.0,-1000.0,-57.12890625
78.61328125,-442.3828125,-192.87109375,4.8828125
184.5703125,976.5625,999.51171875,25.390625
-11.71875,991.2109375,397.4609375,-34.66796875
-248.046875,-273.4375,-921.875,-87.890625
-256.8359375,-1000.0,-1000.0,-69.82421875
13.18359375,-367.67578125,-222.65625,-20.5078125
156.25,895.01953125,999.51171875,5.37109375
-2.44140625,999.51171875,640.625,-27.34375
-246.58203125,135.25390625,-708.49609375,-80.078125
-284.1796875,-1000.0,-1000.0,-83.0078125
1.953125,-568.84765625,-243.1640625,-21.97265625
173.33984375,810.05859375,999.51171875,15.625
36.1328125,999.51171875,866.69921875,-10.7421875
-209.9609375,107.421875,-416.9921875,-56.640625
-284.66796875,-1000.0,-1000.0,-60.05859375
-33.203125,-810.05859375,-316.40625,-17.578125
168.45703125,522.94921875,962.40234375,22.94921875
81.0546875,999.51171875,999.51171875,7.32421875
-158.203125,163.0859375,-171.875,-53.7109375
-284.1796875,-1000.0,-1000.0,-70.80078125
-75.1953125,-946.77734375,-515.625,-32.71484375
166.015625,340.33203125,806.640625,16.6015625
115.72265625,999.51171875,999.51171875,13.671875
-148.4375,153.80859375,26.3671875,-49.8046875
-290.0390625,-1000.0,-1000.0,-70.3125
-76.171875,-994.62890625,-673.828125,-27.83203125
176.26953125,213.8671875,652.34375,16.11328125
134.765625,999.51171875,999.51171875,3.90625
-97.16796875,447.265625,134.765625,-49.31640625
-264.16015625,-863.76953125,-1000.0,-76.171875
-145.99609375,-1000.0,-938.96484375,-47.8515625
107.421875,-152.83203125,304.6875,3.90625
125.48828125,999.51171875,999.51171875,6.34765625
-85.9375,947.75390625,161.1328125,-41.9921875
-260.25390625,-286.62109375,-1000.0,-71.2890625
-164.0625,-1000.0,-1000.0,-48.33984375
125.9765625,-224.609375,62.98828125,8.7890625
186.03515625,999.51171875,999.51171875,18.06640625
-49.31640625,614.2578125,220.21484375,-45.8984375
-256.34765625,-772.94921875,-1000.0,-81.0546875
-181.640625,-1000.0,-1000.0,-52.734375
91.796875,-184.08203125,-116.2109375,-4.39453125
183.10546875,998.53515625,999.51171875,12.6953125
-6.8359375,999.51171875,420.8984375,-24.90234375
-236.328125,-137.20703125,-903.3203125,-76.66015625
-210.44921875,-1000.0,-1000.0,-74.21875
88.8671875,-140.625,-152.83203125,-11.23046875
177.734375,999.51171875,999.51171875,13.18359375
-10.7421875,999.51171875,534.66796875,-24.90234375
-225.09765625,-140.13671875,-800.29296875,-70.3125
-241.69921875,-1000.0,-1000.0,-68.84765625
39.0625,-338.8671875,-237.79296875,-18.5546875
186.03515625,911.1328125,999.51171875,11.23046875
32.2265625,999.51171875,722.16796875,-19.04296875
-205.078125,145.5078125,-603.515625,-68.359375
-261.71875,-1000.0,-1000.0,-71.77734375
-20.99609375,-901.85546875,-348.14453125,-28.3203125
148.4375,399.90234375,958.984375,3.90625
60.546875,999.51171875,975.5859375,-10.25390625
-175.78125,133.30078125,-253.90625,-52.24609375
-278.3203125,-1000.0,-1000.0,-65.4296875
-43.9453125,-1000.0,-574.21875,-25.87890625
157.2265625,-52.734375,785.15625,16.11328125
81.0546875,999.51171875,999.51171875,-4.39453125
-152.83203125,281.25,-174.31640625,-58.59375
-271.484375,-1000.0,-1000.0,-85.44921875
-76.66015625,-1000.0,-723.6328125,-59.08203125
157.71484375,83.0078125,588.8671875,-7.32421875
109.375,999.51171875,999.51171875,-6.34765625
-131.8359375,973.14453125,9.765625,-57.12890625
-282.71484375,-244.140625,-1000.0,-85.44921875
-135.7421875,-1000.0,-911.62109375,-48.33984375
131.34765625,113.28125,333.49609375,-1.953125
133.30078125,999.51171875,999.51171875,-2.9296875
-115.72265625,365.234375,114.74609375,-51.26953125
-292.48046875,-928.22265625,-1000.0,-86.42578125
-153.3203125,-1000.0,-1000.0,-60.546875
109.86328125,-121.58203125,87.40234375,-7.32421875
128.90625,999.51171875,999.51171875,4.8828125
-87.890625,645.01953125,184.5703125,-50.78125
-275.87890625,-756.34765625,-1000.0,-94.7265625
-183.10546875,-1000.0,-1000.0,-68.359375
96.19140625,22.94921875,-21.97265625,-8.30078125
150.87890625,999.51171875,999.51171875,1.953125
-54.19921875,560.05859375,258.7890625,-51.7578125
-263.671875,-778.80859375,-981.4453125,-91.796875
-211.9140625,-1000.0,-1000.0,-74.70703125
80.56640625,-184.5703125,-187.5,-32.2265625
176.26953125,998.53515625,999.51171875,-7.32421875
-8.30078125,999.51171875,492.1875,-49.8046875
-228.515625,-117.67578125,-842.28515625,-105.46875
-236.328125,-1000.0,-1000.0,-106.4453125
59.5703125,-404.78515625,-220.21484375,-58.10546875
200.1953125,896.97265625,999.51171875,-20.01953125
55.17578125,999.51171875,748.046875,-49.8046875
-205.56640625,23.4375,-576.171875,-116.69921875
-333.984375,-1000.0,-1000.0,-125.0
-98.14453125,-853.515625,-247.55859375,-76.66015625
81.54296875,437.98828125,999.51171875,-40.0390625
-15.13671875,999.51171875,967.28515625,-63.4765625
-245.60546875,193.84765625,-233.3984375,-135.7421875
-344.23828125,-1000.0,-1000.0,-162.59765625
-95.703125,-430.17578125,-290.52734375,-126.46484375
75.68359375,890.625,950.68359375,-100.5859375
-51.26953125,999.51171875,999.51171875,-122.55859375
-261.23046875,477.5390625,18.5546875,-185.546875
-396.484375,-828.61328125,-1000.0,-223.14453125
-229.98046875,-1000.0,-644.53125,-206.54296875
-24.90234375,-230.95703125,692.87109375,-172.8515625
-57.12890625,999.51171875,999.51171875,-173.33984375
-267.578125,199.21875,76.66015625,-219.23828125
-397.4609375,-1000.0,-1000.0,-243.1640625
-234.375,-1000.0,-792.48046875,-225.5859375
-10.7421875,-191.89453125,520.01953125,-191.40625
-7.32421875,999.51171875,999.51171875,-175.78125
-232.421875,495.1171875,119.140625,-230.46875
-412.109375,-949.70703125,-1000.0,-283.69140625
-267.578125,-1000.0,-963.37890625,-236.328125
0.9765625,215.33203125,269.53125,-149.4140625
17.08984375,999.51171875,999.51171875,-140.13671875
-214.35546875,353.515625,107.421875,-196.2890625
-393.06640625,-910.15625,-1000.0,-216.796875
-291.015625,-1000.0,-1000.0,-187.01171875
-23.92578125,-197.75390625,-121.58203125,-137.20703125
48.33984375,999.51171875,999.51171875,-125.0
-144.04296875,999.51171875,208.49609375,-176.26953125
-323.73046875,-163.57421875,-1000.0,-212.890625
-278.80859375,-1000.0,-1000.0,-198.73046875
-0.9765625,-187.98828125,-210.9375,-154.296875
103.515625,999.51171875,999.51171875,-66.89453125
-108.3984375,998.046875,368.65234375,-452.1484375
-329.58984375,-183.59375,-936.5234375,-716.30859375
-288.57421875,-1000.0,-1000.0,-426.26953125
-18.5546875,-800.29296875,-284.66796875,-272.4609375
109.375,502.9296875,999.51171875,-223.14453125
-27.83203125,999.51171875,502.9296875,-210.9375
-228.515625,-1.46484375,-844.7265625,-193.84765625
-238.76953125,-1000.0,-1000.0,-152.34375
1.953125,-434.08203125,-286.62109375,-97.65625
138.18359375,893.5546875,999.51171875,-56.15234375
6.8359375,999.51171875,861.81640625,-60.05859375
-171.38671875,933.59375,-418.45703125,-91.796875
-252.9296875,-454.1015625,-1000.0,-113.28125
-54.19921875,-955.56640625,-276.3671875,-46.875
150.87890625,573.73046875,949.70703125,35.15625
27.83203125,999.51171875,999.51171875,-479.98046875
-210.44921875,152.34375,20.01953125,-824.70703125
-281.25,-1000.0,-1000.0,-520.5078125
-44.921875,-870.60546875,-320.80078125,-294.921875
163.57421875,423.828125,930.6640625,-88.8671875
70.3125,999.51171875,999.51171875,-198.73046875
-152.34375,490.234375,207.03125,-420.8984375
-284.66796875,-1000.0,-1000.0,-272.4609375
-47.8515625,-351.07421875,-308.59375,-100.5859375
206.0546875,980.46875,954.58984375,5.37109375
112.3046875,999.51171875,999.51171875,48.828125
-108.88671875,325.1953125,272.94921875,33.203125
-278.80859375,-934.08203125,-1000.0,-10.7421875
-133.7890625,-1000.0,-539.0625,57.12890625
112.3046875,-186.03515625,799.31640625,23.92578125
91.30859375,999.51171875,999.51171875,-159.1796875
-67.3828125,937.98828125,429.6875,-128.41796875
-246.58203125,-351.07421875,-1000.0,-69.3359375
-153.80859375,-1000.0,-755.37109375,7.32421875
127.44140625,-16.6015625,624.51171875,104.4921875
131.34765625,999.51171875,999.51171875,118.1640625
-47.8515625,972.65625,535.64453125,91.796875
-256.34765625,-201.171875,-823.2421875,40.52734375
-212.890625,-1000.0,-1000.0,52.24609375
76.171875,-217.28515625,205.56640625,81.0546875
141.6015625,999.51171875,999.51171875,172.8515625
-43.45703125,832.03125,644.04296875,-145.01953125
-277.34375,-474.12109375,-671.875,-921.875
-259.765625,-1000.0,-1000.0,-830.56640625
49.31640625,-455.078125,-52.734375,-340.8203125
165.52734375,891.6015625,999.51171875,-147.94921875
14.16015625,999.51171875,836.42578125,-70.3125
-155.76171875,914.55078125,-425.78125,-43.45703125
-171.38671875,983.3984375,-1000.0,-4.8828125
54.19921875,954.1015625,-124.0234375,84.9609375
145.99609375,922.8515625,999.51171875,139.6484375
-13.18359375,999.51171875,953.125,105.46875
-225.09765625,36.1328125,-227.5390625,60.05859375
-283.69140625,-1000.0,-1000.0,68.84765625
-17.08984375,-856.4453125,-196.2890625,119.140625
140.625,427.734375,988.76953125,133.30078125
35.64453125,999.51171875,999.51171875,150.390625
-177.734375,190.91796875,30.76171875,-130.37109375
-291.9921875,-1000.0,-1000.0,-817.87109375
-41.9921875,-605.46875,-245.1171875,-885.25390625
169.921875,759.765625,970.703125,-445.80078125
76.66015625,999.51171875,999.51171875,-144.04296875
-135.7421875,522.4609375,175.29296875,-302.734375
-299.31640625,-789.0625,-1000.0,-940.91796875
-119.140625,-1000.0,-436.03515625,-875.48828125
130.37109375,-186.03515625,879.8828125,-374.0234375
92.28515625,999.51171875,999.51171875,-145.01953125
-116.2109375,404.78515625,202.63671875,-65.4296875
-274.90234375,-973.6328125,-1000.0,-7.32421875
-120.1171875,-1000.0,-601.07421875,93.75
124.0234375,81.0546875,735.3515625,190.91796875
102.05078125,999.51171875,999.51171875,208.49609375
-80.56640625,862.3046875,323.2421875,168.45703125
-251.46484375,-416.9921875,-1000.0,144.04296875
-148.4375,-1000.0,-785.64453125,174.8046875
105.46875,29.78515625,559.08203125,221.6796875
104.00390625,999.51171875,999.51171875,232.91015625
-65.91796875,965.8203125,451.66015625,182.12890625
-248.53515625,-187.98828125,-899.90234375,140.625
-197.75390625,-1000.0,-1000.0,155.2734375
70.3125,-276.85546875,219.23828125,199.70703125
124.51171875,999.51171875,999.51171875,220.703125
-42.96875,924.31640625,572.75390625,169.921875
-229.00390625,-343.26171875,-771.97265625,111.81640625
-219.23828125,-1000.0,-1000.0,116.2109375
24.90234375,-389.6484375,94.7265625,161.62109375
109.86328125,919.921875,999.51171875,167.48046875
-17.578125,999.51171875,810.05859375,118.65234375
-227.05078125,-129.8828125,-462.890625,71.77734375
-261.71875,-1000.0,-1000.0,70.80078125
36.1328125,-190.91796875,-3.41796875,124.51171875
153.80859375,969.7265625,999.51171875,156.73828125
31.73828125,999.51171875,999.51171875,128.41796875
-153.80859375,220.21484375,-32.2265625,81.0546875
-243.65234375,-1000.0,-1000.0,65.4296875
25.390625,-204.1015625,-62.5,111.81640625
165.0390625,999.51171875,999.51171875,147.4609375
28.3203125,999.51171875,999.51171875,109.375
-160.64453125,192.3828125,104.98046875,44.43359375
-251.953125,-1000.0,-1000.0,36.62109375
-9.765625,-1000.0,-191.40625,64.453125
164.0625,226.07421875,995.60546875,161.1328125
78.61328125,999.51171875,999.51171875,64.453125
-163.57421875,101.07421875,180.6640625,-680.17578125
-318.359375,-1000.0,-1000.0,-804.19921875
-77.1484375,-1000.0,-295.8984375,-340.8203125
153.3203125,4.39453125,955.56640625,-195.80078125
79.1015625,999.51171875,999.51171875,-114.2578125
-119.62890625,968.26171875,267.08984375,-67.3828125
-264.16015625,-226.5625,-1000.0,-35.64453125
-104.4921875,-1000.0,-537.59765625,57.12890625
147.4609375,-49.31640625,810.05859375,146.484375
104.00390625,999.51171875,999.51171875,133.30078125
-94.7265625,599.12109375,266.6015625,54.19921875
-258.30078125,-758.30078125,-1000.0,16.6015625
-136.71875,-1000.0,-777.83203125,48.828125
119.140625,-196.77734375,557.12890625,130.37109375
112.79296875,999.51171875,999.51171875,-41.9921875
-99.12109375,555.17578125,280.76171875,-288.57421875
-287.109375,-809.08203125,-995.1171875,-633.7890625
-199.70703125,-1000.0,-1000.0,-690.4296875
81.54296875,-321.2890625,135.25390625,-287.109375
155.76171875,985.83984375,999.51171875,-109.86328125
-26.85546875,960.44921875,389.6484375,-57.12890625
-225.09765625,-319.3359375,-906.73828125,-27.34375
-188.96484375,-1000.0,-1000.0,20.01953125
70.80078125,-281.73828125,-71.2890625,94.23828125
131.8359375,921.38671875,999.51171875,135.7421875
-17.08984375,999.51171875,741.69921875,95.21484375
-191.89453125,210.44921875,-571.77734375,24.90234375
-214.84375,-1000.0,-1000.0,117.67578125
45.41015625,-200.1953125,-87.40234375,-125.0
119.140625,999.51171875,999.51171875,-491.2109375
-16.6015625,999.51171875,818.359375,-274.4140625
-195.3125,18.5546875,-454.1015625,-125.9765625
-251.953125,-1000.0,-1000.0,-69.82421875
17.08984375,-265.13671875,-159.1796875,30.2734375
169.921875,956.54296875,999.51171875,104.00390625
35.15625,999.51171875,972.65625,91.796875
-180.6640625,203.61328125,-186.5234375,55.17578125
-263.18359375,-1000.0,-1000.0,53.22265625
-16.11328125,-582.51953125,-222.16796875,102.5390625
141.11328125,785.64453125,967.28515625,133.30078125
25.87890625,999.51171875,999.51171875,104.98046875
-187.01171875,299.31640625,131.34765625,49.8046875
-305.6640625,-1000.0,-1000.0,20.99609375
-100.09765625,-962.40234375,-328.125,56.640625
82.03125,343.75,942.87109375,102.5390625
21.484375,999.51171875,999.51171875,95.21484375
-189.94140625,231.4453125,178.22265625,30.2734375
-325.68359375,-1000.0,-1000.0,-1.46484375
-120.1171875,-1000.0,-525.87890625,36.1328125
112.3046875,68.359375,804.19921875,81.0546875
54.6875,999.51171875,999.51171875,60.546875
-154.296875,546.875,232.91015625,0.0
-291.015625,-778.80859375,-1000.0,-11.71875
-160.15625,-1000.0,-743.1640625,16.11328125
71.2890625,-218.26171875,585.9375,56.640625
86.9140625,999.51171875,999.51171875,68.359375
-100.5859375,781.25,283.203125,15.13671875
-291.015625,-570.80078125,-1000.0,-40.0390625
-200.68359375,-1000.0,-935.05859375,-20.99609375
62.98828125,-181.15234375,328.61328125,25.87890625
81.0546875,999.51171875,999.51171875,26.85546875
-83.984375,999.51171875,411.1328125,25.390625
-249.51171875,-190.91796875,-911.1328125,-166.50390625
-202.1484375,-1000.0,-1000.0,-258.30078125
79.58984375,-142.08984375,97.16796875,-84.47265625
151.3671875,999.51171875,999.51171875,-9.27734375
-7.32421875,999.51171875,609.375,-25.390625
-240.234375,-120.60546875,-708.984375,-58.59375
-268.5546875,-1000.0,-1000.0,-41.015625
-28.80859375,-369.62890625,-86.42578125,4.8828125
64.453125,894.04296875,999.51171875,-1.953125
-32.71484375,999.51171875,822.75390625,64.453125
-254.39453125,159.66796875,-444.3359375,-397.94921875
-333.984375,-1000.0,-1000.0,-1000.0
-48.828125,-1000.0,-157.71484375,-963.37890625
116.2109375,127.44140625,999.51171875,-645.5078125
35.15625,999.51171875,999.51171875,-354.4921875
-143.5546875,700.1953125,-91.30859375,-235.83984375
-255.859375,-886.23046875,-1000.0,-150.390625
-8.7890625,-444.3359375,-252.44140625,-15.13671875
161.1328125,985.83984375,999.51171875,-13.18359375
29.78515625,999.51171875,984.86328125,-104.4921875
-164.55078125,145.99609375,-163.0859375,-55.17578125
-250.9765625,-1000.0,-1000.0,-18.5546875
-36.1328125,-1000.0,-410.64453125,51.7578125
140.625,148.4375,873.53515625,131.8359375
78.61328125,999.51171875,999.51171875,113.28125
-118.1640625,299.31640625,103.02734375,103.515625
-245.1171875,-979.98046875,-1000.0,-18.06640625
-72.265625,-1000.0,-551.26953125,-142.08984375
145.99609375,42.48046875,782.2265625,12.20703125
109.375,999.51171875,999.51171875,103.515625
-111.81640625,303.22265625,165.52734375,62.5
-267.08984375,-1000.0,-1000.0,41.50390625
-103.515625,-1000.0,-642.08984375,85.44921875
138.18359375,251.953125,686.5234375,142.578125
116.69921875,999.51171875,999.51171875,144.04296875
-65.91796875,847.65625,268.06640625,92.7734375
-232.421875,-474.12109375,-1000.0,55.17578125
-138.671875,-1000.0,-852.05078125,92.7734375
109.86328125,259.765625,462.40234375,143.06640625
117.1875,999.51171875,999.51171875,140.13671875
-56.15234375,791.9921875,353.515625,93.75
-224.609375,-431.15234375,-934.5703125,49.8046875
-165.0390625,-1000.0,-1000.0,60.546875
74.21875,-518.06640625,39.55078125,112.3046875
129.39453125,822.265625,999.51171875,125.48828125
-16.6015625,999.51171875,543.9453125,89.84375
-209.47265625,-90.33203125,-804.6875,5.37109375
-202.1484375,-1000.0,-1000.0,-184.08203125
70.3125,-253.41796875,34.1796875,-182.12890625
160.64453125,950.68359375,999.51171875,-13.18359375
32.71484375,999.51171875,833.49609375,-33.203125
-142.08984375,225.5859375,-407.2265625,-112.3046875
-199.70703125,-1000.0,-1000.0,-54.19921875
42.96875,-545.41015625,-144.04296875,-35.64453125
168.9453125,835.9375,999.51171875,-26.85546875
37.59765625,999.51171875,922.36328125,13.18359375
-179.19921875,131.8359375,-286.1328125,-29.296875
-262.20703125,-1000.0,-1000.0,-558.10546875
-36.1328125,-1000.0,-210.9375,-929.19921875
140.13671875,-3.90625,999.51171875,-490.234375
60.546875,999.51171875,999.51171875,-232.421875
-156.25,210.9375,-129.8828125,-145.01953125
-233.3984375,-1000.0,-1000.0,-98.6328125
-21.97265625,-407.2265625,-233.3984375,-622.0703125
131.34765625,917.96875,981.93359375,-707.03125
75.68359375,999.51171875,999.51171875,-268.5546875
-116.69921875,184.08203125,40.0390625,-145.5078125
-245.60546875,-1000.0,-1000.0,-62.98828125
-59.08203125,-936.03515625,-480.46875,66.40625
154.78515625,322.265625,832.51953125,124.0234375
102.05078125,999.51171875,999.51171875,57.6171875
-93.75,517.578125,150.390625,59.08203125
-234.86328125,-928.7109375,-1000.0,90.33203125
-88.37890625,-952.63671875,-664.55078125,139.16015625
158.203125,440.4296875,676.7578125,203.61328125
125.48828125,999.51171875,999.51171875,204.1015625
-103.515625,318.359375,167.48046875,144.53125
-250.48828125,-919.43359375,-1000.0,111.328125
-124.0234375,-1000.0,-921.38671875,142.08984375
117.1875,-196.2890625,319.3359375,196.2890625
123.046875,999.51171875,999.51171875,200.68359375
-67.87109375,999.51171875,244.140625,153.80859375
-239.74609375,-198.73046875,-1000.0,84.9609375
-189.94140625,-1000.0,-1000.0,4.8828125
72.75390625,-125.9765625,96.6796875,68.359375
120.60546875,982.91015625,999.51171875,126.953125
-39.55078125,999.51171875,487.79296875,99.609375
-219.23828125,227.5390625,-819.3359375,19.53125
-199.70703125,-1000.0,-1000.0,116.2109375
37.109375,-705.078125,-133.7890625,-146.484375
93.26171875,812.98828125,999.51171875,-917.96875
-38.0859375,909.1796875,508.7890625,-1000.0
-212.40234375,-508.7890625,-815.4296875,-974.609375
-200.68359375,-1000.0,-1000.0,-958.984375
57.12890625,-659.66796875,-218.75,-605.46875
175.78125,631.8359375,999.51171875,-248.53515625
50.78125,999.51171875,720.703125,-15.625
-170.41015625,177.24609375,-609.86328125,-252.9296875
-227.5390625,-1000.0,-1000.0,-461.9140625
53.22265625,-202.63671875,-221.19140625,-112.3046875
183.59375,999.51171875,999.51171875,79.1015625
43.45703125,999.51171875,864.2578125,135.7421875
-138.671875,215.33203125,-386.71875,153.3203125
-220.703125,-1000.0,-1000.0,183.59375
-7.8125,-803.7109375,-376.953125,250.9765625
162.109375,548.828125,902.34375,317.3828125
69.82421875,999.51171875,999.51171875,271.484375
-98.6328125,853.02734375,-13.671875,187.98828125
-222.16796875,-554.19921875,-1000.0,199.21875
-62.5,-969.23828125,-557.12890625,258.30078125
149.4140625,542.96875,796.38671875,319.82421875
71.77734375,999.51171875,999.51171875,320.3125
-141.11328125,122.0703125,-29.78515625,255.37109375
-257.8125,-1000.0,-1000.0,213.8671875
-98.14453125,-1000.0,-797.36328125,242.1875
118.65234375,-233.88671875,485.83984375,287.59765625
105.46875,999.51171875,999.51171875,284.66796875
-86.42578125,560.546875,107.91015625,225.5859375
-238.28125,-854.98046875,-1000.0,196.2890625
-130.37109375,-1000.0,-914.55078125,208.984375
92.7734375,54.6875,315.91796875,233.88671875
94.7265625,999.51171875,999.51171875,224.609375
-73.2421875,999.51171875,238.76953125,175.78125
-232.421875,217.7734375,-994.62890625,129.8828125
-178.7109375,-1000.0,-1000.0,131.34765625
67.3828125,-502.44140625,-10.7421875,189.453125
132.32421875,999.51171875,999.51171875,206.0546875
-41.9921875,865.234375,253.90625,143.5546875
-223.6328125,-518.5546875,-989.74609375,81.0546875
-180.6640625,-1000.0,-1000.0,86.42578125
59.08203125,-234.86328125,-143.5546875,140.13671875
143.06640625,964.35546875,999.51171875,159.1796875
-11.71875,999.51171875,435.05859375,115.72265625
-210.9375,-78.125,-896.484375,70.3125
-210.9375,-1000.0,-1000.0,71.2890625
60.546875,114.74609375,-104.00390625,113.76953125
144.53125,999.51171875,999.51171875,130.37109375
3.41796875,999.51171875,677.24609375,94.7265625
-169.921875,36.1328125,-634.765625,46.38671875
-209.9609375,-1000.0,-1000.0,35.64453125
32.71484375,-492.1875,-211.42578125,76.66015625
167.48046875,838.8671875,999.51171875,108.88671875
52.24609375,999.51171875,899.90234375,77.1484375
-149.90234375,205.56640625,-336.9140625,12.20703125
-244.140625,-1000.0,-1000.0,-7.8125
-3.41796875,-376.46484375,-250.9765625,34.66796875
171.38671875,934.08203125,989.74609375,75.1953125
67.3828125,999.51171875,999.51171875,62.98828125
-140.13671875,150.87890625,-127.44140625,3.41796875
-244.62890625,-1000.0,-1000.0,-22.4609375
-50.29296875,-1000.0,-459.9609375,22.94921875
133.30078125,-45.41015625,844.23828125,67.87109375
80.56640625,999.51171875,999.51171875,50.29296875
-132.32421875,156.73828125,54.19921875,-17.578125
-253.41796875,-1000.0,-1000.0,-36.1328125
-71.77734375,-1000.0,-703.61328125,1.46484375
145.99609375,-173.33984375,607.421875,41.9921875
111.328125,972.65625,999.51171875,38.0859375
-98.14453125,999.51171875,163.57421875,-11.23046875
-232.421875,228.02734375,-1000.0,-35.64453125
-123.53515625,-1000.0,-914.55078125,-5.37109375
95.703125,-467.28515625,342.7734375,41.9921875
113.28125,999.51171875,999.51171875,39.0625
-84.9609375,563.4765625,158.69140625,-10.25390625
-250.48828125,-862.79296875,-1000.0,-45.8984375
-133.7890625,-1000.0,-1000.0,-23.92578125
95.21484375,-206.54296875,142.08984375,14.6484375
119.62890625,999.51171875,999.51171875,27.83203125
-52.24609375,925.29296875,261.71875,-0.9765625
-222.16796875,-387.6953125,-1000.0,-39.0625
-162.59765625,-1000.0,-1000.0,-26.85546875
66.89453125,9.765625,36.1328125,22.4609375
110.83984375,999.51171875,999.51171875,44.921875
-44.43359375,999.51171875,411.1328125,-1.46484375
-220.21484375,11.23046875,-885.7421875,-50.78125
-217.7734375,-1000.0,-1000.0,-45.41015625
24.90234375,-447.265625,-154.296875,-0.9765625
132.8125,869.140625,999.51171875,27.83203125
12.6953125,999.51171875,691.89453125,0.9765625
-187.01171875,166.9921875,-630.859375,-49.8046875
-197.265625,-1000.0,-1000.0,-51.26953125
72.265625,-319.3359375,-195.3125,12.20703125
172.8515625,953.61328125,999.51171875,54.19921875
45.41015625,999.51171875,881.8359375,16.11328125
-158.69140625,160.15625,-358.88671875,-53.22265625
-237.79296875,-1000.0,-1000.0,-63.4765625
-15.625,-1000.0,-316.40625,-20.01953125
130.37109375,-85.9375,984.86328125,10.7421875
32.71484375,999.51171875,956.0546875,-11.71875
-163.0859375,241.69921875,-257.32421875,-68.359375
-255.859375,-1000.0,-1000.0,-89.35546875
-31.25,-868.1640625,-399.4140625,-47.36328125
161.1328125,503.90625,890.625,-0.48828125
66.40625,999.51171875,999.51171875,-2.9296875
-110.3515625,999.51171875,9.27734375,-44.921875
-233.88671875,-124.51171875,-1000.0,-58.10546875
-85.9375,-1000.0,-625.9765625,-35.15625
126.953125,178.22265625,714.84375,5.37109375
95.703125,999.51171875,999.51171875,5.859375
-117.1875,126.953125,59.5703125,-61.5234375
-264.16015625,-1000.0,-1000.0,-86.9140625
-106.4453125,-1000.0,-839.35546875,-48.828125
114.74609375,-231.93359375,437.01171875,-9.765625
116.2109375,999.51171875,999.51171875,-4.39453125
-83.0078125,727.05078125,164.55078125,-48.828125
-262.20703125,-699.21875,-1000.0,-92.28515625
-145.5078125,-1000.0,-903.80859375,-62.98828125
110.83984375,129.39453125,350.09765625,-1.953125
98.6328125,999.51171875,999.51171875,6.8359375
-93.26171875,812.98828125,256.34765625,-37.109375
-258.7890625,-451.66015625,-992.67578125,-82.51953125
-187.5,-1000.0,-1000.0,-67.87109375
70.3125,-177.24609375,32.71484375,-5.37109375
119.62890625,999.51171875,999.51171875,9.765625
-53.7109375,899.4140625,368.1640625,-29.296875
-235.3515625,-379.39453125,-926.7578125,-80.56640625
-200.68359375,-1000.0,-1000.0,-77.1484375
58.10546875,-215.8203125,-94.7265625,-13.671875
146.97265625,986.328125,999.51171875,13.18359375
15.625,999.51171875,608.3984375,-20.5078125
-188.4765625,-137.20703125,-719.23828125,-72.265625
-225.5859375,-1000.0,-1000.0,-89.84375
23.4375,-1000.0,-182.6171875,-38.0859375
139.16015625,-110.83984375,999.51171875,8.7890625
36.62109375,999.51171875,821.77734375,-28.3203125
-164.0625,202.63671875,-465.8203125,-76.171875
-240.234375,-1000.0,-1000.0,-76.66015625
11.71875,-186.5234375,-186.5234375,-34.1796875
157.71484375,999.51171875,999.51171875,4.8828125
11.23046875,997.0703125,992.67578125,-22.4609375
-177.24609375,791.50390625,-112.79296875,-80.56640625
-257.32421875,-588.8671875,-1000.0,-91.796875
-69.3359375,-1000.0,-308.10546875,-49.31640625
97.16796875,180.17578125,947.75390625,-15.625
24.90234375,999.51171875,999.51171875,-34.1796875
-179.6875,171.38671875,54.6875,-104.4921875
-301.26953125,-1000.0,-1000.0,-136.23046875
-110.83984375,-1000.0,-441.89453125,-87.40234375
97.16796875,6.34765625,868.1640625,-30.76171875
45.41015625,999.51171875,999.51171875,-43.9453125
-154.78515625,335.9375,133.7890625,-101.07421875
-294.921875,-1000.0,-1000.0,-127.44140625
-112.3046875,-764.16015625,-552.734375,-98.6328125
118.1640625,638.18359375,780.2734375,-44.921875
56.640625,999.51171875,999.51171875,-52.24609375
-147.94921875,167.48046875,170.41015625,-115.234375
-287.109375,-971.6796875,-1000.0,-144.53125
-173.828125,-1000.0,-888.18359375,-117.1875
35.64453125,-332.03125,374.0234375,-62.5
55.17578125,995.1171875,999.51171875,-51.26953125
-103.515625,966.796875,248.53515625,-90.33203125
-255.859375,-300.29296875,-1000.0,-115.72265625
-186.5234375,-1000.0,-1000.0,-103.02734375
47.8515625,-317.87109375,126.953125,-49.8046875
109.86328125,972.16796875,999.51171875,-18.5546875
-44.43359375,999.51171875,402.83203125,-59.5703125
-241.2109375,-217.28515625,-916.015625,-107.91015625
-200.1953125,-1000.0,-1000.0,-96.19140625
71.2890625,-184.5703125,3.41796875,-47.8515625
132.8125,999.51171875,999.51171875,-28.3203125
-34.1796875,999.51171875,493.65234375,-58.10546875
-215.8203125,-144.53125,-818.359375,-87.890625
-207.03125,-1000.0,-1000.0,-77.1484375
58.59375,-307.6171875,-171.38671875,-27.83203125
166.9921875,905.2734375,999.51171875,-0.9765625
26.85546875,999.51171875,767.08984375,-38.0859375
-161.62109375,583.984375,-520.5078125,-91.30859375
-238.28125,-943.84765625,-1000.0,-100.09765625
-2.9296875,-789.55078125,-245.60546875,-42.48046875
152.83203125,687.01171875,999.51171875,-2.44140625
41.015625,999.51171875,876.46484375,-29.296875
-160.15625,162.59765625,-378.41796875,-84.9609375
-234.375,-1000.0,-1000.0,-92.28515625
-11.71875,-957.51953125,-334.9609375,-37.109375
160.15625,298.828125,946.77734375,5.859375
88.8671875,999.51171875,999.51171875,-9.765625
-112.79296875,312.01171875,-116.2109375,-54.6875
-243.1640625,-1000.0,-1000.0,-71.2890625
-15.13671875,-243.65234375,-402.83203125,-31.25
192.3828125,999.51171875,906.73828125,19.53125
92.28515625,999.51171875,999.51171875,9.27734375
-124.0234375,178.7109375,-41.015625,-50.29296875
-243.65234375,-1000.0,-1000.0,-66.40625
-76.66015625,-1000.0,-713.8671875,-14.16015625
128.90625,49.31640625,590.8203125,26.85546875
98.14453125,999.51171875,999.51171875,8.7890625
-93.26171875,458.984375,104.98046875,-36.1328125
-227.5390625,-843.26171875,-1000.0,-64.453125
-107.91015625,-1000.0,-961.9140625,-37.109375
92.7734375,-629.39453125,238.28125,0.48828125
118.65234375,901.3671875,999.51171875,-0.48828125
-36.1328125,689.94140625,156.73828125,-30.76171875
-210.9375,-802.24609375,-1000.0,-63.96484375
-143.5546875,-1000.0,-1000.0,-52.24609375
96.6796875,-180.17578125,16.6015625,2.44140625
137.6953125,992.1875,999.51171875,11.23046875
-40.0390625,999.51171875,251.953125,-35.15625
-208.984375,-80.56640625,-990.234375,-61.03515625
-168.9453125,-1000.0,-1000.0,-48.33984375
67.3828125,-187.5,-125.9765625,-4.39453125
153.80859375,999.51171875,999.51171875,21.484375
3.41796875,937.5,448.2421875,-13.671875
-175.78125,999.51171875,-872.55859375,-55.17578125
-175.29296875,-361.328125,-1000.0,-43.9453125
44.43359375,-522.94921875,-165.52734375,6.8359375
147.94921875,999.51171875,999.51171875,32.2265625
14.6484375,983.3984375,553.7109375,-3.90625
-190.91796875,-289.55078125,-774.4140625,-65.91796875
-209.47265625,-1000.0,-1000.0,-67.3828125
32.2265625,-770.99609375,-253.41796875,-10.7421875
171.38671875,500.0,999.51171875,18.06640625
60.546875,999.51171875,836.42578125,-11.71875
-177.734375,184.08203125,-454.58984375,-62.98828125
-244.62890625,-1000.0,-1000.0,-68.359375
6.34765625,-189.94140625,-246.09375,-21.97265625
152.83203125,992.67578125,999.51171875,7.8125
33.203125,999.51171875,937.01171875,-17.578125
-140.13671875,550.78125,-258.7890625,-64.453125
-214.35546875,-811.03515625,-1000.0,-68.84765625
-41.50390625,-1000.0,-450.1953125,-30.76171875
127.9296875,-94.23828125,863.28125,2.9296875
77.63671875,999.51171875,999.51171875,-12.20703125
-127.44140625,199.21875,-46.38671875,-65.91796875
-248.046875,-1000.0,-1000.0,-76.66015625
-65.91796875,-1000.0,-657.71484375,-40.0390625
133.7890625,-192.87109375,656.25,2.9296875
91.796875,999.51171875,999.51171875,-2.44140625
-100.5859375,899.4140625,133.7890625,-58.59375
-233.88671875,-375.0,-1000.0,-83.49609375
-92.28515625,-1000.0,-875.0,-47.8515625
112.79296875,-204.1015625,392.08984375,0.48828125
106.93359375,954.58984375,999.51171875,-0.9765625
-64.94140625,999.51171875,184.08203125,-53.7109375
-222.65625,185.05859375,-1000.0,-86.9140625
-145.01953125,-1000.0,-1000.0,-61.5234375
83.0078125,-308.59375,165.52734375,-12.20703125
120.1171875,999.51171875,999.51171875,-7.8125
-67.87109375,830.56640625,223.6328125,-59.5703125
-239.74609375,-484.86328125,-1000.0,-94.23828125
-172.8515625,-1000.0,-1000.0,-72.265625
65.4296875,-383.7890625,-68.84765625,-19.53125
140.13671875,910.64453125,999.51171875,9.27734375
-13.18359375,999.51171875,399.90234375,-22.94921875
-212.40234375,-87.40234375,-908.69140625,-74.21875
-196.77734375,-1000.0,-1000.0,-62.5
56.640625,-284.66796875,-143.5546875,-12.20703125
136.71875,937.98828125,999.51171875,4.39453125
4.39453125,999.51171875,669.921875,-27.34375
-183.10546875,200.1953125,-666.9921875,-65.4296875
-213.8671875,-1000.0,-1000.0,-64.453125
48.33984375,-198.73046875,-163.57421875,-10.7421875
158.69140625,999.51171875,999.51171875,13.18359375
19.04296875,999.51171875,761.23046875,-19.04296875
-174.31640625,115.72265625,-535.15625,-62.98828125
-225.5859375,-1000.0,-1000.0,-65.4296875
1.953125,-1000.0,-289.55078125,-16.11328125
152.83203125,-1.46484375,998.046875,22.94921875
73.73046875,999.51171875,937.5,9.765625
-132.32421875,209.9609375,-289.55078125,-52.24609375
-230.46875,-1000.0,-1000.0,-71.77734375
-3.41796875,-592.7734375,-327.63671875,-20.99609375
190.4296875,817.87109375,925.78125,19.53125
91.796875,999.51171875,999.51171875,-3.90625
-112.79296875,948.73046875,44.43359375,-57.6171875
-230.46875,-184.5703125,-1000.0,-78.125
-66.89453125,-1000.0,-622.55859375,-41.9921875
133.7890625,-213.8671875,723.14453125,6.8359375
80.56640625,999.51171875,999.51171875,-9.27734375
-121.58203125,198.73046875,22.94921875,-71.77734375
-237.79296875,-1000.0,-1000.0,-93.26171875
-97.16796875,-1000.0,-772.4609375,-61.03515625
115.72265625,-16.6015625,522.94921875,-8.7890625
103.515625,999.51171875,999.51171875,-2.9296875
-78.125,896.484375,144.53125,-46.38671875
-203.125,891.6015625,-1000.0,-69.82421875
-85.9375,982.91015625,-931.640625,-52.24609375
117.1875,895.01953125,298.33984375,-5.37109375
108.88671875,999.51171875,999.51171875,6.8359375
-72.75390625,419.921875,181.640625,-51.7578125
-236.328125,-899.90234375,-1000.0,-98.14453125
-160.15625,-1000.0,-1000.0,-72.75390625
76.171875,-355.95703125,-27.83203125,-18.06640625
134.765625,999.51171875,999.51171875,-13.18359375
-37.59765625,846.6796875,297.8515625,-59.5703125
-241.2109375,-537.109375,-976.5625,-94.7265625
-194.82421875,-1000.0,-1000.0,-72.75390625
80.078125,-70.3125,-94.7265625,-19.04296875
147.94921875,999.51171875,999.51171875,1.953125
-19.53125,999.51171875,515.625,-35.15625
-211.42578125,23.4375,-808.10546875,-86.42578125
-223.14453125,-1000.0,-1000.0,-84.9609375
4.8828125,-812.98828125,-207.51953125,-30.76171875
133.30078125,544.43359375,999.51171875,-0.9765625
18.5546875,999.51171875,670.41015625,-29.296875
-200.68359375,-145.5078125,-659.66796875,-82.51953125
-227.5390625,-1000.0,-1000.0,-87.890625
12.20703125,-990.234375,-249.0234375,-35.15625
132.8125,142.08984375,999.51171875,2.44140625
41.9921875,999.51171875,964.84375,-19.04296875
-162.109375,312.98828125,-229.98046875,-72.75390625
-254.39453125,-1000.0,-1000.0,-85.9375
-23.4375,-647.94921875,-311.03515625,-35.64453125
151.85546875,766.11328125,973.14453125,5.859375
58.59375,999.51171875,999.51171875,-11.71875
-146.97265625,193.359375,-147.94921875,-63.4765625
-258.7890625,-1000.0,-1000.0,-86.42578125
-59.5703125,-991.69921875,-491.69921875,-44.43359375
145.01953125,246.58203125,819.3359375,11.71875
88.8671875,999.51171875,999.51171875,-5.859375
-108.3984375,334.9609375,47.8515625,-66.40625
-235.3515625,-932.6171875,-1000.0,-78.61328125
-79.1015625,-1000.0,-700.1953125,-45.8984375
117.67578125,-120.60546875,623.53515625,-14.16015625
78.125,999.51171875,999.51171875,-22.94921875
-128.41796875,231.4453125,104.00390625,-73.73046875
-270.5078125,-1000.0,-1000.0,-91.30859375
-133.30078125,-1000.0,-877.9296875,-46.875
101.5625,-134.765625,383.7890625,-6.34765625
113.28125,999.51171875,999.51171875,-6.8359375
-67.3828125,771.97265625,196.77734375,-54.6875
-232.91015625,-636.23046875,-1000.0,-92.28515625
-151.3671875,-1000.0,-975.09765625,-63.4765625
98.6328125,188.4765625,236.328125,-11.71875
125.9765625,999.51171875,999.51171875,0.48828125
-41.50390625,835.44921875,305.6640625,-47.36328125
-230.95703125,-384.765625,-957.03125,-98.6328125
-197.75390625,-1000.0,-1000.0,-64.94140625
70.3125,-302.24609375,-65.4296875,-9.27734375
142.578125,924.31640625,999.51171875,-2.9296875
-13.18359375,999.51171875,474.609375,-35.15625
-206.0546875,91.796875,-847.16796875,-74.21875
-204.1015625,-1000.0,-1000.0,-68.359375
47.36328125,-302.734375,-116.69921875,-15.13671875
141.11328125,949.21875,999.51171875,1.46484375
17.578125,999.51171875,854.4921875,-57.6171875
-192.3828125,214.84375,-409.66796875,-112.3046875
-249.0234375,-1000.0,-1000.0,-122.0703125
22.94921875,-240.72265625,-143.5546875,-154.296875
136.23046875,993.65234375,999.51171875,-300.78125
-0.48828125,999.51171875,912.109375,-347.65625
-201.171875,159.1796875,-298.33984375,-236.328125
-264.6484375,-1000.0,-1000.0,-173.33984375
-38.0859375,-932.6171875,-222.16796875,-112.3046875
92.28515625,345.703125,985.83984375,-62.01171875
14.6484375,999.51171875,999.51171875,-45.41015625
-163.57421875,165.0390625,-25.87890625,-78.61328125
-269.04296875,-1000.0,-1000.0,-102.05078125
-66.40625,-926.7578125,-288.57421875,-4.39453125
116.69921875,366.69921875,946.77734375,-149.4140625
31.25,999.51171875,999.51171875,-432.6171875
-176.7578125,159.66796875,164.55078125,-716.30859375
-299.8046875,-1000.0,-1000.0,-1000.0
-110.3515625,-957.03125,-402.83203125,-937.98828125
115.72265625,286.1328125,900.87890625,-791.9921875
82.51953125,999.51171875,999.51171875,-737.3046875
-105.46875,521.484375,193.359375,-651.85546875
-248.046875,-828.61328125,-1000.0,-820.80078125
-129.39453125,-1000.0,-716.30859375,-1000.0
99.609375,40.0390625,617.67578125,-993.1640625
99.609375,999.51171875,999.51171875,-993.65234375
-86.42578125,459.9609375,216.796875,-962.890625
-229.98046875,-911.1328125,-1000.0,-872.55859375
-109.375,-1000.0,-881.34765625,-644.53125
131.34765625,94.7265625,401.3671875,-608.88671875
128.90625,999.51171875,999.51171875,-729.98046875
-48.33984375,909.1796875,319.3359375,-692.87109375
-191.40625,-292.48046875,-985.3515625,-628.90625
-129.8828125,-1000.0,-1000.0,-577.63671875
112.3046875,-155.76171875,170.41015625,-573.2421875
159.1796875,969.7265625,999.51171875,-553.22265625
11.71875,999.51171875,561.5234375,-509.27734375
-168.45703125,207.03125,-745.1171875,-484.375
-175.29296875,-1000.0,-1000.0,-454.1015625
52.734375,-895.01953125,-128.90625,-423.33984375
144.04296875,420.41015625,999.51171875,-397.94921875
20.99609375,999.51171875,643.5546875,-370.1171875
-159.66796875,166.015625,-681.640625,-287.109375
-174.8046875,-1000.0,-1000.0,-173.828125
79.1015625,-187.5,-177.734375,46.875
190.91796875,995.1171875,999.51171875,325.1953125
56.15234375,999.51171875,863.28125,432.6171875
-107.421875,678.7109375,-400.390625,456.0546875
-175.78125,-884.27734375,-1000.0,499.0234375
62.01171875,-117.1875,-169.921875,578.61328125
203.61328125,999.51171875,999.51171875,625.9765625
62.98828125,999.51171875,931.640625,590.33203125
-141.6015625,218.75,-249.51171875,537.109375
-230.95703125,-1000.0,-1000.0,511.71875
-17.08984375,-902.83203125,-403.3203125,542.48046875
165.52734375,397.94921875,902.83203125,585.9375
87.40234375,999.51171875,999.51171875,571.2890625
-131.34765625,187.5,-83.0078125,500.0
-239.2578125,-1000.0,-1000.0,450.1953125
-36.62109375,-996.09375,-629.8828125,458.49609375
176.26953125,231.4453125,688.4765625,488.28125
141.11328125,999.51171875,999.51171875,470.703125
-76.66015625,371.58203125,57.6171875,389.16015625
-221.19140625,-888.18359375,-1000.0,346.6796875
-70.3125,-1000.0,-916.9921875,365.234375
128.90625,-707.03125,315.4296875,392.08984375
133.7890625,822.265625,999.51171875,398.4375
-44.43359375,726.5625,89.84375,327.1484375
-213.37890625,-795.41015625,-1000.0,282.2265625
-116.69921875,-1000.0,-1000.0,305.6640625
112.79296875,-64.453125,76.171875,314.453125
140.13671875,981.93359375,999.51171875,315.91796875
-20.5078125,999.51171875,190.4296875,275.390625
-172.36328125,229.98046875,-1000.0,227.05078125
-129.39453125,-1000.0,-1000.0,235.3515625
102.5390625,-241.69921875,-80.078125,281.25
179.19921875,999.51171875,999.51171875,295.41015625
11.71875,990.234375,289.0625,243.65234375
-172.36328125,-166.9921875,-971.19140625,185.546875
-145.01953125,-1000.0,-1000.0,168.9453125
99.609375,-430.6640625,-201.171875,214.84375
188.96484375,880.37109375,999.51171875,234.86328125
38.0859375,999.51171875,475.5859375,186.03515625
-149.90234375,39.55078125,-855.95703125,132.32421875
-143.06640625,-1000.0,-1000.0,123.53515625
100.5859375,-470.21484375,-194.3359375,169.43359375
195.3125,859.86328125,999.51171875,193.359375
68.84765625,999.51171875,728.02734375,157.2265625
-120.60546875,174.31640625,-583.49609375,108.3984375
-168.45703125,-1000.0,-1000.0,91.796875
59.08203125,-944.82421875,-267.08984375,138.671875
212.40234375,344.23828125,994.140625,202.1484375
80.56640625,999.51171875,968.26171875,-466.796875
-146.484375,161.1328125,-225.5859375,-888.671875
-209.9609375,-1000.0,-1000.0,-451.66015625
38.57421875,-501.953125,-266.11328125,-180.17578125
219.7265625,860.83984375,961.9140625,-24.90234375
110.83984375,999.51171875,999.51171875,50.78125
-97.65625,170.41015625,34.1796875,44.43359375
-207.03125,-995.1171875,-1000.0,57.12890625
-29.296875,-1000.0,-472.16796875,108.88671875
162.59765625,-148.4375,835.9375,140.625
123.53515625,999.51171875,999.51171875,142.08984375
-76.171875,396.97265625,148.92578125,102.5390625
-208.49609375,-995.60546875,-1000.0,83.984375
-52.24609375,-1000.0,-626.46484375,121.58203125
153.3203125,265.625,706.54296875,166.9921875
122.55859375,999.51171875,999.51171875,168.9453125
-44.43359375,999.51171875,218.26171875,107.421875
-186.5234375,247.55859375,-1000.0,72.265625
-101.07421875,-1000.0,-861.328125,114.74609375
127.9296875,-252.44140625,431.640625,177.734375
147.94921875,999.51171875,999.51171875,153.80859375
-25.87890625,819.3359375,212.890625,173.828125
-224.12109375,-550.78125,-1000.0,-372.0703125
-161.62109375,-1000.0,-1000.0,-1000.0
94.23828125,-1000.0,33.69140625,-886.23046875
169.43359375,-46.38671875,999.51171875,-534.66796875
49.31640625,999.51171875,403.3203125,-180.6640625
-180.6640625,136.71875,-939.94140625,-335.44921875
-218.75,-1000.0,-1000.0,-957.03125
69.3359375,-24.90234375,99.12109375,-944.82421875
141.6015625,999.51171875,999.51171875,-915.52734375
-24.90234375,999.51171875,618.1640625,-995.1171875
-194.82421875,245.60546875,-678.7109375,-818.359375
-208.49609375,-1000.0,-1000.0,-406.73828125
29.296875,-465.8203125,-167.96875,-170.41015625
123.046875,881.34765625,999.51171875,-296.875
11.71875,999.51171875,793.45703125,-167.48046875
-135.7421875,752.9296875,-498.046875,47.36328125
-180.17578125,-812.98828125,-1000.0,133.30078125
36.1328125,-430.6640625,-178.22265625,241.69921875
169.43359375,979.00390625,999.51171875,318.84765625
64.94140625,999.51171875,973.6328125,338.37890625
-122.55859375,423.33984375,-174.8046875,301.7578125
-206.54296875,-1000.0,-1000.0,290.52734375
2.44140625,-613.76953125,-346.19140625,396.97265625
152.34375,799.31640625,932.6171875,219.7265625
69.82421875,999.51171875,999.51171875,28.80859375
-93.26171875,455.078125,-7.8125,144.04296875
-197.265625,-860.83984375,-1000.0,178.22265625
-27.34375,-1000.0,-421.875,-102.5390625
133.30078125,-9.27734375,874.0234375,-582.51953125
59.5703125,986.328125,999.51171875,-655.76171875
-77.1484375,999.51171875,132.8125,-241.69921875
-150.390625,369.140625,-1000.0,-13.18359375
-26.85546875,-1000.0,-613.76953125,99.609375
181.640625,-213.37890625,715.33203125,259.765625
142.578125,999.51171875,999.51171875,319.82421875
-84.9609375,999.51171875,197.75390625,272.94921875
-231.93359375,68.359375,-1000.0,248.046875
-113.76953125,-1000.0,-668.9453125,284.1796875
94.23828125,-130.37109375,655.2734375,331.0546875
72.75390625,999.51171875,999.51171875,313.96484375
-103.02734375,802.734375,329.58984375,251.46484375
-280.76171875,-586.42578125,-1000.0,233.88671875
-157.71484375,-1000.0,-758.7890625,256.8359375
98.14453125,191.89453125,587.40234375,284.1796875
86.42578125,999.51171875,999.51171875,281.73828125
-59.5703125,953.125,521.484375,241.2109375
-245.60546875,-189.94140625,-851.07421875,206.54296875
-192.87109375,-1000.0,-1000.0,217.7734375
103.515625,-181.15234375,302.734375,258.7890625
159.66796875,999.51171875,999.51171875,270.5078125
7.8125,999.51171875,680.17578125,238.76953125
-163.0859375,-95.703125,-622.55859375,194.82421875
-153.80859375,-1000.0,-1000.0,182.6171875
89.35546875,-496.09375,11.71875,233.88671875
177.24609375,824.70703125,999.51171875,261.71875
69.3359375,999.51171875,920.41015625,222.65625
-113.28125,188.96484375,-264.16015625,137.6953125
-164.0625,-1000.0,-1000.0,96.6796875
89.84375,-810.546875,-123.046875,157.71484375
227.05078125,539.55078125,999.51171875,203.61328125
127.9296875,999.51171875,989.74609375,187.98828125
-83.0078125,195.3125,-138.671875,129.39453125
-188.96484375,-1000.0,-1000.0,73.2421875
57.12890625,-479.98046875,-146.484375,198.73046875
205.078125,921.875,999.0234375,-118.1640625
70.3125,958.49609375,999.51171875,-637.6953125
-70.80078125,999.51171875,108.88671875,-398.92578125
-156.73828125,-87.890625,-1000.0,-156.25
20.01953125,-1000.0,-258.7890625,-43.9453125
205.56640625,171.875,971.19140625,63.4765625
137.20703125,999.51171875,999.51171875,101.5625
-64.453125,244.140625,182.12890625,76.171875
-208.984375,-964.35546875,-1000.0,54.6875
-18.5546875,-1000.0,-370.60546875,101.5625
182.6171875,-229.98046875,916.50390625,154.78515625
124.0234375,999.51171875,999.51171875,152.83203125
-50.29296875,938.96484375,265.13671875,107.421875
-205.078125,-643.06640625,-1000.0,75.68359375
-26.85546875,-560.546875,-411.62109375,98.14453125
203.61328125,956.54296875,900.390625,146.97265625
125.9765625,999.51171875,999.51171875,142.08984375
-16.6015625,849.609375,314.94140625,111.328125
-176.7578125,-386.71875,-1000.0,68.359375
-97.16796875,-1000.0,-878.41796875,40.0390625
146.97265625,-195.3125,423.828125,84.47265625
154.78515625,999.51171875,999.51171875,104.98046875
-20.01953125,770.99609375,381.8359375,53.22265625
-200.68359375,-573.73046875,-963.8671875,29.78515625
-129.39453125,-1000.0,-984.86328125,42.96875
129.8828125,-203.125,281.73828125,62.98828125
161.62109375,947.75390625,999.51171875,51.26953125
26.85546875,999.51171875,688.4765625,108.88671875
-183.10546875,136.23046875,-599.609375,-415.0390625
-197.75390625,-1000.0,-1000.0,-1000.0
62.01171875,-980.95703125,-29.78515625,-982.421875
129.8828125,-976.5625,999.51171875,-987.79296875
35.15625,-996.58203125,726.5625,-978.02734375
-94.23828125,-953.61328125,-586.42578125,-703.125
-87.890625,-1000.0,-1000.0,-350.09765625
145.01953125,-49.31640625,-87.890625,-114.74609375
212.890625,999.51171875,999.51171875,36.62109375
56.640625,846.19140625,856.4453125,99.609375
-108.3984375,999.51171875,-373.53515625,117.1875
-160.15625,440.4296875,-1000.0,137.20703125
22.4609375,-986.81640625,-295.8984375,187.98828125
175.29296875,152.83203125,999.51171875,229.98046875
99.12109375,999.51171875,915.52734375,236.328125
-95.21484375,224.609375,-327.63671875,208.984375
-171.38671875,-1000.0,-1000.0,209.47265625
20.5078125,-1000.0,-546.875,245.60546875
197.75390625,55.6640625,821.2890625,272.94921875
137.6953125,999.51171875,987.79296875,249.0234375
-69.82421875,351.07421875,-303.7109375,192.3828125
-173.828125,-1000.0,-1000.0,177.24609375
39.0625,-275.87890625,-772.4609375,205.078125
233.88671875,994.62890625,614.2578125,244.62890625
122.55859375,999.51171875,967.7734375,222.65625
-92.28515625,193.359375,-490.234375,188.96484375
-166.9921875,-987.3046875,-1000.0,82.03125
-10.25390625,-1000.0,-1000.0,-81.54296875
191.40625,-253.41796875,-106.93359375,28.3203125
176.7578125,999.51171875,882.8125,121.58203125
-63.4765625,155.2734375,-600.5859375,83.49609375
-163.0859375,-1000.0,-1000.0,79.1015625
-28.3203125,-1000.0,-1000.0,113.28125
145.01953125,-672.8515625,-430.6640625,153.3203125
198.73046875,804.19921875,978.02734375,160.64453125
13.18359375,974.12109375,-201.171875,124.0234375
-151.3671875,-482.421875,-1000.0,83.984375
-29.296875,-1000.0,-1000.0,100.09765625
160.64453125,-1000.0,-671.38671875,142.08984375
234.86328125,-21.97265625,754.39453125,142.578125
98.14453125,999.51171875,-94.7265625,99.609375
-84.9609375,-212.890625,-1000.0,79.58984375
3.41796875,-1000.0,-1000.0,87.890625
180.6640625,-455.56640625,-775.87890625,121.09375
217.28515625,881.8359375,750.48828125,145.99609375
55.6640625,976.07421875,144.04296875,101.07421875
-84.9609375,987.79296875,-1000.0,52.734375
-39.0625,-20.99609375,-979.00390625,52.734375
97.65625,-1000.0,-978.02734375,88.8671875
240.72265625,-247.55859375,454.58984375,124.0234375
146.484375,999.51171875,252.9296875,89.35546875
-82.51953125,126.953125,-1000.0,28.3203125
-55.17578125,-1000.0,-960.44921875,30.2734375
154.296875,-1000.0,-1000.0,64.453125
302.24609375,-259.27734375,255.37109375,117.1875
197.265625,999.51171875,345.703125,101.5625
-51.26953125,231.93359375,-1000.0,31.73828125
-52.24609375,-1000.0,-992.1875,17.578125
187.01171875,-196.77734375,-1000.0,51.7578125
331.54296875,999.51171875,340.33203125,66.89453125
242.67578125,999.51171875,469.23828125,58.59375
32.71484375,162.109375,-1000.0,-13.18359375
-56.15234375,-1000.0,-959.9609375,-150.390625
72.265625,-1000.0,-1000.0,-137.20703125
272.4609375,-210.44921875,-8.7890625,-38.57421875
287.109375,999.51171875,801.7578125,68.359375
36.62109375,289.55078125,-699.70703125,-100.5859375
-32.71484375,-1000.0,-1000.0,-300.78125
163.57421875,-1000.0,-1000.0,-126.46484375
358.3984375,-62.01171875,-101.07421875,21.97265625
337.890625,999.51171875,999.51171875,8.30078125
96.6796875,771.97265625,-93.26171875,-29.78515625
-16.11328125,-520.99609375,-1000.0,-5.37109375
123.046875,-1000.0,-1000.0,53.7109375
304.6875,-752.9296875,-143.5546875,85.44921875
356.93359375,665.52734375,999.51171875,99.12109375
156.73828125,951.171875,54.19921875,59.5703125
-18.06640625,-510.25390625,-1000.0,26.3671875
114.2578125,-1000.0,-1000.0,44.921875
372.55859375,-171.875,-175.78125,104.4921875
390.625,981.4453125,999.51171875,76.66015625
167.48046875,999.51171875,238.76953125,-51.26953125
-18.5546875,-25.390625,-1000.0,-67.3828125
71.2890625,-1000.0,-1000.0,-7.8125
312.98828125,-1000.0,-132.8125,69.3359375
380.37109375,-375.0,999.51171875,90.33203125
234.375,999.51171875,572.265625,79.1015625
-22.94921875,197.75390625,-756.34765625,41.9921875
4.8828125,-1000.0,-1000.0,37.59765625
292.48046875,-1000.0,-122.55859375,86.9140625
399.4140625,17.578125,999.51171875,73.73046875
274.90234375,999.51171875,936.5234375,15.625
24.90234375,206.54296875,-259.765625,-13.18359375
-13.671875,-1000.0,-1000.0,4.8828125
323.2421875,-294.43359375,-50.78125,80.078125
433.59375,971.6796875,999.51171875,70.3125
262.20703125,999.51171875,999.51171875,19.53125
75.68359375,774.4140625,103.515625,31.25
-43.45703125,-578.125,-1000.0,-336.9140625
244.62890625,-1000.0,-160.64453125,-723.6328125
388.18359375,-935.05859375,999.51171875,-941.40625
263.18359375,-1000.0,999.51171875,-819.82421875
121.09375,-932.6171875,142.578125,-438.4765625
29.296875,-1000.0,-1000.0,-254.8828125
345.21484375,-675.78125,-242.67578125,-48.828125
539.0625,675.29296875,971.6796875,-268.06640625
384.27734375,999.51171875,999.51171875,-602.5390625
160.15625,386.71875,273.4375,-594.23828125
16.6015625,-864.2578125,-1000.0,-487.3046875
285.15625,-1000.0,-493.65234375,-311.5234375
502.44140625,-558.10546875,833.49609375,-145.99609375
426.7578125,780.2734375,999.51171875,-47.8515625
245.1171875,999.51171875,306.15234375,39.55078125
64.94140625,-12.6953125,-1000.0,98.14453125
219.7265625,-1000.0,-757.32421875,138.18359375
504.39453125,-264.16015625,574.21875,224.12109375
497.0703125,999.51171875,999.51171875,269.04296875
264.6484375,655.76171875,322.265625,231.4453125
71.77734375,-704.1015625,-1000.0,206.54296875
249.0234375,-1000.0,-902.34375,217.7734375
530.76171875,-389.16015625,375.0,253.41796875
542.48046875,921.38671875,999.51171875,210.9375
346.6796875,999.51171875,603.02734375,124.51171875
112.79296875,-225.09765625,-744.62890625,107.91015625
226.5625,-1000.0,-1000.0,149.4140625
558.10546875,-1000.0,240.234375,222.65625
587.890625,-76.66015625,999.51171875,242.1875
450.1953125,999.51171875,894.04296875,215.33203125
205.078125,199.70703125,-361.328125,169.43359375
192.87109375,-1000.0,-1000.0,169.43359375
554.6875,-121.09375,237.79296875,205.56640625
609.86328125,999.51171875,999.51171875,215.33203125
451.66015625,999.51171875,990.234375,187.01171875
235.3515625,-29.78515625,-111.81640625,141.6015625
246.09375,-1000.0,-1000.0,122.55859375
581.0546875,-958.49609375,155.76171875,145.5078125
632.32421875,-987.3046875,999.51171875,176.7578125
498.046875,-1000.0,999.51171875,159.66796875
332.03125,-945.3125,121.09375,126.953125
297.8515625,-1000.0,-1000.0,117.1875
620.1171875,-841.796875,49.8046875,134.765625
770.99609375,557.12890625,999.51171875,169.921875
633.30078125,999.51171875,999.51171875,137.20703125
452.63671875,999.51171875,540.0390625,60.546875
277.34375,174.31640625,-967.7734375,36.62109375
542.96875,-1000.0,-154.296875,90.33203125
714.35546875,-980.46875,999.51171875,139.16015625
539.0625,-978.515625,999.51171875,123.53515625
349.609375,-989.74609375,380.859375,76.66015625
232.421875,-965.33203125,-1000.0,55.17578125
540.0390625,-1000.0,-207.51953125,101.5625
765.13671875,40.0390625,999.51171875,135.25390625
635.25390625,999.51171875,999.51171875,120.1171875
445.80078125,918.45703125,633.30078125,99.12109375
309.5703125,957.51953125,-872.55859375,65.91796875
568.84765625,968.75,-274.4140625,65.4296875
802.734375,903.3203125,999.51171875,113.28125
683.59375,999.51171875,999.51171875,81.54296875
475.09765625,186.5234375,626.46484375,12.20703125
285.15625,-1000.0,-901.85546875,7.8125
548.828125,-983.88671875,-516.6015625,44.921875
803.22265625,-973.14453125,905.76171875,72.265625
658.203125,-1000.0,999.51171875,76.171875
524.90234375,-998.046875,829.58984375,43.45703125
373.046875,-942.3828125,-579.1015625,8.7890625
507.32421875,-1000.0,-734.86328125,25.87890625
857.421875,-182.12890625,759.765625,60.05859375
802.24609375,999.51171875,998.046875,65.91796875
621.58203125,999.51171875,992.1875,45.41015625
400.87890625,-37.109375,-189.94140625,10.25390625
429.6875,-1000.0,-948.2421875,15.13671875
780.76171875,-1000.0,516.11328125,45.8984375
811.5234375,-176.26953125,999.51171875,50.78125
680.17578125,999.51171875,999.51171875,30.76171875
416.50390625,-28.3203125,8.30078125,-19.04296875
426.26953125,-1000.0,-920.8984375,-39.0625
786.62109375,-897.4609375,548.828125,-10.25390625
767.578125,-1000.0,999.51171875,2.44140625
723.14453125,83.984375,999.51171875,-14.6484375
599.12109375,693.84765625,363.28125,-39.0625
474.609375,-895.5078125,-932.12890625,-62.5
831.0546875,-1000.0,283.203125,-39.0625
932.6171875,-939.94140625,999.51171875,-9.765625
786.62109375,-1000.0,999.51171875,-32.2265625
614.2578125,-930.17578125,351.07421875,-52.734375
508.30078125,-1000.0,-1000.0,-24.4140625
792.96875,-632.32421875,6.34765625,30.76171875
937.98828125,742.67578125,999.51171875,72.265625
777.83203125,999.51171875,999.51171875,61.5234375
501.46484375,128.41796875,278.3203125,1.46484375
369.140625,-1000.0,-1000.0,-17.08984375
733.3984375,-983.88671875,-234.86328125,36.62109375
896.97265625,-973.14453125,996.58203125,83.49609375
744.140625,-1000.0,999.51171875,76.171875
577.1484375,-1000.0,151.85546875,66.40625
466.30859375,-936.03515625,-1000.0,25.390625
657.2265625,-1000.0,-874.0234375,-33.69140625
908.203125,-297.36328125,400.87890625,23.4375
862.3046875,999.51171875,999.51171875,39.0625
579.1015625,837.40234375,-49.8046875,-0.9765625
427.24609375,-477.05078125,-1000.0,34.66796875
532.71484375,-1000.0,-1000.0,-606.4453125
748.53515625,-750.48828125,-152.83203125,-976.07421875
853.02734375,730.46875,999.51171875,-510.7421875
615.234375,849.609375,20.01953125,-283.203125
425.78125,-652.83203125,-1000.0,-161.62109375
594.23828125,-1000.0,-1000.0,-48.33984375
867.1875,-153.3203125,-329.58984375,49.8046875
931.640625,958.49609375,999.51171875,118.1640625
653.80859375,999.51171875,31.25,109.375
435.546875,275.87890625,-1000.0,100.09765625
558.10546875,-1000.0,-1000.0,129.39453125
834.47265625,-395.99609375,-595.21484375,179.6875
941.89453125,924.31640625,933.59375,208.49609375
728.515625,999.51171875,146.484375,178.7109375
491.69921875,303.7109375,-1000.0,147.94921875
537.59765625,-1000.0,-994.62890625,138.671875
802.734375,-546.38671875,-918.45703125,161.1328125
937.01171875,867.67578125,491.69921875,203.61328125
736.328125,999.51171875,185.05859375,179.19921875
479.98046875,-1.46484375,-1000.0,134.765625
539.55078125,-1000.0,-966.30859375,131.8359375
785.64453125,-911.1328125,-1000.0,181.640625
948.73046875,341.796875,331.0546875,210.9375
788.57421875,999.51171875,348.14453125,144.53125
474.609375,121.58203125,-1000.0,99.609375
500.9765625,-1000.0,-973.14453125,142.578125
741.69921875,-1000.0,-1000.0,158.69140625
890.13671875,-254.8828125,219.23828125,158.69140625
757.8125,999.51171875,558.10546875,139.16015625
427.24609375,242.67578125,-912.109375,106.4453125
379.39453125,-1000.0,-1000.0,83.49609375
678.7109375,-588.8671875,-920.8984375,95.703125
922.36328125,848.6328125,367.1875,205.078125
722.16796875,999.51171875,970.21484375,-437.01171875
359.375,-193.359375,-438.96484375,-1000.0
342.28515625,-1000.0,-1000.0,-942.3828125
631.8359375,-1000.0,-916.015625,-647.94921875
892.578125,-17.08984375,242.1875,-399.4140625
836.42578125,999.51171875,999.51171875,-227.05078125
547.36328125,999.51171875,94.7265625,-34.1796875
367.67578125,3.41796875,-1000.0,41.015625
536.1328125,-1000.0,-916.015625,129.8828125
812.5,-138.18359375,275.390625,241.2109375
784.66796875,999.51171875,999.51171875,243.65234375
507.8125,999.51171875,320.80078125,214.35546875
274.4140625,66.89453125,-1000.0,207.51953125
441.89453125,-1000.0,-807.6171875,219.23828125
766.6015625,-49.31640625,514.16015625,272.4609375
715.8203125,999.51171875,999.51171875,277.83203125
501.46484375,999.51171875,802.734375,247.0703125
288.0859375,438.4765625,-519.04296875,237.3046875
368.1640625,-1000.0,-1000.0,274.4140625
677.24609375,-860.83984375,380.859375,258.7890625
651.3671875,535.64453125,999.51171875,191.89453125
488.28125,999.51171875,916.015625,162.59765625
246.09375,192.87109375,-299.8046875,137.20703125
247.0703125,-1000.0,-1000.0,146.484375
622.0703125,-568.84765625,330.078125,148.4375
679.19921875,804.6875,999.51171875,149.4140625
495.1171875,999.51171875,999.51171875,138.18359375
229.4921875,193.84765625,-68.84765625,110.83984375
191.40625,-1000.0,-1000.0,96.6796875
585.9375,-228.515625,160.64453125,196.2890625
653.3203125,999.51171875,999.51171875,80.56640625
399.90234375,994.62890625,999.51171875,-695.80078125
159.66796875,-258.7890625,19.53125,-1000.0
155.76171875,-1000.0,-1000.0,-949.21875
512.6953125,-940.4296875,-196.77734375,-994.62890625
614.2578125,-1000.0,999.51171875,-1000.0
452.63671875,-1000.0,999.51171875,-948.2421875
276.85546875,-927.734375,46.38671875,-626.46484375
159.66796875,-1000.0,-1000.0,-778.80859375
475.09765625,-605.46875,-386.71875,-714.84375
710.44921875,835.9375,903.80859375,-198.73046875
525.87890625,999.51171875,999.51171875,78.61328125
265.625,908.203125,106.93359375,141.6015625
124.0234375,980.46875,-1000.0,-221.19140625
380.859375,968.26171875,-614.74609375,-169.43359375
611.81640625,901.85546875,705.56640625,287.109375
443.84765625,999.51171875,999.51171875,-197.265625
144.04296875,226.5625,81.0546875,-536.1328125
62.01171875,-1000.0,-1000.0,-33.203125
321.77734375,-1000.0,-877.44140625,214.84375
580.56640625,-11.23046875,345.703125,361.328125
525.87890625,999.51171875,999.51171875,443.84765625
266.6015625,999.51171875,219.7265625,422.8515625
64.453125,235.3515625,-1000.0,409.66796875
208.49609375,-1000.0,-1000.0,467.28515625
515.625,-275.390625,89.35546875,453.61328125
529.296875,999.51171875,999.51171875,569.82421875
196.2890625,589.35546875,222.65625,156.25
-89.35546875,-859.86328125,-996.09375,-886.71875
116.2109375,-1000.0,-1000.0,-1000.0
429.19921875,-940.91796875,-153.3203125,-948.73046875
455.078125,-1000.0,999.51171875,-1000.0
297.8515625,-980.95703125,349.609375,-637.6953125
120.60546875,-970.21484375,-945.80078125,-511.23046875
177.734375,-1000.0,-1000.0,-808.10546875
487.79296875,82.03125,-165.52734375,-820.80078125
567.3828125,999.51171875,999.51171875,-568.359375
360.3515625,913.57421875,441.40625,16.6015625
145.99609375,959.9609375,-850.5859375,252.9296875
199.70703125,982.421875,-1000.0,460.44921875
415.0390625,903.3203125,-397.94921875,370.60546875
424.8046875,999.51171875,999.51171875,-323.2421875
173.828125,712.40234375,439.94140625,-866.2109375
-41.50390625,-667.96875,-920.8984375,-746.58203125
50.29296875,-1000.0,-1000.0,-432.12890625
317.87109375,-916.9921875,-816.40625,-0.48828125
486.328125,248.046875,620.1171875,376.46484375
341.796875,999.51171875,714.35546875,524.4140625
47.8515625,712.890625,-773.4375,609.86328125
-40.52734375,-678.22265625,-1000.0,535.15625
168.45703125,-1000.0,-991.2109375,514.16015625
405.2734375,372.0703125,283.69140625,670.41015625
315.91796875,999.51171875,838.8671875,723.14453125
36.62109375,999.51171875,-642.08984375,675.78125
-56.640625,134.27734375,-1000.0,655.2734375
132.32421875,-1000.0,-981.93359375,697.75390625
375.9765625,292.96875,176.7578125,735.3515625
308.10546875,999.51171875,999.51171875,686.03515625
38.57421875,897.94921875,-273.92578125,621.09375
-28.3203125,969.23828125,-1000.0,604.00390625
150.390625,974.12109375,-1000.0,604.00390625
312.98828125,895.99609375,22.94921875,623.53515625
294.921875,999.51171875,999.51171875,610.3515625
42.96875,326.66015625,-19.04296875,519.53125
-126.46484375,-1000.0,-1000.0,464.35546875
63.4765625,-1000.0,-1000.0,441.40625
297.36328125,-961.9140625,-137.20703125,489.74609375
247.55859375,-1000.0,999.51171875,-14.6484375
-54.19921875,-1000.0,58.59375,-982.91015625
-112.3046875,-1000.0,-1000.0,-746.09375
80.078125,-1000.0,-1000.0,-459.47265625
225.09765625,-1000.0,-187.98828125,-972.16796875
241.69921875,-1000.0,999.51171875,-1000.0
44.921875,-1000.0,159.1796875,-986.328125
-109.86328125,-928.22265625,-1000.0,-946.77734375
-12.6953125,-1000.0,-1000.0,-951.171875
233.88671875,-592.7734375,-345.21484375,-1000.0
331.54296875,780.2734375,999.51171875,-997.0703125
106.93359375,999.51171875,308.59375,-1000.0
-125.0,189.453125,-979.98046875,-1000.0
-74.21875,-1000.0,-1000.0,-986.328125
199.21875,-718.75,-429.6875,-1000.0
335.9375,721.19140625,999.51171875,-844.23828125
135.25390625,999.51171875,574.21875,-697.75390625
-94.7265625,903.3203125,-787.59765625,-523.4375
-23.4375,980.46875,-1000.0,87.890625
235.3515625,974.609375,-373.53515625,347.16796875
274.4140625,931.15234375,944.3359375,292.48046875
100.5859375,957.51953125,962.40234375,98.14453125
-89.35546875,999.51171875,-252.9296875,195.80078125
-182.6171875,-377.44140625,-1000.0,431.15234375
97.16796875,-979.4921875,-433.10546875,537.59765625
304.6875,604.98046875,846.6796875,734.375
139.6484375,999.51171875,999.51171875,776.3671875
-85.44921875,900.390625,63.4765625,790.0390625
-161.62109375,977.5390625,-1000.0,805.6640625
94.23828125,980.95703125,-450.68359375,871.09375
230.46875,895.01953125,851.5625,785.64453125
83.984375,999.51171875,999.51171875,573.73046875
-123.53515625,607.91015625,142.08984375,633.30078125
-282.71484375,-840.33203125,-1000.0,696.77734375
-13.18359375,-1000.0,-573.2421875,739.74609375
248.53515625,185.546875,738.76953125,796.38671875
148.92578125,999.51171875,999.51171875,788.0859375
-84.47265625,770.99609375,234.86328125,755.859375
-282.71484375,-578.125,-1000.0,705.078125
-80.078125,-1000.0,-746.09375,678.7109375
214.84375,169.921875,562.01171875,711.9140625
148.92578125,999.51171875,999.51171875,699.70703125
-134.27734375,196.2890625,158.203125,608.3984375
-278.80859375,-1000.0,-1000.0,549.31640625
-60.05859375,-962.890625,-1000.0,553.7109375
180.6640625,-1000.0,-3.41796875,567.87109375
166.9921875,-11.71875,999.51171875,554.6875
-37.109375,999.51171875,322.265625,497.55859375
-253.90625,191.40625,-958.0078125,442.87109375
-184.08203125,-1000.0,-1000.0,430.6640625
93.26171875,-666.015625,-78.125,441.40625
161.1328125,702.63671875,999.51171875,435.05859375
-6.34765625,999.51171875,743.65234375,390.13671875
-265.625,124.0234375,-536.1328125,326.66015625
-252.44140625,-991.69921875,-1000.0,305.6640625
53.22265625,-1000.0,-212.890625,342.7734375
155.76171875,-297.8515625,999.51171875,351.5625
27.34375,999.51171875,763.18359375,306.15234375
-241.69921875,205.078125,-526.3671875,250.0
-261.71875,-1000.0,-1000.0,231.93359375
52.24609375,-1000.0,-282.71484375,252.44140625
185.05859375,227.05078125,999.51171875,255.37109375
11.23046875,999.51171875,855.46875,216.30859375
-204.1015625,999.51171875,-401.85546875,169.921875
-251.953125,354.00390625,-1000.0,155.2734375
-36.62109375,-1000.0,-422.36328125,173.33984375
142.578125,-275.390625,897.94921875,200.1953125
49.8046875,999.51171875,992.1875,175.78125
-223.6328125,161.1328125,-212.890625,139.16015625
-321.77734375,-1000.0,-1000.0,131.8359375
-48.828125,-1000.0,-573.73046875,122.0703125
132.32421875,-198.73046875,712.890625,127.44140625
46.38671875,999.51171875,999.51171875,122.55859375
-184.5703125,932.12890625,86.9140625,82.51953125
-352.5390625,-631.34765625,-1000.0,68.359375
-79.58984375,-619.62890625,-588.8671875,93.26171875
175.29296875,893.06640625,741.2109375,117.67578125
25.390625,999.51171875,999.51171875,95.703125
-229.4921875,511.71875,68.359375,51.26953125
-369.62890625,-796.875,-1000.0,31.73828125
-160.64453125,-1000.0,-985.3515625,58.10546875
102.5390625,-223.6328125,167.48046875,85.9375
83.0078125,999.51171875,999.51171875,75.1953125
-189.94140625,667.96875,125.0,51.26953125
-356.4453125,-710.44921875,-1000.0,29.296875
-169.921875,-1000.0,-1000.0,23.4375
115.72265625,-188.4765625,-43.45703125,50.29296875
130.859375,999.51171875,999.51171875,56.640625
-140.625,976.07421875,238.28125,6.8359375
-355.95703125,-210.44921875,-992.67578125,-35.64453125
-231.93359375,-1000.0,-1000.0,-25.390625
55.17578125,-574.70703125,-197.75390625,25.87890625
114.2578125,746.09375,999.51171875,51.7578125
-112.3046875,999.51171875,346.19140625,4.39453125
-348.6328125,131.34765625,-945.80078125,-41.50390625
-279.78515625,-1000.0,-1000.0,-17.578125
54.6875,-195.80078125,-232.91015625,11.71875
138.671875,999.51171875,999.51171875,1.46484375
-105.46875,885.7421875,454.1015625,-34.66796875
-295.8984375,999.51171875,-855.95703125,-63.4765625
-278.80859375,153.3203125,-1000.0,-58.10546875
-56.15234375,-1000.0,-405.76171875,-21.484375
61.03515625,-978.515625,999.51171875,1.953125
-112.3046875,-976.5625,614.74609375,-26.85546875
-330.078125,-1000.0,-748.046875,-57.12890625
-285.64453125,-937.5,-1000.0,-52.24609375
-33.203125,-1000.0,-534.66796875,-17.578125
87.40234375,-291.50390625,835.9375,14.6484375
-13.18359375,999.51171875,927.24609375,-4.8828125
-265.625,580.078125,-374.51171875,-49.31640625
-377.44140625,-1000.0,-1000.0,-66.40625
-77.1484375,-362.3046875,-430.17578125,-47.36328125
106.93359375,974.609375,867.67578125,-15.625
-67.3828125,999.51171875,999.51171875,-34.66796875
-309.5703125,427.24609375,-39.0625,-76.171875
-458.0078125,-866.69921875,-1000.0,-114.2578125
-232.91015625,-1000.0,-680.17578125,-118.1640625
-0.9765625,-361.328125,606.93359375,-81.0546875
-73.2421875,999.51171875,999.51171875,-96.6796875
-350.5859375,589.84375,166.9921875,-167.96875
-531.25,-802.734375,-1000.0,-189.94140625
-290.0390625,-1000.0,-558.10546875,-221.6796875
-62.98828125,-589.84375,750.48828125,-338.37890625
-126.46484375,905.76171875,999.51171875,-318.359375
-344.23828125,808.59375,314.453125,-271.97265625
-543.9453125,-713.37890625,-1000.0,-275.87890625
-371.58203125,-1000.0,-758.7890625,-245.60546875
-83.0078125,122.55859375,561.03515625,-200.68359375
-106.4453125,999.51171875,999.51171875,-188.96484375
-307.6171875,927.734375,354.98046875,-206.0546875
-490.234375,-234.86328125,-945.80078125,-221.19140625
-375.9765625,-1000.0,-1000.0,-191.89453125
-79.1015625,-217.28515625,112.3046875,-147.94921875
-55.6640625,999.51171875,999.51171875,-143.06640625
-273.4375,958.984375,466.796875,-163.57421875
-451.171875,934.08203125,-841.30859375,-201.171875
-339.35546875,979.98046875,-1000.0,-193.359375
-88.8671875,942.3828125,-56.640625,-156.73828125
-72.265625,943.84765625,999.51171875,-129.39453125
-234.86328125,999.51171875,596.6796875,-152.34375
-463.37890625,-150.87890625,-704.58984375,-202.1484375
-433.59375,-1000.0,-1000.0,-190.4296875
-122.0703125,-1000.0,-247.55859375,-138.671875
5.37109375,51.7578125,999.51171875,-101.07421875
-166.50390625,999.51171875,660.15625,-139.6484375
-420.41015625,-54.6875,-671.38671875,-184.5703125
-415.52734375,-1000.0,-1000.0,-166.015625
-75.1953125,-170.41015625,-278.80859375,-135.25390625
34.1796875,983.3984375,999.51171875,-126.46484375
-161.1328125,999.51171875,857.421875,-141.11328125
-386.71875,166.50390625,-399.90234375,-171.38671875
-455.078125,-1000.0,-1000.0,-192.87109375
-171.875,-985.3515625,-604.00390625,-66.40625
-47.8515625,-972.65625,756.34765625,-447.265625
-176.26953125,-1000.0,998.046875,-776.3671875
-341.30859375,-1000.0,-303.7109375,-477.5390625
-388.18359375,-937.5,-1000.0,-319.3359375
-182.12890625,-1000.0,-841.30859375,-206.0546875
16.6015625,-238.28125,371.58203125,-106.93359375
-16.11328125,999.51171875,999.51171875,-62.98828125
-264.6484375,999.51171875,98.6328125,-83.984375
-446.2890625,-57.6171875,-1000.0,-94.23828125
-279.78515625,-1000.0,-927.24609375,-55.6640625
-28.80859375,-191.89453125,297.36328125,-13.18359375
-46.875,999.51171875,999.51171875,-1.953125
-302.24609375,635.7421875,72.265625,-32.2265625
-476.5625,-736.328125,-1000.0,-43.45703125
-309.5703125,-1000.0,-1000.0,-28.80859375
-20.01953125,-184.08203125,89.84375,-8.7890625
8.7890625,999.51171875,999.51171875,30.76171875
-257.8125,990.234375,161.1328125,-4.8828125
-461.42578125,-145.01953125,-1000.0,-56.15234375
-342.28515625,-1000.0,-1000.0,-29.78515625
-83.984375,-699.70703125,-121.58203125,21.484375
-11.23046875,705.078125,999.51171875,38.57421875
-244.140625,999.51171875,200.68359375,-8.7890625
-486.328125,-253.90625,-1000.0,-49.31640625
-399.4140625,-1000.0,-1000.0,-31.73828125
-79.1015625,-425.78125,-250.9765625,11.71875
24.4140625,859.86328125,999.51171875,27.34375
-226.5625,999.51171875,295.41015625,8.30078125
-463.8671875,174.31640625,-978.02734375,-31.25
-405.2734375,-1000.0,-1000.0,-33.69140625
-75.68359375,-225.5859375,-312.98828125,20.5078125
39.0625,999.51171875,999.51171875,45.8984375
-211.42578125,999.51171875,412.59765625,13.671875
-476.07421875,-199.21875,-912.109375,-60.05859375
-420.8984375,-1000.0,-1000.0,-34.1796875
-126.953125,-1000.0,-578.61328125,26.85546875
-4.39453125,175.29296875,941.89453125,-623.046875
-208.49609375,476.07421875,442.87109375,-1000.0
-473.14453125,-1000.0,-965.8203125,-989.2578125
-384.765625,-1000.0,-1000.0,-925.29296875
-83.49609375,-911.1328125,-874.51171875,-564.94140625
10.25390625,-1000.0,489.2578125,-742.67578125
-85.44921875,151.3671875,899.4140625,-1000.0
-321.77734375,356.93359375,-572.75390625,-975.5859375
-390.625,-1000.0,-1000.0,-990.72265625
-117.67578125,-1000.0,-1000.0,-933.10546875
120.60546875,-122.55859375,242.67578125,-557.6171875
58.59375,984.86328125,872.0703125,-156.25
-200.1953125,999.51171875,-639.16015625,21.484375
-270.01953125,187.5,-1000.0,149.4140625
-114.2578125,-1000.0,-1000.0,269.04296875
123.046875,-219.7265625,-62.01171875,367.67578125
95.703125,999.51171875,999.51171875,426.7578125
-230.46875,668.9453125,-385.7421875,358.88671875
-357.91015625,-657.71484375,-1000.0,313.96484375
-166.50390625,-1000.0,-1000.0,393.06640625
77.1484375,-439.94140625,-227.5390625,456.0546875
116.69921875,999.51171875,999.51171875,464.84375
-171.38671875,749.0234375,-82.51953125,420.8984375
-352.5390625,-677.24609375,-1000.0,370.60546875
-184.08203125,-1000.0,-1000.0,389.16015625
113.76953125,-165.52734375,-246.09375,435.05859375
151.85546875,975.5859375,999.51171875,429.6875
-100.5859375,999.51171875,74.70703125,406.73828125
-317.3828125,62.98828125,-1000.0,34.66796875
-196.77734375,-1000.0,-1000.0,-111.328125
166.015625,-231.4453125,-265.13671875,145.5078125
212.890625,999.51171875,999.51171875,239.74609375
-82.51953125,749.51171875,200.68359375,226.5625
-306.15234375,-586.42578125,-1000.0,175.78125
-187.98828125,-1000.0,-1000.0,210.9375
96.6796875,-666.9921875,-376.953125,281.25
205.56640625,624.51171875,999.51171875,335.9375
-6.8359375,999.51171875,413.0859375,308.10546875
-261.23046875,106.93359375,-919.921875,244.62890625
-212.40234375,-1000.0,-1000.0,238.76953125
49.31640625,-1000.0,-446.77734375,259.765625
176.26953125,-41.50390625,966.796875,262.20703125
37.109375,999.51171875,793.9453125,243.65234375
-185.546875,931.15234375,-546.38671875,197.75390625
-185.546875,940.4296875,-1000.0,181.640625
85.44921875,958.49609375,-518.06640625,213.8671875
236.81640625,912.109375,902.83203125,241.69921875
61.5234375,999.51171875,819.82421875,212.40234375
-236.328125,138.18359375,-560.05859375,173.828125
-293.45703125,-1000.0,-1000.0,173.828125
15.13671875,-1000.0,-788.0859375,197.265625
225.5859375,91.30859375,589.84375,214.35546875
70.80078125,999.51171875,915.0390625,193.359375
-244.62890625,124.0234375,-553.22265625,138.671875
-298.33984375,-1000.0,-1000.0,103.02734375
-64.94140625,-1000.0,-1000.0,130.859375
157.71484375,-266.6015625,-0.9765625,173.33984375
147.4609375,999.51171875,999.51171875,166.015625
-158.203125,365.234375,-326.66015625,108.3984375
-276.3671875,-952.63671875,-1000.0,82.51953125
-72.265625,-1000.0,-1000.0,106.4453125
179.6875,-301.7578125,-176.26953125,136.23046875
202.63671875,999.51171875,999.51171875,141.6015625
-117.67578125,492.67578125,-333.49609375,94.23828125
-273.92578125,-937.5,-1000.0,63.96484375
-64.453125,-1000.0,-1000.0,74.21875
227.5390625,75.1953125,-238.28125,93.75
223.14453125,999.51171875,999.51171875,111.328125
-79.58984375,828.125,-78.61328125,75.1953125
-253.90625,-398.92578125,-1000.0,50.29296875
-134.765625,-1000.0,-1000.0,59.08203125
145.99609375,-482.421875,-386.23046875,99.12109375
260.25390625,897.4609375,999.51171875,129.39453125
-21.97265625,999.51171875,171.875,68.359375
-269.04296875,-282.2265625,-1000.0,19.53125
-122.0703125,-1000.0,-1000.0,44.921875
194.3359375,-520.99609375,-290.52734375,94.23828125
275.390625,782.71484375,999.51171875,100.09765625
61.5234375,999.51171875,732.91015625,39.55078125
-212.890625,156.73828125,-608.3984375,-1.953125
-203.61328125,-1000.0,-1000.0,14.16015625
125.9765625,-1000.0,-130.859375,48.828125
221.19140625,203.125,999.51171875,71.77734375
75.1953125,999.51171875,999.51171875,55.17578125
-166.50390625,229.4921875,-32.2265625,3.41796875
-236.81640625,-1000.0,-1000.0,0.0
108.88671875,-794.43359375,15.13671875,41.9921875
228.02734375,569.3359375,999.51171875,67.87109375
69.82421875,999.51171875,999.51171875,60.05859375
-181.15234375,163.57421875,183.59375,20.5078125
-297.36328125,-1000.0,-1000.0,-46.875
59.08203125,-990.72265625,-72.265625,94.7265625
138.18359375,-969.7265625,999.51171875,-340.8203125
-56.15234375,-1000.0,999.51171875,-1000.0
-190.91796875,-972.65625,212.890625,-1000.0
-264.16015625,-987.3046875,-1000.0,-771.97265625
37.59765625,-1000.0,-291.50390625,-532.71484375
242.67578125,192.87109375,959.47265625,-659.66796875
78.61328125,999.51171875,999.51171875,-876.46484375
-113.76953125,999.51171875,272.94921875,-543.45703125
-275.390625,237.3046875,-1000.0,-559.08203125
-122.0703125,-1000.0,-474.12109375,-1000.0
194.82421875,-108.88671875,848.6328125,-923.828125
173.33984375,999.51171875,999.51171875,-521.97265625
-40.0390625,921.875,446.77734375,-176.26953125
-249.51171875,-302.24609375,-1000.0,-15.625
-75.1953125,-1000.0,-664.55078125,98.14453125
234.86328125,-159.66796875,723.6328125,218.75
185.05859375,968.26171875,999.51171875,279.296875
-14.6484375,999.51171875,653.80859375,276.85546875
-227.05078125,208.0078125,-786.62109375,270.5078125
-124.0234375,-1000.0,-769.53125,298.828125
223.6328125,-141.11328125,681.15234375,347.65625
186.5234375,999.51171875,999.51171875,338.8671875
15.13671875,999.51171875,856.93359375,403.3203125
-237.79296875,227.05078125,-393.5546875,25.390625
-242.1875,-1000.0,-1000.0,-272.94921875
172.36328125,-274.90234375,235.83984375,55.17578125
234.86328125,999.51171875,999.51171875,279.296875
-87.40234375,298.828125,617.1875,-263.18359375
-364.2578125,-1000.0,-656.25,-935.546875
-240.234375,-938.4765625,-1000.0,-1000.0
87.890625,-1000.0,-236.81640625,-871.58203125
234.375,-281.25,999.51171875,-404.296875
88.8671875,999.51171875,630.37109375,-83.984375
-206.0546875,235.83984375,-700.1953125,181.15234375
-276.85546875,-1000.0,-1000.0,-224.609375
48.33984375,-278.80859375,-379.39453125,-645.99609375
251.46484375,972.16796875,999.51171875,-179.19921875
40.52734375,999.51171875,597.65625,7.8125
-233.3984375,167.48046875,-790.52734375,52.734375
-243.1640625,-1000.0,-1000.0,87.40234375
22.4609375,-1000.0,-914.0625,98.14453125
237.3046875,1.953125,489.74609375,177.734375
76.171875,999.51171875,660.64453125,-517.578125
-252.44140625,-94.23828125,-867.67578125,-1000.0
-230.95703125,-1000.0,-1000.0,-923.828125
16.6015625,-1000.0,-1000.0,-878.41796875
226.5625,97.16796875,130.37109375,-991.69921875
143.06640625,999.51171875,707.51953125,-1000.0
-175.29296875,105.46875,-842.28515625,-996.09375
-220.21484375,-1000.0,-996.58203125,-969.23828125
13.671875,-1000.0,-1000.0,-794.921875
279.78515625,-273.4375,-206.0546875,-499.51171875
296.875,911.62109375,826.66015625,-117.67578125
32.71484375,999.51171875,-612.79296875,202.63671875
-80.078125,274.4140625,-1000.0,431.640625
62.98828125,-549.8046875,-1000.0,533.69140625
310.05859375,816.89453125,-306.640625,575.68359375
278.3203125,999.51171875,997.55859375,662.109375
11.23046875,999.51171875,-278.80859375,692.87109375
-133.7890625,252.9296875,-1000.0,710.9375
-7.8125,-1000.0,-1000.0,747.0703125
222.65625,-907.2265625,-456.0546875,778.3203125
296.38671875,546.875,999.51171875,788.0859375
40.0390625,999.51171875,39.0625,742.1875
-209.9609375,-384.27734375,-1000.0,707.03125
-102.05078125,-1000.0,-1000.0,701.66015625
181.640625,-393.5546875,-370.1171875,702.1484375
294.921875,877.9296875,999.51171875,696.77734375
49.31640625,999.51171875,253.90625,651.3671875
-223.14453125,131.34765625,-1000.0,592.7734375
-164.0625,-1000.0,-1000.0,575.1953125
158.203125,-184.5703125,-273.4375,584.9609375
262.20703125,999.51171875,999.51171875,586.9140625
22.94921875,999.51171875,384.765625,530.2734375
-241.69921875,-167.96875,-918.45703125,457.03125
-209.9609375,-1000.0,-1000.0,442.87109375
64.94140625,-1000.0,-413.57421875,459.47265625
211.9140625,-273.4375,999.51171875,470.21484375
83.49609375,999.51171875,718.75,425.78125
-225.09765625,159.66796875,-637.6953125,356.4453125
-253.90625,-1000.0,-1000.0,334.9609375
49.8046875,-1000.0,-467.7734375,352.5390625
240.72265625,116.69921875,867.1875,374.0234375
121.58203125,999.51171875,999.51171875,348.14453125
-216.30859375,120.60546875,-229.00390625,288.0859375
-313.96484375,-1000.0,-1000.0,258.30078125
0.48828125,-1000.0,-500.9765625,269.53125
234.375,-108.3984375,804.6875,304.19921875
144.53125,999.51171875,999.51171875,287.109375
-170.41015625,136.23046875,-2.9296875,222.65625
-285.64453125,-1000.0,-1000.0,187.5
12.6953125,-1000.0,-745.60546875,204.58984375
249.0234375,-591.796875,537.59765625,223.6328125
200.1953125,749.0234375,999.51171875,209.47265625
-41.50390625,999.51171875,187.01171875,162.59765625
-247.55859375,168.45703125,-1000.0,132.32421875
-62.5,-1000.0,-825.68359375,144.04296875
269.04296875,-275.390625,468.75,166.015625
267.08984375,999.51171875,999.51171875,162.109375
-29.296875,464.84375,205.078125,107.91015625
-204.1015625,-892.578125,-1000.0,70.80078125
22.4609375,-1000.0,-981.4453125,90.8203125
346.6796875,-271.97265625,187.5,136.71875
385.25390625,948.73046875,999.51171875,148.4375
131.34765625,999.51171875,381.34765625,108.88671875
-128.41796875,-31.25,-948.2421875,80.078125
-28.80859375,-1000.0,-1000.0,63.96484375
336.9140625,-63.4765625,121.58203125,95.703125
385.25390625,999.51171875,999.51171875,102.05078125
96.19140625,767.578125,397.4609375,38.0859375
-151.85546875,-528.80859375,-890.625,13.671875
-45.8984375,-1000.0,-1000.0,16.6015625
325.68359375,-272.94921875,-138.671875,21.97265625
457.03125,980.46875,999.51171875,38.0859375
233.3984375,972.65625,742.1875,17.08984375
-2.9296875,918.9453125,-559.5703125,-17.578125
47.8515625,965.33203125,-1000.0,-6.8359375
352.5390625,949.21875,-183.59375,26.85546875
441.89453125,935.05859375,999.51171875,42.96875
260.7421875,999.51171875,831.0546875,37.59765625
-3.41796875,-109.375,-438.4765625,-0.48828125
-16.6015625,-1000.0,-1000.0,4.39453125
319.82421875,-1000.0,-322.265625,16.6015625
490.234375,-257.32421875,975.5859375,-220.703125
335.44921875,999.51171875,960.44921875,-615.72265625
56.640625,7.8125,-249.51171875,-705.56640625
-3.90625,-1000.0,-1000.0,-666.015625
321.2890625,-1000.0,-471.19140625,-517.08984375
568.84765625,-41.015625,823.2421875,-218.75
445.80078125,999.51171875,999.51171875,-79.58984375
157.2265625,928.22265625,43.45703125,-30.2734375
33.69140625,951.171875,-1000.0,24.90234375
299.31640625,984.375,-625.9765625,96.19140625
496.09375,895.5078125,694.82421875,135.7421875
361.81640625,999.51171875,999.51171875,133.30078125
75.1953125,590.33203125,89.84375,110.83984375
-81.54296875,-784.66796875,-1000.0,107.421875
169.921875,-1000.0,-870.1171875,146.484375
472.16796875,-234.375,382.8125,188.96484375
449.70703125,999.51171875,999.51171875,170.41015625
126.953125,638.671875,172.36328125,115.234375
-112.3046875,-1000.0,-1000.0,91.796875
178.22265625,-497.0703125,-777.34375,128.41796875
518.06640625,947.75390625,509.27734375,180.17578125
411.1328125,999.51171875,999.51171875,170.41015625
130.37109375,839.35546875,304.6875,107.421875
-104.98046875,-404.78515625,-951.66015625,66.89453125
66.40625,-1000.0,-1000.0,107.91015625
425.29296875,-222.16796875,-52.734375,97.16796875
471.6796875,999.51171875,999.51171875,3.90625
100.09765625,247.0703125,282.2265625,-609.375
-173.828125,-1000.0,-971.6796875,-1000.0
4.39453125,-991.69921875,-1000.0,-976.5625
322.75390625,-993.1640625,-212.890625,-966.30859375
471.6796875,237.3046875,999.51171875,-620.60546875
254.8828125,999.51171875,493.1640625,-251.953125
-79.58984375,-18.06640625,-838.37890625,-95.703125
-40.0390625,-1000.0,-1000.0,29.296875
338.8671875,-480.95703125,-273.92578125,241.2109375
394.04296875,875.0,999.51171875,-330.56640625
107.421875,999.51171875,750.9765625,-1000.0
-145.99609375,-67.3828125,-569.82421875,-933.10546875
-101.07421875,-1000.0,-1000.0,-426.7578125
195.3125,-1000.0,-417.96875,-424.8046875
316.89453125,-398.4375,947.265625,-791.50390625
186.5234375,911.62109375,888.671875,-847.16796875
-88.37890625,999.51171875,-412.109375,-1000.0
-172.36328125,48.33984375,-1000.0,-1000.0
121.09375,-1000.0,-490.234375,-706.0546875
338.8671875,-127.9296875,824.21875,-755.859375
212.40234375,999.51171875,999.51171875,-1000.0
-39.55078125,440.91796875,-102.5390625,-571.2890625
-150.390625,-1000.0,-1000.0,-38.57421875
185.546875,-560.546875,-579.58984375,263.671875
430.6640625,935.546875,725.09765625,474.12109375
266.6015625,996.09375,999.51171875,571.2890625
-14.6484375,913.0859375,137.6953125,594.23828125
-157.71484375,981.4453125,-1000.0,613.76953125
111.81640625,981.4453125,-584.47265625,656.73828125
317.3828125,895.99609375,743.65234375,689.94140625
183.59375,999.51171875,999.51171875,683.59375
-99.609375,607.421875,118.65234375,627.44140625
-298.33984375,-770.5078125,-1000.0,609.86328125
-73.73046875,-1000.0,-943.84765625,491.69921875
237.79296875,-229.4921875,265.625,150.87890625
223.6328125,999.51171875,999.51171875,-59.08203125
-72.265625,551.7578125,188.96484375,-22.94921875
-275.390625,-824.21875,-1000.0,52.734375
-89.84375,-1000.0,-1000.0,135.7421875
247.55859375,-239.2578125,4.39453125,229.4921875
303.7109375,932.6171875,999.51171875,266.6015625
42.48046875,999.51171875,470.703125,264.16015625
-247.55859375,219.23828125,-841.30859375,247.0703125
-170.41015625,-1000.0,-1000.0,255.859375
218.75,-520.99609375,-122.0703125,298.828125
323.73046875,890.13671875,999.51171875,320.80078125
66.40625,999.51171875,529.296875,282.2265625
-244.140625,-49.31640625,-797.36328125,234.86328125
-201.171875,-1000.0,-1000.0,227.05078125
183.10546875,-665.0390625,-173.828125,252.9296875
305.17578125,638.671875,999.51171875,275.390625
82.03125,999.51171875,773.92578125,250.9765625
-202.63671875,475.5859375,-510.25390625,204.1015625
-217.7734375,-821.2890625,-1000.0,197.265625
125.48828125,-1000.0,-244.62890625,226.5625
298.33984375,-140.13671875,999.51171875,243.65234375
144.04296875,999.51171875,950.1953125,221.19140625
-189.453125,182.12890625,-242.67578125,176.7578125
-277.34375,-1000.0,-1000.0,154.296875
92.28515625,-1000.0,-271.484375,177.734375
296.38671875,107.421875,959.9609375,212.890625
161.62109375,999.51171875,999.51171875,200.1953125
-164.55078125,242.1875,25.87890625,151.3671875
-311.03515625,-1000.0,-1000.0,124.51171875
145.5078125,-210.44921875,-244.62890625,165.0390625
368.1640625,992.67578125,970.21484375,200.1953125
163.0859375,999.51171875,999.51171875,186.03515625
-104.00390625,411.62109375,175.78125,159.66796875
-281.73828125,-1000.0,-1000.0,143.5546875
83.984375,-956.54296875,-395.5078125,183.59375
404.296875,366.69921875,895.5078125,227.5390625
267.08984375,999.51171875,999.51171875,206.54296875
-37.59765625,458.984375,285.15625,159.1796875
-267.08984375,-837.40234375,-1000.0,125.0
-4.39453125,-1000.0,-629.39453125,140.625
355.46875,-228.515625,711.9140625,182.12890625
321.2890625,999.51171875,999.51171875,183.59375
18.06640625,720.703125,403.80859375,126.46484375
-241.2109375,-653.3203125,-996.09375,92.28515625
-33.69140625,-1000.0,-848.6328125,110.83984375
321.2890625,-221.19140625,489.74609375,139.16015625
280.76171875,999.51171875,999.51171875,145.01953125
2.44140625,674.31640625,508.30078125,112.79296875
-250.9765625,-704.1015625,-863.76953125,76.66015625
-107.421875,-1000.0,-990.234375,83.0078125
294.43359375,-158.69140625,324.70703125,121.58203125
303.7109375,999.51171875,999.51171875,123.046875
51.26953125,949.70703125,825.68359375,88.8671875
-166.9921875,938.96484375,-450.1953125,66.40625
-104.4921875,980.46875,-1000.0,68.359375
221.19140625,935.546875,254.8828125,93.26171875
231.93359375,959.47265625,999.51171875,110.3515625
44.43359375,989.2578125,927.24609375,91.796875
-230.46875,-202.1484375,-234.375,56.640625
-244.140625,-1000.0,-1000.0,54.19921875
173.33984375,-660.64453125,30.2734375,97.16796875
297.36328125,635.7421875,999.51171875,122.55859375
112.79296875,999.51171875,999.51171875,93.75
-166.50390625,210.9375,47.36328125,50.29296875
-269.53125,-1000.0,-1000.0,53.7109375
161.1328125,-327.63671875,-90.33203125,102.5390625
341.30859375,961.42578125,999.51171875,81.54296875
134.27734375,999.51171875,999.51171875,165.0390625
-220.703125,121.09375,133.30078125,-249.51171875
-422.36328125,-1000.0,-1000.0,-991.69921875
10.25390625,-979.98046875,-272.94921875,-1000.0
244.140625,-975.09765625,964.84375,-975.09765625
74.70703125,-1000.0,999.51171875,-1000.0
-140.625,-960.44921875,201.66015625,-993.1640625
-260.25390625,-1000.0,-1000.0,-931.15234375
73.2421875,-974.12109375,-326.66015625,-796.875
391.11328125,348.14453125,938.4765625,-365.72265625
263.18359375,999.51171875,999.51171875,32.2265625
-12.6953125,999.51171875,347.65625,182.6171875
-274.90234375,-38.57421875,-1000.0,286.62109375
9.765625,-475.09765625,-388.671875,403.3203125
348.14453125,966.796875,927.734375,495.1171875
176.26953125,999.51171875,999.51171875,517.578125
-84.47265625,936.03515625,417.48046875,399.4140625
-318.84765625,-236.81640625,-1000.0,405.76171875
-157.71484375,-1000.0,-732.421875,-18.06640625
177.734375,-118.1640625,636.71875,-638.671875
200.1953125,968.75,999.51171875,-375.0
-28.3203125,999.51171875,590.8203125,-421.38671875
-276.85546875,471.19140625,-767.578125,-517.578125
-183.10546875,-1000.0,-1000.0,-185.546875
187.01171875,-720.703125,307.6171875,38.0859375
234.375,721.6796875,999.51171875,107.91015625
5.859375,999.51171875,785.15625,118.65234375
-296.38671875,184.5703125,-543.9453125,118.1640625
-248.046875,-1000.0,-1000.0,173.33984375
162.59765625,-341.796875,290.0390625,197.75390625
247.55859375,999.51171875,999.51171875,342.28515625
-31.25,738.28125,855.46875,-108.3984375
-407.2265625,-623.046875,-370.1171875,-971.19140625
-355.46875,-1000.0,-1000.0,-1000.0
97.65625,-457.51953125,17.08984375,-971.19140625
251.953125,999.51171875,999.51171875,-774.90234375
-11.71875,523.4375,937.01171875,-774.90234375
-345.703125,-978.02734375,-208.0078125,-1000.0
-324.21875,-961.42578125,-1000.0,-999.51171875
67.3828125,-1000.0,-106.4453125,-994.62890625
224.609375,-358.3984375,999.51171875,-1000.0
93.75,999.51171875,999.51171875,-1000.0
-213.8671875,253.90625,124.51171875,-987.3046875
-387.6953125,-1000.0,-1000.0,-1000.0
78.125,-437.5,-133.7890625,-791.015625
315.91796875,891.11328125,999.51171875,-713.8671875
76.66015625,999.51171875,999.51171875,-1000.0
-212.40234375,324.21875,235.83984375,-955.56640625
-373.046875,-1000.0,-1000.0,-436.03515625
62.5,-536.1328125,-286.62109375,74.70703125
382.8125,912.109375,964.84375,483.88671875
184.08203125,956.0546875,999.51171875,830.56640625
-101.5625,999.51171875,288.0859375,874.51171875
-352.05078125,-79.58984375,-1000.0,792.48046875
-94.7265625,-1000.0,-458.49609375,793.9453125
270.99609375,347.16796875,864.74609375,841.30859375
136.23046875,999.51171875,999.51171875,799.8046875
-143.06640625,999.51171875,403.80859375,641.11328125
-367.1875,265.13671875,-1000.0,542.96875
-137.6953125,-877.44140625,-551.26953125,543.9453125
257.32421875,437.01171875,813.96484375,548.33984375
171.875,999.51171875,999.51171875,518.06640625
-134.765625,415.0390625,410.64453125,464.35546875
-383.7890625,-841.30859375,-946.77734375,429.19921875
-192.87109375,-1000.0,-971.19140625,437.98828125
197.265625,-454.58984375,299.31640625,456.54296875
229.98046875,873.046875,999.51171875,449.21875
-48.33984375,999.51171875,613.28125,404.78515625
-353.02734375,-98.6328125,-717.28515625,370.60546875
-267.08984375,-1000.0,-1000.0,340.8203125
175.29296875,-145.01953125,104.4921875,320.80078125
245.1171875,999.51171875,999.51171875,350.09765625
-47.8515625,999.51171875,705.56640625,333.49609375
-355.46875,-62.01171875,-571.77734375,297.8515625
-316.89453125,-1000.0,-1000.0,300.29296875
77.1484375,-983.88671875,-148.92578125,323.73046875
229.98046875,187.01171875,999.51171875,323.2421875
43.9453125,999.51171875,872.0703125,301.7578125
-284.1796875,184.08203125,-367.67578125,281.25
-325.1953125,-1000.0,-1000.0,273.4375
97.16796875,-772.94921875,-165.52734375,297.8515625
282.71484375,582.03125,999.51171875,315.4296875
107.421875,999.51171875,997.0703125,280.2734375
-232.421875,182.12890625,-91.796875,226.07421875
-368.1640625,-997.0703125,-1000.0,204.1015625
22.94921875,-1000.0,-359.86328125,222.16796875
253.41796875,-75.68359375,937.98828125,230.46875
100.5859375,999.51171875,999.51171875,146.484375
-236.328125,244.62890625,-54.6875,94.7265625
-427.734375,-1000.0,-1000.0,-140.13671875
-137.6953125,-997.55859375,-632.32421875,-778.3203125
149.90234375,-965.33203125,699.70703125,-1000.0
56.15234375,-1000.0,999.51171875,-978.515625
-230.95703125,-1000.0,-17.08984375,-1000.0
-340.33203125,-937.98828125,-1000.0,-1000.0
-52.734375,-1000.0,-750.0,-1000.0
245.1171875,-283.203125,533.69140625,-1000.0
190.91796875,999.51171875,999.51171875,-1000.0
-177.24609375,313.96484375,111.81640625,-1000.0
-377.44140625,-979.98046875,-1000.0,-1000.0
-93.26171875,-1000.0,-941.40625,-1000.0
247.0703125,-191.40625,245.60546875,-1000.0
240.234375,981.93359375,999.51171875,-1000.0
-76.171875,999.51171875,257.32421875,-1000.0
-338.37890625,27.83203125,-989.74609375,-998.046875
-188.4765625,-1000.0,-1000.0,-1000.0
225.5859375,-123.046875,-14.16015625,-941.89453125
286.1328125,999.51171875,999.51171875,-858.88671875
-16.6015625,939.453125,294.43359375,-472.16796875
-176.26953125,943.359375,-982.91015625,327.1484375
-56.15234375,974.609375,-1000.0,330.078125
187.98828125,952.1484375,-62.01171875,-118.1640625
249.51171875,926.26953125,999.51171875,231.93359375
5.37109375,999.51171875,478.02734375,498.046875
-372.0703125,-48.33984375,-830.078125,-36.62109375
-335.44921875,-1000.0,-1000.0,-607.91015625
88.37890625,-1000.0,-208.49609375,-652.34375
226.5625,-350.5859375,999.51171875,-642.578125
69.3359375,999.51171875,820.3125,-634.27734375
-235.83984375,819.82421875,-449.70703125,-599.609375
-302.24609375,-604.98046875,-1000.0,-561.03515625
62.98828125,-1000.0,-285.64453125,-505.859375
277.83203125,90.33203125,999.51171875,-464.35546875
98.14453125,999.51171875,904.78515625,-452.63671875
-270.01953125,189.94140625,-345.703125,-445.3125
-343.26171875,-1000.0,-1000.0,-414.0625
68.359375,-817.3828125,-374.51171875,-379.39453125
303.7109375,530.76171875,939.453125,-355.95703125
108.88671875,999.51171875,993.1640625,-339.35546875
-273.4375,123.046875,-206.54296875,-335.9375
-370.1171875,-1000.0,-1000.0,-307.6171875
-20.01953125,-1000.0,-621.09375,-277.34375
240.234375,-224.12109375,668.45703125,-251.953125
159.66796875,999.51171875,999.51171875,-245.60546875
-213.8671875,450.68359375,74.70703125,-256.34765625
-416.9921875,-917.48046875,-1000.0,-236.328125
-114.74609375,-1000.0,-812.98828125,-219.23828125
199.21875,-143.5546875,476.07421875,-203.125
142.08984375,999.51171875,999.51171875,-184.5703125
-193.359375,640.625,93.75,-174.31640625
-375.48828125,-789.55078125,-1000.0,-144.04296875
-101.5625,-1000.0,-920.8984375,-134.765625
255.859375,126.953125,311.5234375,-134.27734375
217.7734375,999.51171875,999.51171875,-129.39453125
-168.9453125,371.09375,131.8359375,-127.44140625
-391.6015625,-911.1328125,-1000.0,-135.7421875
-136.23046875,-1000.0,-1000.0,46.875
253.41796875,-195.3125,17.578125,463.37890625
303.22265625,999.51171875,999.51171875,659.1796875
-82.03125,925.29296875,276.85546875,191.89453125
-361.328125,-316.89453125,-975.5859375,199.21875
-195.3125,-1000.0,-1000.0,424.8046875
145.5078125,-357.91015625,-145.01953125,118.1640625
263.18359375,887.20703125,999.51171875,392.08984375
24.90234375,999.51171875,583.0078125,741.2109375
-347.16796875,212.890625,-750.0,354.00390625
-327.63671875,-1000.0,-1000.0,129.8828125
155.76171875,-342.28515625,-166.50390625,469.7265625
288.57421875,974.609375,999.51171875,498.53515625
-19.53125,999.51171875,650.390625,244.62890625
-322.265625,-57.12890625,-667.48046875,326.171875
-290.52734375,-1000.0,-1000.0,307.6171875
6.34765625,-1000.0,-270.01953125,-337.40234375
183.10546875,-301.7578125,999.51171875,-619.140625
76.66015625,999.51171875,871.58203125,-579.58984375
-269.04296875,189.453125,-401.3671875,-559.5703125
-326.66015625,-1000.0,-1000.0,-525.390625
109.86328125,-511.71875,-230.46875,-494.62890625
317.3828125,848.6328125,999.51171875,-459.47265625
104.98046875,999.51171875,976.07421875,-437.5
-237.3046875,121.09375,-170.8984375,-408.203125
-341.30859375,-1000.0,-1000.0,-369.140625
37.109375,-1000.0,-451.171875,-350.09765625
315.91796875,-203.61328125,838.37890625,-332.51953125
203.61328125,999.51171875,999.51171875,-341.796875
-130.37109375,685.05859375,65.91796875,-187.98828125
-321.77734375,-707.51953125,-1000.0,-30.2734375
-39.0625,-1000.0,-657.2265625,-171.38671875
278.3203125,-40.0390625,655.76171875,-253.90625
213.37890625,999.51171875,999.51171875,-242.1875
-140.13671875,594.7265625,162.59765625,-249.0234375
-367.67578125,-755.859375,-1000.0,-234.86328125
-88.8671875,-1000.0,-845.21484375,-213.37890625
253.90625,-201.66015625,435.05859375,-194.82421875
214.35546875,999.51171875,999.51171875,-182.12890625
-123.046875,815.91796875,180.6640625,-184.08203125
-359.86328125,-520.5078125,-1000.0,-151.3671875
-152.83203125,-1000.0,-1000.0,-137.20703125
238.76953125,-145.99609375,87.40234375,-150.390625
274.4140625,965.33203125,999.51171875,-140.625
-33.203125,999.51171875,332.51953125,-135.25390625
-313.96484375,222.16796875,-945.3125,-165.52734375
-202.1484375,-1000.0,-1000.0,-35.64453125
234.86328125,-253.41796875,-80.078125,302.24609375
288.57421875,999.51171875,999.51171875,179.19921875
-86.42578125,722.65625,368.65234375,-101.5625
-379.39453125,-607.91015625,-924.8046875,-129.39453125
-239.2578125,-1000.0,-1000.0,-119.140625
158.203125,-484.375,-182.12890625,-114.2578125
283.203125,807.6171875,999.51171875,-116.2109375
13.671875,999.51171875,574.70703125,-115.72265625
-305.17578125,180.6640625,-758.30078125,-114.2578125
-250.0,-1000.0,-1000.0,-104.4921875
166.50390625,-475.5859375,-190.4296875,-83.984375
310.05859375,886.23046875,999.51171875,-80.56640625
64.94140625,999.51171875,751.953125,-79.58984375
-263.18359375,131.8359375,-547.8515625,-76.66015625
-299.31640625,-1000.0,-1000.0,-73.73046875
152.83203125,-304.6875,-281.73828125,-63.4765625
358.88671875,955.078125,999.51171875,-57.12890625
120.60546875,999.51171875,934.08203125,-62.5
-223.14453125,187.98828125,-282.2265625,-70.80078125
-323.2421875,-1000.0,-1000.0,-55.6640625
50.78125,-979.4921875,-466.30859375,-39.55078125
316.89453125,280.76171875,839.84375,-39.55078125
164.55078125,999.51171875,999.51171875,-42.48046875
-229.4921875,131.8359375,-59.08203125,-40.0390625
-364.2578125,-989.74609375,-1000.0,-30.76171875
-23.4375,-1000.0,-768.5546875,-15.625
250.48828125,-410.15625,532.71484375,-11.23046875
189.453125,999.51171875,999.51171875,-23.4375
-190.91796875,316.40625,7.8125,-42.48046875
-400.87890625,-1000.0,-1000.0,-40.0390625
-78.61328125,-1000.0,-827.63671875,-28.3203125
267.08984375,275.87890625,425.29296875,-24.4140625
187.5,999.51171875,999.51171875,-12.6953125
-132.32421875,999.51171875,152.83203125,-16.11328125
-339.35546875,270.5078125,-1000.0,-19.04296875
-183.59375,-1000.0,-1000.0,-12.20703125
148.4375,-819.82421875,6.34765625,-14.6484375
213.37890625,811.5234375,999.51171875,-6.34765625
-132.8125,595.703125,142.578125,-15.625
-395.5078125,-912.59765625,-1000.0,-23.92578125
-184.5703125,-1000.0,-1000.0,-16.6015625
188.96484375,-186.03515625,-136.23046875,-16.6015625
271.97265625,990.72265625,999.51171875,-16.6015625
-58.10546875,999.51171875,304.6875,-17.578125
-364.2578125,-75.1953125,-971.19140625,-23.92578125
-248.53515625,-1000.0,-1000.0,-27.34375
179.6875,-140.625,-184.5703125,-17.578125
270.5078125,987.79296875,999.51171875,-18.5546875
-34.66796875,999.51171875,419.43359375,-16.11328125
-336.42578125,188.96484375,-888.671875,1.46484375
-296.875,-1000.0,-1000.0,2.9296875
77.63671875,-1000.0,-301.7578125,-4.39453125
233.3984375,180.17578125,999.51171875,-6.34765625
-7.32421875,999.51171875,544.43359375,-17.08984375
-347.16796875,-95.703125,-796.875,-25.390625
-323.73046875,-1000.0,-1000.0,-18.5546875
76.66015625,-723.6328125,-393.06640625,-12.20703125
294.43359375,590.8203125,974.609375,-5.859375
74.21875,999.51171875,864.74609375,-4.39453125
-301.7578125,155.76171875,-437.98828125,-17.08984375
-359.86328125,-990.234375,-1000.0,-16.6015625
8.30078125,-1000.0,-532.71484375,-4.39453125
230.46875,-195.80078125,820.3125,-12.20703125
115.72265625,999.51171875,996.09375,-14.16015625
-245.60546875,212.890625,-283.69140625,-8.7890625
-382.8125,-1000.0,-1000.0,-8.30078125
-59.5703125,-1000.0,-800.29296875,-5.37109375
207.03125,-293.9453125,445.3125,-7.8125
136.23046875,935.05859375,999.51171875,-7.8125
-160.64453125,999.51171875,71.2890625,-3.41796875
-371.58203125,139.16015625,-1000.0,-11.23046875
-164.0625,-1000.0,-940.91796875,-4.8828125
208.49609375,-263.18359375,271.484375,2.44140625
192.3828125,999.51171875,999.51171875,-14.6484375
-196.77734375,682.12890625,71.2890625,-16.6015625
-408.203125,-690.4296875,-1000.0,-7.32421875
-186.03515625,-1000.0,-1000.0,-15.13671875
159.1796875,-225.09765625,38.0859375,-17.08984375
189.453125,999.51171875,999.51171875,-10.7421875
-169.921875,668.9453125,155.2734375,-9.765625
-430.17578125,-775.390625,-1000.0,-10.7421875
-202.63671875,-1000.0,-1000.0,-9.27734375
183.10546875,117.1875,36.62109375,-9.27734375
191.89453125,999.51171875,999.51171875,-9.27734375
-142.578125,693.84765625,229.00390625,-5.37109375
-408.69140625,-608.3984375,-996.09375,-2.44140625
-235.3515625,-1000.0,-1000.0,-0.9765625
188.96484375,-157.71484375,-152.34375,-0.9765625
264.16015625,963.8671875,999.51171875,-0.48828125
-40.52734375,999.51171875,469.7265625,-5.859375
-326.171875,202.63671875,-846.19140625,-13.18359375
-276.3671875,-1000.0,-1000.0,-4.8828125
148.92578125,-424.31640625,-222.65625,4.39453125
310.546875,909.66796875,999.51171875,-4.8828125
44.43359375,999.51171875,704.58984375,-17.578125
-296.875,140.13671875,-614.2578125,-15.625
-301.7578125,-1000.0,-1000.0,-7.32421875
84.9609375,-1000.0,-300.78125,-6.8359375
275.390625,73.2421875,999.51171875,-8.30078125
85.44921875,999.51171875,819.3359375,-10.7421875
-279.296875,155.2734375,-481.93359375,-16.6015625
-355.95703125,-1000.0,-1000.0,-16.6015625
38.57421875,-755.37109375,-382.32421875,-10.25390625
281.73828125,671.38671875,909.66796875,-12.20703125
86.9140625,999.51171875,999.51171875,-22.94921875
-224.609375,901.3671875,-97.65625,-27.83203125
-309.5703125,979.98046875,-1000.0,-23.4375
20.5078125,966.30859375,-492.1875,-24.4140625
228.02734375,903.80859375,824.21875,-24.90234375
84.47265625,999.51171875,999.51171875,-24.4140625
-249.51171875,174.8046875,6.34765625,-26.3671875
-396.97265625,-1000.0,-1000.0,-20.01953125
-51.26953125,-1000.0,-720.21484375,-9.765625
256.34765625,-354.98046875,573.73046875,-5.37109375
225.5859375,999.51171875,999.51171875,2.44140625
-146.484375,369.140625,125.0,-6.34765625
-387.20703125,-1000.0,-1000.0,-18.06640625
-41.015625,-625.48828125,-740.72265625,-14.16015625
315.91796875,761.23046875,570.3125,-8.30078125
203.61328125,999.51171875,999.51171875,-2.9296875
-141.11328125,552.24609375,150.87890625,-11.23046875
-362.3046875,-732.91015625,-1000.0,-21.484375
-135.25390625,-1000.0,-1000.0,-11.23046875
219.7265625,-425.78125,61.5234375,-8.7890625
268.06640625,927.24609375,999.51171875,-17.08984375
-56.640625,994.140625,290.52734375,-22.94921875
-356.4453125,-297.36328125,-969.7265625,-29.78515625
-214.35546875,-1000.0,-1000.0,-32.2265625
216.796875,-310.546875,-119.140625,-19.04296875
347.65625,981.93359375,999.51171875,-8.7890625
27.83203125,992.1875,465.8203125,-14.6484375
-314.453125,-234.375,-856.4453125,-19.53125
-227.5390625,-1000.0,-1000.0,-26.85546875
188.96484375,-559.08203125,-155.76171875,-29.296875
319.82421875,741.69921875,999.51171875,-24.90234375
89.84375,999.51171875,854.4921875,-29.78515625
-232.91015625,301.26953125,-400.87890625,-32.2265625
-267.578125,-1000.0,-1000.0,-23.92578125
167.48046875,-659.1796875,-184.5703125,-14.6484375
337.40234375,812.98828125,999.51171875,-15.625
96.19140625,962.40234375,918.9453125,-24.4140625
-177.734375,999.51171875,-274.90234375,-28.3203125
-272.94921875,237.79296875,-1000.0,-29.296875
49.8046875,-1000.0,-297.36328125,-17.578125
312.5,-230.95703125,958.49609375,-14.6484375
172.8515625,999.51171875,999.51171875,-16.6015625
-194.3359375,171.38671875,-44.43359375,-14.6484375
-339.84375,-1000.0,-1000.0,-7.32421875
37.59765625,-1000.0,-418.45703125,-7.32421875
304.19921875,-65.91796875,873.53515625,-9.765625
172.8515625,999.51171875,999.51171875,-21.97265625
-195.80078125,265.625,117.1875,-35.64453125
-404.78515625,-1000.0,-1000.0,-30.76171875
3.41796875,-485.3515625,-448.73046875,-18.06640625
327.1484375,875.48828125,866.69921875,-15.625
152.83203125,999.51171875,999.51171875,-23.92578125
-182.12890625,232.91015625,147.4609375,-18.06640625
-375.9765625,-959.47265625,-1000.0,-13.18359375
-83.984375,-1000.0,-779.296875,-19.04296875
276.85546875,-233.3984375,513.18359375,-14.6484375
244.62890625,999.51171875,999.51171875,-16.11328125
-94.23828125,847.16796875,242.67578125,-22.4609375
-362.79296875,-504.8828125,-1000.0,-21.97265625
-122.55859375,-1000.0,-888.18359375,-11.23046875
290.52734375,-18.5546875,375.48828125,-3.41796875
253.90625,999.51171875,999.51171875,-17.578125
-44.921875,999.51171875,389.6484375,-25.390625
-319.82421875,0.48828125,-897.94921875,-14.6484375
-217.7734375,-1000.0,-1000.0,-7.8125
197.75390625,-468.26171875,-25.87890625,-5.859375
305.6640625,913.57421875,999.51171875,-2.44140625
26.3671875,999.51171875,502.44140625,0.48828125
-297.8515625,-193.359375,-819.82421875,-1.46484375
-221.6796875,-1000.0,-1000.0,1.46484375
208.984375,-572.265625,-119.62890625,5.859375
313.4765625,762.6953125,999.51171875,0.9765625
54.6875,999.51171875,761.71875,-6.8359375
-212.890625,922.36328125,-509.27734375,0.0
-260.7421875,-320.3125,-1000.0,7.8125
73.2421875,-1000.0,-199.70703125,-0.9765625
269.53125,190.91796875,999.51171875,-15.13671875
82.03125,999.51171875,911.62109375,-28.80859375
-271.484375,126.953125,-293.9453125,-32.2265625
-350.09765625,-1000.0,-1000.0,-39.0625
55.6640625,-1000.0,-291.50390625,-34.66796875
289.0625,-242.1875,997.0703125,-23.4375
149.90234375,999.51171875,958.49609375,-37.109375
-193.359375,227.5390625,-237.3046875,-29.78515625
-312.5,-1000.0,-1000.0,-14.6484375
135.7421875,-300.29296875,-307.12890625,-12.20703125
388.671875,953.125,939.453125,-7.32421875
168.45703125,999.51171875,999.51171875,-7.32421875
-174.31640625,295.41015625,47.36328125,-29.296875
-339.35546875,-980.46875,-1000.0,-43.9453125
7.8125,-1000.0,-622.55859375,-42.48046875
297.36328125,33.203125,701.171875,-137.20703125
171.875,999.51171875,999.51171875,-234.375
-188.4765625,180.17578125,100.5859375,-190.91796875
-368.65234375,-1000.0,-1000.0,-89.84375
-60.546875,-1000.0,-817.87109375,-42.48046875
295.8984375,-214.84375,458.0078125,-22.94921875
274.90234375,999.51171875,999.51171875,-15.13671875
-65.91796875,796.875,200.1953125,-16.11328125
-332.51953125,-540.52734375,-1000.0,-9.765625
-121.58203125,-1000.0,-989.2578125,10.7421875
260.25390625,-213.37890625,194.3359375,-61.5234375
276.3671875,999.51171875,999.51171875,-164.55078125
-70.3125,759.27734375,256.8359375,-148.92578125
-351.5625,-601.5625,-997.0703125,-134.765625
-173.33984375,-1000.0,-1000.0,-146.97265625
244.62890625,-170.41015625,-2.44140625,-146.97265625
300.78125,985.83984375,999.51171875,-115.72265625
-31.25,999.51171875,369.62890625,-65.4296875
-338.37890625,-45.8984375,-915.0390625,-75.68359375
-248.53515625,-1000.0,-1000.0,-78.125
110.3515625,-1000.0,-181.15234375,-40.0390625
249.0234375,134.765625,999.51171875,-24.4140625
33.203125,999.51171875,577.63671875,-27.83203125
-314.94140625,22.4609375,-755.859375,-22.4609375
-286.62109375,-1000.0,-1000.0,-52.734375
131.34765625,-582.51953125,-223.6328125,24.90234375
324.21875,746.09375,999.51171875,488.76953125
92.28515625,999.51171875,795.8984375,790.0390625
-250.48828125,533.203125,-504.8828125,881.34765625
-393.5546875,-1000.0,-1000.0,347.65625
17.08984375,-405.76171875,-235.83984375,-180.6640625
330.078125,990.72265625,999.51171875,270.99609375
66.89453125,999.51171875,916.015625,196.2890625
-312.98828125,70.80078125,-305.6640625,-190.91796875
-380.37109375,-1000.0,-1000.0,-167.96875
25.87890625,-862.79296875,-364.74609375,-163.0859375
278.3203125,432.6171875,916.9921875,-159.66796875
113.28125,999.51171875,999.51171875,-147.4609375
-230.46875,201.66015625,-41.50390625,-121.09375
-385.25390625,-1000.0,-1000.0,-145.01953125
33.69140625,-745.60546875,-538.0859375,93.75
373.046875,625.0,770.5078125,585.9375
226.07421875,999.51171875,999.51171875,825.1953125
-114.2578125,787.109375,137.20703125,940.4296875
-375.9765625,-724.12109375,-1000.0,940.4296875
-59.5703125,-724.12109375,-702.1484375,998.53515625
266.11328125,816.40625,622.55859375,764.6484375
55.17578125,999.51171875,999.51171875,-31.73828125
-317.3828125,106.4453125,127.44140625,-419.43359375
-482.421875,-985.83984375,-1000.0,-411.62109375
-211.9140625,-1000.0,-971.6796875,-409.66796875
139.16015625,-512.6953125,208.984375,-391.11328125
160.15625,999.51171875,999.51171875,-364.2578125
-209.9609375,598.14453125,194.82421875,-344.7265625
-465.33203125,-830.56640625,-1000.0,-328.61328125
-262.6953125,-1000.0,-1000.0,-308.10546875
71.77734375,-702.1484375,-11.23046875,-290.52734375
127.44140625,679.19921875,999.51171875,-280.76171875
-150.87890625,999.51171875,300.78125,-264.6484375
-438.96484375,-278.80859375,-971.6796875,-248.046875
-325.1953125,-1000.0,-1000.0,-238.76953125
88.37890625,-186.5234375,-118.1640625,-229.98046875
189.453125,974.609375,999.51171875,-210.44921875
-124.0234375,999.51171875,469.23828125,-199.70703125
-450.68359375,110.83984375,-850.09765625,-202.1484375
-389.6484375,-1000.0,-1000.0,-183.59375
68.84765625,-174.8046875,-179.19921875,-163.0859375
201.66015625,997.55859375,999.51171875,-156.73828125
-83.49609375,999.51171875,674.8046875,-145.01953125
-409.66796875,170.41015625,-634.27734375,-132.8125
-421.875,-1000.0,-1000.0,-128.90625
-19.04296875,-1000.0,-312.01171875,-118.65234375
185.546875,-36.62109375,997.55859375,-109.375
22.4609375,999.51171875,910.64453125,-107.91015625
-347.65625,172.8515625,-344.23828125,-115.234375
-445.80078125,-1000.0,-1000.0,-111.81640625
-72.75390625,-1000.0,-481.93359375,-94.23828125
187.01171875,-253.41796875,826.171875,-88.37890625
108.88671875,999.51171875,999.51171875,-88.37890625
-252.9296875,306.640625,-62.01171875,-78.61328125
-420.41015625,-1000.0,-1000.0,-74.21875
-58.59375,-1000.0,-607.91015625,-69.3359375
237.3046875,217.28515625,726.5625,-63.4765625
105.95703125,999.51171875,999.51171875,-67.3828125
-279.296875,162.109375,-9.27734375,-73.2421875
-437.98828125,-988.76953125,-1000.0,-67.87109375
-112.3046875,-1000.0,-847.65625,-59.08203125
225.5859375,-299.31640625,401.85546875,-54.19921875
203.61328125,999.51171875,999.51171875,-51.7578125
-161.62109375,851.5625,147.4609375,-58.10546875
-418.9453125,-783.69140625,-1000.0,-51.26953125
-91.30859375,-511.71875,-757.8125,-44.43359375
290.52734375,940.91796875,554.6875,-37.59765625
177.734375,999.51171875,999.51171875,-29.296875
-185.546875,473.6328125,161.1328125,-37.109375
-423.828125,-827.63671875,-1000.0,-41.50390625
-207.03125,-1000.0,-1000.0,-40.52734375
174.31640625,-306.15234375,-13.671875,-42.48046875
245.60546875,999.51171875,999.51171875,-39.0625
-103.02734375,812.98828125,292.96875,-39.0625
-407.2265625,-556.640625,-976.07421875,-37.59765625
-242.1875,-1000.0,-1000.0,-22.4609375
201.66015625,-152.83203125,-110.83984375,-14.16015625
293.45703125,999.51171875,999.51171875,-13.18359375
-31.73828125,999.51171875,473.6328125,-16.6015625
-363.76953125,-114.2578125,-843.26171875,-27.34375
-294.921875,-1000.0,-1000.0,-26.85546875
121.58203125,-639.16015625,-198.2421875,-20.01953125
279.78515625,712.40234375,999.51171875,-10.25390625
26.3671875,999.51171875,676.7578125,-11.71875
-336.9140625,-16.6015625,-648.4375,-19.04296875
-327.1484375,-1000.0,-1000.0,-26.85546875
87.890625,-850.09765625,-245.60546875,-20.99609375
271.484375,424.31640625,999.51171875,-15.13671875
87.40234375,999.51171875,951.171875,-29.78515625
-265.625,220.703125,-240.72265625,-27.83203125
-352.5390625,-1000.0,-1000.0,-20.01953125
58.59375,-1000.0,-374.0234375,-18.06640625
306.15234375,84.9609375,931.15234375,-10.7421875
137.20703125,999.51171875,999.51171875,-15.625
-217.28515625,578.61328125,-117.67578125,-26.3671875
-388.671875,-805.17578125,-1000.0,-23.92578125
-24.4140625,-1000.0,-513.18359375,-14.16015625
296.875,80.078125,803.22265625,-11.71875
166.50390625,999.51171875,999.51171875,-17.578125
-193.359375,542.48046875,43.45703125,-25.390625
-393.06640625,-778.3203125,-1000.0,-24.4140625
-95.21484375,-1000.0,-749.51171875,-12.20703125
250.9765625,-267.08984375,551.26953125,-0.9765625
196.77734375,999.51171875,999.51171875,-9.765625
-174.31640625,604.98046875,125.0,-26.3671875
-402.34375,-796.38671875,-1000.0,-17.578125
-139.16015625,-1000.0,-899.90234375,-18.5546875
222.65625,-139.16015625,336.9140625,-30.2734375
192.3828125,989.74609375,999.51171875,-34.1796875
-146.484375,999.51171875,224.12109375,-33.203125
-413.0859375,-19.04296875,-1000.0,-17.578125
-244.62890625,-1000.0,-1000.0,11.23046875
185.05859375,-75.68359375,79.58984375,30.76171875
220.21484375,999.51171875,999.51171875,50.29296875
-138.18359375,834.47265625,250.48828125,37.109375
-416.9921875,-428.7109375,-987.79296875,-16.11328125
-257.8125,-1000.0,-1000.0,-54.6875
126.953125,-667.48046875,-111.81640625,-55.17578125
226.5625,642.578125,999.51171875,-62.01171875
-53.7109375,999.51171875,466.796875,-76.171875
-397.94921875,76.66015625,-851.5625,-68.359375
-331.54296875,-1000.0,-1000.0,-56.640625
106.4453125,-593.75,-164.55078125,-59.08203125
258.7890625,786.1328125,999.51171875,-57.12890625
14.6484375,999.51171875,785.64453125,-59.5703125
-273.92578125,916.9921875,-495.1171875,-60.05859375
-322.265625,-256.8359375,-1000.0,-43.45703125
19.04296875,-1000.0,-253.41796875,-34.66796875
230.95703125,-190.4296875,999.51171875,-34.1796875
63.4765625,999.51171875,837.890625,-28.3203125
-277.83203125,176.26953125,-446.2890625,203.125
-325.68359375,-1000.0,-1000.0,436.5234375
25.390625,-1000.0,-321.77734375,172.36328125
220.21484375,-11.23046875,962.40234375,-79.58984375
105.46875,999.51171875,996.58203125,-43.9453125
-230.46875,208.984375,-183.59375,125.48828125
-349.12109375,-1000.0,-1000.0,287.109375
9.27734375,-1000.0,-469.23828125,289.0625
263.18359375,-134.765625,836.42578125,283.203125
149.90234375,999.51171875,999.51171875,325.1953125
-229.4921875,262.6953125,-19.53125,312.01171875
-403.80859375,-989.74609375,-1000.0,283.69140625
-59.08203125,-1000.0,-758.30078125,301.26953125
276.3671875,-213.37890625,538.0859375,293.9453125
211.42578125,999.51171875,999.51171875,296.875
-149.4140625,799.8046875,97.65625,312.01171875
-388.18359375,-649.90234375,-1000.0,308.10546875
-106.93359375,-1000.0,-848.14453125,356.4453125
301.26953125,283.69140625,436.5234375,347.65625
235.3515625,999.51171875,999.51171875,250.48828125
-170.8984375,421.38671875,137.6953125,198.2421875
-399.90234375,-869.140625,-1000.0,162.59765625
-129.8828125,-1000.0,-1000.0,135.7421875
267.578125,-227.5390625,132.32421875,145.99609375
291.015625,999.51171875,999.51171875,190.4296875
-87.40234375,772.4609375,235.83984375,241.2109375
-394.53125,-556.15234375,-993.65234375,175.29296875
-219.7265625,-1000.0,-1000.0,103.02734375
182.6171875,-505.37109375,-105.95703125,101.07421875
278.80859375,770.01953125,999.51171875,98.14453125
9.765625,999.51171875,446.77734375,72.265625
-285.15625,343.26171875,-865.72265625,95.21484375
-214.84375,-1000.0,-1000.0,259.765625
231.93359375,-420.8984375,-180.17578125,423.828125
365.72265625,943.359375,999.51171875,478.02734375
70.3125,999.51171875,606.93359375,470.703125
-258.7890625,132.32421875,-726.07421875,432.6171875
-254.8828125,-1000.0,-1000.0,416.50390625
144.53125,-771.97265625,-234.86328125,431.640625
347.65625,616.69921875,999.51171875,416.9921875
92.7734375,999.51171875,743.65234375,349.609375
-301.26953125,-43.9453125,-579.1015625,278.80859375
-305.6640625,-1000.0,-1000.0,269.53125
159.66796875,-458.984375,-227.05078125,285.64453125
349.12109375,847.16796875,999.51171875,261.71875
130.859375,999.51171875,971.6796875,172.8515625
-196.2890625,257.32421875,-183.59375,76.171875
-326.66015625,-948.73046875,-1000.0,42.96875
50.29296875,-1000.0,-412.59765625,47.8515625
339.35546875,-243.1640625,889.6484375,31.25
210.44921875,999.51171875,999.51171875,-7.8125
-176.7578125,190.4296875,-31.25,-28.3203125
-352.05078125,-1000.0,-1000.0,-83.49609375
2.44140625,-1000.0,-568.359375,-138.671875
338.8671875,53.7109375,740.72265625,-107.421875
270.5078125,999.51171875,999.51171875,-80.078125
-116.2109375,194.82421875,120.60546875,-72.265625
-343.26171875,-983.3984375,-1000.0,-62.5
-23.4375,-1000.0,-813.4765625,-22.94921875
323.73046875,-369.62890625,468.26171875,20.01953125
287.59765625,999.51171875,999.51171875,8.7890625
-77.63671875,718.26171875,178.22265625,-41.50390625
-347.16796875,-687.01171875,-1000.0,-67.3828125
-99.609375,-1000.0,-923.828125,-41.9921875
290.0390625,-156.25,297.8515625,-19.53125
277.34375,966.30859375,999.51171875,-31.73828125
-33.203125,999.51171875,319.3359375,-62.5
-311.5234375,166.50390625,-957.03125,-80.078125
-193.359375,-1000.0,-1000.0,-68.359375
236.81640625,-249.0234375,5.859375,-53.7109375
307.12890625,999.51171875,999.51171875,-47.8515625
-31.73828125,816.40625,361.81640625,-51.7578125
-330.56640625,-513.18359375,-926.26953125,-54.6875
-223.14453125,-1000.0,-1000.0,-44.43359375
215.8203125,-169.43359375,-136.71875,-11.71875
329.1015625,986.81640625,999.51171875,-10.7421875
30.76171875,999.51171875,635.25390625,-47.8515625
-297.8515625,-8.7890625,-705.56640625,-71.77734375
-248.53515625,-1000.0,-1000.0,-67.87109375
208.984375,-174.8046875,-116.69921875,-44.43359375
331.0546875,987.79296875,999.51171875,-33.203125
76.66015625,999.51171875,810.546875,-54.6875
-245.60546875,196.2890625,-459.47265625,-78.125
-296.38671875,-1000.0,-1000.0,-63.4765625
177.24609375,-241.69921875,-200.1953125,-21.484375
358.88671875,988.28125,999.51171875,-8.7890625
100.09765625,999.51171875,937.01171875,-30.2734375
-227.5390625,181.640625,-251.46484375,-52.734375
-332.03125,-1000.0,-1000.0,-52.734375
85.44921875,-844.23828125,-332.03125,-20.99609375
351.5625,487.3046875,932.12890625,-2.9296875
186.5234375,999.51171875,999.51171875,-18.5546875
-175.78125,135.7421875,8.7890625,-48.828125
-339.84375,-1000.0,-1000.0,-57.12890625
31.73828125,-1000.0,-499.0234375,-30.76171875
317.3828125,-169.921875,810.05859375,-10.25390625
205.078125,999.51171875,999.51171875,-17.578125
-132.8125,513.671875,128.90625,-44.43359375
-366.69921875,-1000.0,-1000.0,-49.31640625
-30.76171875,-867.1875,-629.8828125,-28.3203125
338.37890625,589.84375,694.82421875,-3.90625
231.93359375,999.51171875,999.51171875,-6.8359375
-72.265625,959.9609375,196.2890625,-37.109375
-326.171875,-109.86328125,-1000.0,-54.6875
-141.11328125,-1000.0,-979.98046875,-30.2734375
216.30859375,-897.4609375,223.6328125,8.30078125
267.578125,620.1171875,999.51171875,7.32421875
-54.19921875,672.8515625,193.84765625,-27.34375
-339.84375,-876.46484375,-1000.0,-36.62109375
-141.6015625,-1000.0,-1000.0,-12.20703125
248.53515625,-174.31640625,23.4375,11.23046875
305.17578125,974.12109375,999.51171875,4.39453125
-14.16015625,999.51171875,384.27734375,-39.55078125
-317.3828125,37.109375,-941.89453125,-64.453125
-208.49609375,-1000.0,-1000.0,-45.8984375
230.95703125,-64.94140625,33.203125,-14.6484375
294.43359375,999.51171875,999.51171875,-24.4140625
-17.08984375,909.66796875,516.6015625,-66.89453125
-326.171875,-296.38671875,-794.921875,-83.984375
-274.4140625,-1000.0,-1000.0,-68.84765625
145.99609375,-420.41015625,-190.91796875,-37.59765625
309.5703125,898.4375,999.51171875,-30.2734375
53.7109375,999.51171875,694.3359375,-55.6640625
-294.43359375,-123.046875,-626.46484375,-66.40625
-309.08203125,-1000.0,-1000.0,-58.59375
93.75,-855.95703125,-256.34765625,-43.45703125
300.29296875,404.296875,992.1875,-32.71484375
117.1875,999.51171875,979.00390625,-42.96875
-266.11328125,141.11328125,-195.3125,-82.51953125
-380.37109375,-1000.0,-1000.0,-97.65625
30.2734375,-1000.0,-321.2890625,-82.51953125
275.390625,-97.16796875,949.70703125,-73.2421875
141.6015625,999.51171875,999.51171875,-85.9375
-219.23828125,175.29296875,-44.921875,-119.62890625
-382.8125,-1000.0,-1000.0,-163.0859375
-6.34765625,-1000.0,-477.05078125,-166.015625
295.41015625,179.6875,822.265625,-153.3203125
145.99609375,999.51171875,999.51171875,-226.07421875
-159.66796875,999.51171875,124.0234375,-287.59765625
-353.515625,11.71875,-1000.0,-305.6640625
-120.1171875,-1000.0,-753.90625,-283.203125
246.58203125,-248.046875,557.6171875,-258.30078125
221.19140625,999.51171875,999.51171875,-294.921875
-146.484375,366.69921875,155.76171875,-308.59375
-378.41796875,-949.70703125,-1000.0,-295.8984375
-122.0703125,-1000.0,-849.12109375,-306.15234375
222.16796875,-305.17578125,422.8515625,-351.07421875
