TP9,AF7,AF8,TP10
31.73828125,-1000.0,-1000.0,-53.7109375
283.69140625,-92.7734375,279.78515625,52.24609375
342.28515625,999.51171875,999.51171875,67.87109375
178.7109375,999.51171875,999.51171875,-24.4140625
49.31640625,206.0546875,157.71484375,-98.14453125
49.8046875,-1000.0,-1000.0,-102.05078125
312.98828125,43.45703125,135.7421875,16.6015625
660.15625,999.51171875,999.51171875,70.80078125
672.8515625,999.51171875,999.51171875,-13.18359375
392.08984375,259.27734375,231.4453125,-100.09765625
214.35546875,-1000.0,-1000.0,-121.58203125
273.4375,-318.84765625,-159.1796875,-5.859375
26.3671875,961.42578125,999.51171875,77.1484375
-472.65625,999.51171875,999.51171875,7.32421875
-883.30078125,220.703125,216.796875,-112.3046875
-492.1875,-1000.0,-1000.0,-131.34765625
51.7578125,-537.109375,-227.05078125,-16.6015625
-265.625,846.19140625,993.65234375,69.82421875
-541.015625,999.51171875,999.51171875,3.41796875
-606.93359375,173.828125,219.7265625,-119.140625
-594.7265625,-1000.0,-1000.0,-155.2734375
-304.19921875,-939.453125,-435.05859375,-55.6640625
-12.6953125,328.125,894.04296875,48.828125
-48.828125,999.51171875,999.51171875,-8.7890625
-156.73828125,326.171875,210.9375,-120.1171875
-152.83203125,-976.07421875,-1000.0,-145.5078125
-151.85546875,-1000.0,-706.54296875,-65.91796875
-302.24609375,164.55078125,645.01953125,26.3671875
-468.75,999.51171875,999.51171875,3.41796875
-593.26171875,837.890625,262.20703125,-106.93359375
-629.8828125,-404.296875,-1000.0,-171.38671875
-520.99609375,-1000.0,-985.83984375,-85.9375
-341.796875,-199.21875,261.71875,36.62109375
-289.0625,999.51171875,999.51171875,14.6484375
-139.6484375,591.796875,263.18359375,-91.796875
-131.8359375,-792.96875,-986.328125,-140.625
-121.09375,-1000.0,-1000.0,-86.9140625
183.10546875,-207.51953125,4.8828125,19.04296875
-4.39453125,999.51171875,999.51171875,38.0859375
-410.64453125,771.484375,416.9921875,-79.58984375
-619.140625,-583.984375,-890.625,-177.24609375
-53.7109375,-1000.0,-1000.0,-124.0234375
637.20703125,-165.0390625,-139.16015625,18.06640625
264.6484375,993.1640625,999.51171875,41.015625
-176.26953125,999.51171875,609.86328125,-54.6875
-254.8828125,-55.17578125,-726.5625,-124.0234375
-301.26953125,-1000.0,-1000.0,-99.609375
-8.30078125,-221.19140625,-206.0546875,21.97265625
243.1640625,970.703125,999.51171875,53.7109375
13.18359375,999.51171875,799.31640625,-34.1796875
-214.35546875,163.0859375,-506.34765625,-107.421875
-335.9375,-1000.0,-1000.0,-98.6328125
-229.98046875,-333.984375,-242.67578125,16.6015625
-182.12890625,946.77734375,999.51171875,65.4296875
-312.5,999.51171875,972.16796875,-15.625
-390.13671875,184.5703125,-222.16796875,-93.26171875
-374.51171875,-1000.0,-1000.0,-94.7265625
-234.86328125,-827.63671875,-365.72265625,6.34765625
-139.16015625,518.06640625,920.8984375,59.08203125
-220.21484375,999.51171875,999.51171875,-21.484375
-339.35546875,153.80859375,-20.5078125,-126.46484375
-357.91015625,-1000.0,-1000.0,-136.71875
-194.3359375,-952.1484375,-476.5625,-42.96875
-72.75390625,314.453125,833.984375,36.62109375
-178.22265625,999.51171875,999.51171875,-6.34765625
-273.92578125,754.39453125,203.61328125,-109.375
-259.765625,-589.84375,-1000.0,-155.76171875
-138.671875,-1000.0,-586.9140625,-64.94140625
-30.2734375,166.50390625,770.5078125,41.9921875
-110.83984375,999.51171875,999.51171875,9.27734375
-239.74609375,344.7265625,273.4375,-75.1953125
49.8046875,-954.58984375,-1000.0,-120.1171875
273.92578125,-1000.0,-669.921875,-52.24609375
187.01171875,25.390625,698.73046875,52.734375
514.6484375,999.51171875,999.51171875,17.578125
807.12890625,777.34375,474.609375,-99.12109375
830.078125,-647.94921875,-979.4921875,-137.6953125
943.84765625,-1000.0,-807.12890625,-64.453125
996.09375,365.234375,612.3046875,10.25390625
819.3359375,999.51171875,999.51171875,-10.25390625
568.359375,746.09375,672.8515625,-60.546875
818.359375,-516.6015625,-668.9453125,-93.26171875
967.7734375,-1000.0,-1000.0,-180.6640625
999.51171875,-200.68359375,192.87109375,-209.47265625
752.44140625,999.51171875,999.51171875,-175.78125
512.6953125,853.515625,777.34375,-189.94140625
999.51171875,-426.7578125,-489.74609375,-221.19140625
363.76953125,-1000.0,-1000.0,-191.40625
-783.69140625,-541.015625,-59.5703125,-66.89453125
-762.6953125,924.8046875,999.51171875,-12.20703125
-750.0,869.62890625,876.46484375,-59.5703125
-584.47265625,-538.57421875,-362.79296875,-82.51953125
80.078125,-1000.0,-1000.0,-70.80078125
307.6171875,-336.42578125,-182.6171875,6.8359375
-219.23828125,916.50390625,999.51171875,49.31640625
-243.1640625,999.51171875,917.48046875,-39.55078125
-310.05859375,18.5546875,-312.01171875,-125.9765625
-839.84375,-1000.0,-1000.0,-104.00390625
-706.0546875,-313.4765625,-248.53515625,-7.8125
-550.78125,936.5234375,999.51171875,45.41015625
-674.31640625,999.51171875,967.7734375,-52.734375
-784.1796875,153.3203125,-214.84375,-207.03125
-870.60546875,-1000.0,-1000.0,-225.5859375
-990.234375,-1000.0,-583.0078125,-92.7734375
-1000.0,-159.1796875,777.34375,-3.41796875
-995.60546875,999.51171875,999.51171875,-31.25
-1000.0,142.578125,-148.92578125,-101.5625
-1000.0,-1000.0,-1000.0,-145.01953125
-1000.0,-1000.0,-788.57421875,-49.31640625
-1000.0,14.16015625,508.7890625,31.73828125
-1000.0,999.51171875,999.51171875,-23.92578125
-1000.0,241.69921875,34.1796875,-106.4453125
-998.046875,-1000.0,-1000.0,-125.0
-1000.0,-762.20703125,-889.6484375,-58.10546875
-993.65234375,615.234375,380.859375,43.45703125
-962.890625,999.51171875,999.51171875,2.44140625
-985.3515625,157.2265625,96.6796875,-127.9296875
-1000.0,-985.3515625,-1000.0,-164.55078125
-998.046875,-1000.0,-1000.0,-82.03125
-990.72265625,-218.75,5.37109375,6.34765625
-999.51171875,999.51171875,999.51171875,-16.11328125
-995.1171875,815.91796875,174.8046875,-105.46875
-1000.0,-530.76171875,-1000.0,-158.69140625
-989.2578125,-1000.0,-1000.0,-96.19140625
-890.625,-125.9765625,-115.234375,47.8515625
-942.3828125,999.51171875,999.51171875,46.38671875
-1000.0,843.75,297.36328125,-86.42578125
-79.58984375,-481.4453125,-972.16796875,-120.1171875
999.51171875,-1000.0,-1000.0,-75.68359375
369.62890625,-123.046875,-195.3125,-47.36328125
-994.62890625,999.51171875,999.51171875,-79.1015625
-954.1015625,565.91796875,467.28515625,-143.06640625
-1000.0,-807.12890625,-872.55859375,-176.7578125
-395.5078125,-1000.0,-1000.0,-108.88671875
834.9609375,-118.1640625,-196.77734375,20.99609375
641.11328125,970.21484375,999.51171875,54.6875
-609.375,999.51171875,856.93359375,-45.41015625
-770.01953125,225.5859375,-412.59765625,-131.8359375
103.515625,-1000.0,-1000.0,-130.37109375
-798.33984375,-745.60546875,-209.47265625,-7.8125
-1000.0,632.8125,999.51171875,65.91796875
-870.1171875,999.51171875,999.51171875,-43.45703125
-1000.0,180.17578125,-138.671875,-144.53125
-132.8125,-1000.0,-1000.0,-157.2265625
685.05859375,-340.33203125,-272.94921875,-80.56640625
-826.171875,971.19140625,968.26171875,-9.765625
-542.48046875,999.51171875,999.51171875,-40.52734375
-570.80078125,41.015625,5.37109375,-148.92578125
-1000.0,-1000.0,-1000.0,-194.82421875
-457.51953125,-438.4765625,-395.01953125,-77.1484375
-659.66796875,875.48828125,909.1796875,53.7109375
-327.63671875,999.51171875,999.51171875,-5.859375
675.78125,229.98046875,68.84765625,-131.34765625
773.4375,-1000.0,-1000.0,-161.1328125
968.75,-866.69921875,-801.7578125,-55.17578125
780.76171875,466.796875,520.5078125,55.6640625
916.9921875,999.51171875,999.51171875,-27.34375
891.6015625,195.80078125,26.3671875,-148.4375
461.42578125,-960.9375,-1000.0,-139.6484375
-636.71875,-1000.0,-1000.0,-72.265625
-1000.0,-729.4921875,-117.1875,-0.9765625
-198.2421875,872.55859375,999.51171875,-11.23046875
982.421875,426.26953125,55.17578125,-112.79296875
-215.33203125,-1000.0,-1000.0,-185.05859375
-450.1953125,-997.55859375,-1000.0,-121.09375
-191.40625,-959.47265625,-276.3671875,-11.23046875
-1000.0,-1000.0,999.51171875,-18.5546875
-1000.0,-1000.0,-110.83984375,-124.51171875
-914.55078125,-927.24609375,-1000.0,9.765625
-1000.0,-1000.0,-1000.0,74.70703125
-340.33203125,-660.15625,-717.28515625,-5.859375
990.72265625,988.28125,642.08984375,-116.2109375
930.17578125,338.37890625,-226.07421875,-97.65625
967.7734375,-1000.0,-1000.0,18.06640625
714.35546875,-984.86328125,-968.75,100.5859375
83.0078125,-965.33203125,-975.5859375,14.16015625
-522.94921875,-1000.0,421.875,-117.1875
-1000.0,-1000.0,37.59765625,-116.69921875
-1000.0,-1000.0,-1000.0,-13.671875
-919.921875,-923.828125,-926.7578125,74.70703125
-1000.0,-1000.0,-1000.0,0.9765625
-260.25390625,-93.26171875,119.62890625,-110.83984375
367.1875,556.640625,172.36328125,-105.46875
-861.81640625,-938.96484375,-1000.0,-4.39453125
-1000.0,-1000.0,-937.98828125,63.4765625
-986.81640625,-1000.0,-1000.0,3.90625
-881.8359375,125.9765625,-24.90234375,-64.94140625
-1000.0,601.5625,138.671875,-68.84765625
-164.55078125,-987.3046875,-1000.0,-21.484375
229.4921875,-1000.0,-967.28515625,45.8984375
-994.140625,-947.265625,-1000.0,32.71484375
-1000.0,-1000.0,-685.05859375,-38.57421875
-887.20703125,-1000.0,-1000.0,-59.08203125
-1000.0,-1000.0,-1000.0,-26.85546875
-373.046875,-999.51171875,-403.80859375,13.671875
651.3671875,-937.01171875,864.2578125,13.18359375
-823.2421875,-1000.0,-414.55078125,-43.45703125
-1000.0,-57.12890625,-1000.0,-77.1484375
569.3359375,300.78125,-1000.0,-39.0625
597.16796875,-1000.0,-435.05859375,26.85546875
594.7265625,-1000.0,999.51171875,25.87890625
999.51171875,-252.9296875,125.48828125,-32.2265625
911.62109375,999.51171875,-1000.0,-60.546875
983.88671875,261.23046875,-1000.0,-38.57421875
881.8359375,-992.1875,-350.09765625,9.27734375
999.51171875,-1000.0,999.51171875,-0.9765625
465.33203125,-404.296875,230.46875,-64.453125
-242.67578125,999.51171875,-1000.0,-84.9609375
157.71484375,288.57421875,-1000.0,-58.59375
474.12109375,-998.53515625,-338.37890625,-2.9296875
999.51171875,-1000.0,999.51171875,26.3671875
944.82421875,-627.9296875,392.578125,-37.59765625
942.3828125,971.6796875,-937.01171875,-90.33203125
987.3046875,461.42578125,-1000.0,-71.2890625
959.9609375,-963.37890625,-465.33203125,-5.859375
464.84375,-1000.0,999.51171875,-3.41796875
564.94140625,-367.1875,675.78125,-93.26171875
912.109375,999.51171875,-727.05078125,-144.04296875
999.51171875,680.17578125,-1000.0,-143.06640625
-7.32421875,-741.69921875,-604.00390625,-114.74609375
-1000.0,-1000.0,781.25,-101.5625
-462.40234375,-197.265625,999.51171875,-125.9765625
186.03515625,999.51171875,-314.453125,-135.7421875
999.51171875,918.45703125,-1000.0,-105.46875
-48.33984375,-336.42578125,-815.91796875,-78.125
-104.4921875,-1000.0,505.859375,-68.359375
999.51171875,-681.640625,999.51171875,-83.49609375
939.94140625,645.99609375,-198.2421875,-129.8828125
950.68359375,999.51171875,-1000.0,-134.27734375
969.23828125,-65.4296875,-927.24609375,-95.703125
965.33203125,-1000.0,288.57421875,-69.82421875
965.33203125,-1000.0,999.51171875,-84.9609375
965.33203125,-265.13671875,14.16015625,-98.6328125
966.30859375,999.51171875,-1000.0,-89.84375
969.23828125,172.36328125,-1000.0,-67.3828125
895.5078125,-1000.0,56.15234375,-52.734375
999.51171875,-1000.0,999.51171875,-65.91796875
122.55859375,-201.66015625,110.3515625,-101.07421875
-352.05078125,999.51171875,-1000.0,-89.35546875
995.1171875,179.6875,-1000.0,-59.5703125
998.53515625,-1000.0,-110.3515625,-53.7109375
923.828125,-1000.0,999.51171875,-63.96484375
963.8671875,9.27734375,178.7109375,-83.984375
946.77734375,999.51171875,-1000.0,-67.87109375
999.51171875,202.1484375,-1000.0,-29.78515625
340.33203125,-997.0703125,-167.96875,-27.83203125
111.81640625,-1000.0,999.51171875,-59.5703125
892.08984375,-225.5859375,270.99609375,-80.078125
989.74609375,999.51171875,-985.3515625,-73.2421875
946.77734375,270.99609375,-1000.0,-63.4765625
958.49609375,-996.09375,-247.0703125,-46.875
965.8203125,-1000.0,999.51171875,-48.828125
802.734375,-242.67578125,475.09765625,-85.44921875
321.77734375,999.51171875,-867.1875,-88.37890625
-667.48046875,672.8515625,-1000.0,-60.546875
-1000.0,-711.9140625,-311.5234375,-32.2265625
-952.1484375,-1000.0,999.51171875,-41.50390625
-991.69921875,-196.77734375,724.609375,-69.82421875
-1000.0,999.51171875,-633.30078125,-63.96484375
-729.98046875,521.484375,-1000.0,-56.15234375
178.7109375,-846.19140625,-342.7734375,-25.390625
946.2890625,-1000.0,956.0546875,-20.01953125
969.7265625,-314.453125,991.2109375,-58.10546875
940.4296875,999.51171875,-221.6796875,-77.63671875
976.07421875,841.30859375,-1000.0,-67.3828125
943.84765625,-555.17578125,-335.44921875,-30.76171875
972.65625,-1000.0,912.109375,-35.15625
847.16796875,-1000.0,999.51171875,-60.05859375
-14.6484375,95.703125,143.5546875,-65.4296875
-758.7890625,999.51171875,-1000.0,-47.36328125
234.375,-284.66796875,-339.35546875,-11.23046875
698.2421875,-1000.0,930.17578125,-7.8125
667.96875,-559.5703125,999.51171875,-38.0859375
999.51171875,753.41796875,321.2890625,-64.94140625
-194.82421875,999.51171875,-1000.0,-63.4765625
-777.34375,192.3828125,-376.953125,-26.85546875
381.34765625,-1000.0,947.75390625,-16.11328125
-461.9140625,-723.6328125,999.51171875,-51.26953125
-604.00390625,655.76171875,777.83203125,-80.078125
-273.4375,999.51171875,-764.6484375,-67.87109375
-187.5,191.89453125,-479.98046875,-30.76171875
406.25,-1000.0,999.51171875,-22.4609375
-844.7265625,-650.87890625,937.5,-57.6171875
-1000.0,714.35546875,999.51171875,-76.171875
-1000.0,999.51171875,-279.78515625,-72.75390625
-349.609375,486.81640625,-588.8671875,-28.80859375
548.828125,-902.83203125,975.5859375,5.37109375
-196.77734375,-1000.0,929.6875,-35.15625
-862.79296875,276.3671875,999.51171875,-62.5
297.36328125,999.51171875,24.90234375,-63.4765625
780.2734375,873.046875,-726.5625,-37.59765625
629.8828125,-583.49609375,812.98828125,2.9296875
999.51171875,-813.4765625,973.14453125,-36.62109375
954.58984375,740.234375,999.51171875,-84.47265625
895.5078125,999.51171875,166.50390625,-80.56640625
999.51171875,820.3125,-885.7421875,-46.875
31.25,-584.9609375,588.8671875,-0.9765625
-402.34375,-1000.0,999.51171875,-22.94921875
135.25390625,549.8046875,999.51171875,-71.77734375
-325.68359375,999.51171875,264.16015625,-97.16796875
823.2421875,999.51171875,-1000.0,-67.3828125
999.51171875,198.73046875,264.6484375,2.44140625
910.64453125,-1000.0,999.51171875,-2.44140625
975.09765625,75.1953125,999.51171875,-66.89453125
965.33203125,999.51171875,411.1328125,-90.8203125
965.8203125,999.51171875,-1000.0,-61.5234375
965.33203125,350.5859375,30.76171875,-10.7421875
965.33203125,-1000.0,999.51171875,-16.6015625
965.33203125,39.55078125,999.51171875,-64.453125
965.33203125,999.51171875,459.9609375,-84.9609375
965.33203125,999.51171875,-1000.0,-83.984375
965.8203125,230.95703125,-188.4765625,-31.25
965.33203125,-1000.0,999.51171875,-9.765625
965.33203125,-150.87890625,999.51171875,-60.05859375
965.33203125,999.51171875,565.91796875,-100.09765625
965.8203125,996.09375,-1000.0,-93.75
965.33203125,832.51953125,-265.13671875,-37.59765625
965.33203125,-737.3046875,999.51171875,-28.80859375
965.33203125,-307.6171875,999.51171875,-65.91796875
965.33203125,999.51171875,643.5546875,-94.7265625
965.33203125,999.51171875,-943.359375,-100.5859375
965.33203125,494.62890625,-413.57421875,-39.55078125
965.33203125,-1000.0,978.515625,4.39453125
965.33203125,-238.28125,999.51171875,-37.109375
965.33203125,999.51171875,777.83203125,-94.7265625
965.33203125,999.51171875,-753.90625,-109.86328125
965.33203125,630.37109375,-666.50390625,-49.8046875
965.33203125,-948.73046875,861.328125,30.2734375
965.33203125,-703.61328125,999.51171875,32.71484375
965.33203125,771.97265625,920.41015625,-33.69140625
965.8203125,999.51171875,-399.90234375,-96.6796875
965.8203125,602.5390625,-1000.0,-57.6171875
965.33203125,-853.02734375,486.328125,81.54296875
965.33203125,-958.0078125,999.51171875,86.42578125
965.33203125,492.1875,956.0546875,-15.13671875
965.33203125,999.51171875,-236.81640625,-89.84375
965.33203125,910.64453125,-1000.0,-68.359375
965.8203125,-405.2734375,237.79296875,89.35546875
965.33203125,-1000.0,999.51171875,95.21484375
965.33203125,432.12890625,999.51171875,-29.78515625
965.33203125,999.51171875,-45.8984375,-86.42578125
965.33203125,999.51171875,-1000.0,-78.125
964.35546875,207.51953125,38.0859375,79.58984375
970.21484375,-1000.0,999.51171875,125.0
944.3359375,-208.0078125,999.51171875,-38.57421875
942.3828125,999.51171875,101.5625,-89.84375
972.16796875,999.51171875,-1000.0,-44.43359375
952.63671875,49.31640625,-155.76171875,53.22265625
992.1875,-1000.0,999.51171875,95.703125
890.13671875,-180.17578125,999.51171875,35.15625
792.96875,995.1171875,178.22265625,-33.69140625
954.1015625,999.51171875,-1000.0,-67.87109375
947.265625,149.90234375,-198.73046875,50.29296875
963.8671875,-1000.0,999.0234375,156.25
971.19140625,-102.5390625,999.51171875,56.15234375
185.05859375,999.51171875,215.33203125,-56.640625
232.91015625,999.51171875,-1000.0,-70.3125
961.42578125,231.93359375,-305.6640625,26.85546875
999.51171875,-1000.0,958.984375,135.25390625
725.5859375,-250.48828125,999.51171875,79.1015625
126.46484375,985.3515625,239.2578125,-64.94140625
-25.87890625,999.51171875,-1000.0,-136.71875
458.0078125,229.98046875,-430.17578125,-62.5
999.51171875,-1000.0,892.578125,19.53125
943.359375,-265.13671875,999.51171875,2.9296875
253.41796875,981.93359375,426.26953125,-57.12890625
-603.515625,999.51171875,-1000.0,-99.12109375
-524.4140625,224.609375,-710.44921875,-33.203125
241.69921875,-1000.0,694.82421875,87.40234375
832.51953125,-645.99609375,999.51171875,81.0546875
609.86328125,745.60546875,557.12890625,-36.62109375
-116.69921875,999.51171875,-893.5546875,-109.86328125
481.93359375,-1000.0,-879.8828125,-46.38671875
740.234375,404.78515625,552.734375,64.453125
0.48828125,999.51171875,999.51171875,13.671875
126.46484375,999.51171875,788.0859375,-119.140625
818.359375,177.24609375,-570.3125,-183.59375
999.51171875,-1000.0,-1000.0,-149.90234375
795.41015625,340.8203125,396.484375,-33.69140625
838.8671875,999.51171875,999.51171875,0.9765625
597.65625,962.40234375,946.2890625,-99.12109375
-756.8359375,-147.4609375,-225.5859375,-186.5234375
-490.234375,-1000.0,-1000.0,-156.25
608.88671875,-75.1953125,140.13671875,-28.3203125
520.01953125,989.2578125,999.51171875,3.41796875
650.87890625,999.51171875,999.51171875,-83.984375
858.3984375,721.19140625,101.5625,-173.33984375
621.09375,-895.01953125,-1000.0,-163.57421875
-101.07421875,-438.4765625,-62.5,-9.27734375
-191.89453125,970.703125,999.51171875,79.1015625
182.6171875,999.51171875,999.51171875,-20.5078125
912.109375,386.23046875,200.1953125,-139.6484375
992.67578125,-1000.0,-1000.0,-161.62109375
875.48828125,-234.375,-146.484375,-12.20703125
999.51171875,999.51171875,999.51171875,90.33203125
375.48828125,999.51171875,999.51171875,4.39453125
-1000.0,227.5390625,256.34765625,-115.72265625
-968.26171875,-1000.0,-1000.0,-160.64453125
-307.6171875,-288.57421875,-199.70703125,-27.83203125
-679.6875,999.51171875,996.09375,94.23828125
-1000.0,937.5,999.51171875,26.3671875
-916.50390625,999.51171875,458.49609375,-99.12109375
-656.25,-341.796875,-1000.0,-141.11328125
-271.484375,-868.65234375,-293.9453125,-46.875
406.73828125,670.41015625,990.72265625,42.48046875
-112.3046875,999.51171875,999.51171875,1.46484375
-972.16796875,579.58984375,481.4453125,-111.81640625
129.39453125,-963.8671875,-1000.0,-174.8046875
999.51171875,-663.57421875,-437.01171875,-76.66015625
393.06640625,829.58984375,932.12890625,56.640625
-265.13671875,999.51171875,999.51171875,46.38671875
-32.2265625,879.39453125,617.67578125,-71.77734375
69.82421875,-610.3515625,-927.734375,-165.52734375
-156.25,-720.21484375,-631.34765625,-103.515625
-262.20703125,867.1875,843.75,39.55078125
-584.47265625,993.65234375,999.51171875,27.34375
-1000.0,992.67578125,791.015625,-91.796875
-1000.0,-185.05859375,-605.46875,-171.875
-713.8671875,-1000.0,-993.65234375,-123.046875
677.734375,199.21875,470.703125,36.1328125
883.7890625,999.51171875,999.51171875,49.8046875
81.0546875,999.51171875,833.984375,-81.54296875
522.94921875,168.45703125,-440.4296875,-145.99609375
999.51171875,-1000.0,-1000.0,-104.98046875
931.15234375,36.1328125,181.15234375,17.08984375
934.08203125,999.51171875,999.51171875,64.94140625
966.796875,999.51171875,933.10546875,-32.2265625
969.7265625,222.65625,-227.5390625,-137.6953125
949.70703125,-1000.0,-1000.0,-138.671875
936.5234375,-212.890625,-60.05859375,-6.34765625
990.234375,999.51171875,999.51171875,68.359375
-42.96875,999.51171875,999.51171875,-19.53125
-1000.0,44.43359375,-11.71875,-137.20703125
27.34375,-1000.0,-1000.0,-153.80859375
991.2109375,-179.19921875,-158.69140625,-15.13671875
756.8359375,987.79296875,997.55859375,74.70703125
-206.54296875,999.51171875,999.51171875,-6.34765625
-1000.0,250.48828125,155.2734375,-126.46484375
-1000.0,-1000.0,-1000.0,-162.109375
-709.9609375,-530.2734375,-214.35546875,-22.4609375
-585.9375,850.5859375,993.1640625,96.19140625
-391.11328125,999.51171875,999.51171875,21.484375
148.4375,253.90625,196.2890625,-108.3984375
799.8046875,-1000.0,-1000.0,-153.3203125
999.51171875,-375.0,-299.31640625,-26.85546875
937.01171875,925.78125,958.984375,97.65625
969.7265625,999.51171875,999.51171875,34.66796875
963.37890625,572.75390625,244.140625,-105.46875
953.125,-1000.0,-1000.0,-177.24609375
921.875,-486.328125,-427.24609375,-72.265625
558.59375,933.10546875,903.80859375,66.40625
52.734375,999.51171875,999.51171875,29.78515625
-68.359375,283.203125,261.23046875,-102.05078125
-473.6328125,-1000.0,-1000.0,-166.50390625
12.6953125,-996.09375,-750.9765625,-78.61328125
999.51171875,278.3203125,607.91015625,68.84765625
-176.7578125,999.51171875,999.51171875,53.22265625
-1000.0,253.90625,307.6171875,-85.44921875
-1000.0,-976.07421875,-1000.0,-161.1328125
-816.89453125,-1000.0,-989.2578125,-99.609375
295.8984375,-13.671875,268.06640625,41.015625
-391.11328125,999.51171875,999.51171875,22.94921875
-1000.0,999.51171875,566.40625,-100.09765625
-932.6171875,-3.90625,-756.8359375,-210.44921875
-1000.0,-1000.0,-1000.0,-212.890625
-988.76953125,-212.40234375,-15.13671875,-34.66796875
-1000.0,999.51171875,999.51171875,37.109375
-806.15234375,939.94140625,568.84765625,-68.359375
-709.47265625,-342.7734375,-761.23046875,-178.22265625
-424.31640625,-1000.0,-1000.0,-154.296875
688.4765625,-51.7578125,-128.90625,18.06640625
419.921875,994.140625,999.51171875,76.66015625
253.90625,999.51171875,783.69140625,-34.1796875
66.40625,231.93359375,-512.20703125,-149.90234375
-183.10546875,-1000.0,-1000.0,-169.43359375
879.39453125,-242.67578125,-197.75390625,-16.11328125
882.32421875,999.51171875,999.51171875,78.125
77.63671875,999.51171875,892.578125,-29.78515625
121.58203125,125.48828125,-360.83984375,-157.71484375
912.109375,-1000.0,-1000.0,-161.1328125
833.49609375,-329.1015625,-255.859375,-12.6953125
617.1875,942.3828125,987.3046875,93.26171875
922.8515625,999.51171875,999.51171875,6.8359375
945.3125,219.23828125,-136.71875,-130.37109375
610.3515625,-1000.0,-1000.0,-175.29296875
404.296875,-371.58203125,-386.23046875,-58.10546875
568.359375,975.5859375,922.8515625,58.10546875
237.79296875,999.51171875,999.51171875,2.44140625
-767.578125,-132.32421875,-72.265625,-123.53515625
-1000.0,-1000.0,-1000.0,-180.17578125
-963.8671875,-1000.0,-770.5078125,-81.0546875
-954.58984375,-115.72265625,535.15625,59.5703125
-1000.0,999.51171875,999.51171875,38.57421875
-681.15234375,158.69140625,53.22265625,-104.98046875
401.3671875,-1000.0,-1000.0,-175.29296875
-79.1015625,-1000.0,-952.63671875,-90.8203125
-35.15625,-91.796875,270.5078125,43.9453125
146.97265625,999.51171875,999.51171875,40.0390625
-891.6015625,200.68359375,126.953125,-105.46875
-1000.0,-1000.0,-1000.0,-191.89453125
-733.3984375,-1000.0,-1000.0,-119.140625
-641.11328125,-241.2109375,18.06640625,28.80859375
-1000.0,999.51171875,999.51171875,42.96875
-957.03125,242.1875,149.4140625,-99.12109375
-724.12109375,-1000.0,-1000.0,-186.03515625
-490.72265625,-1000.0,-1000.0,-116.69921875
-99.12109375,-36.62109375,-127.9296875,30.2734375
342.7734375,999.51171875,999.51171875,58.59375
135.7421875,819.82421875,244.62890625,-73.2421875
-333.0078125,-447.265625,-991.2109375,-181.640625
-488.76953125,-1000.0,-1000.0,-145.99609375
-535.64453125,-362.3046875,-247.55859375,4.8828125
-274.90234375,999.51171875,999.51171875,76.66015625
-585.9375,795.8984375,398.92578125,-36.1328125
-927.734375,-574.21875,-925.29296875,-155.2734375
-643.5546875,-1000.0,-1000.0,-126.46484375
-707.51953125,-391.11328125,-260.7421875,13.18359375
-651.85546875,917.48046875,999.51171875,71.2890625
-836.9140625,999.51171875,644.04296875,-38.0859375
-1000.0,-156.73828125,-716.796875,-162.59765625
-1000.0,-1000.0,-1000.0,-167.48046875
-790.52734375,-175.78125,-250.0,-12.6953125
-759.765625,997.0703125,999.51171875,79.1015625
-978.515625,999.51171875,858.88671875,-23.4375
-1000.0,20.99609375,-422.8515625,-149.4140625
-990.234375,-1000.0,-1000.0,-164.55078125
-873.046875,-686.5234375,-393.06640625,-32.71484375
-693.359375,657.2265625,922.36328125,77.1484375
-724.609375,999.51171875,999.51171875,13.671875
-866.69921875,166.9921875,-162.109375,-125.0
-943.84765625,-1000.0,-1000.0,-166.9921875
-671.875,-881.8359375,-583.0078125,-62.98828125
-260.25390625,414.0625,736.81640625,51.26953125
-351.5625,999.51171875,999.51171875,5.37109375
-515.13671875,498.046875,113.28125,-138.18359375
-340.33203125,-1000.0,-1000.0,-198.73046875
564.94140625,-565.4296875,-703.61328125,-87.40234375
781.73828125,876.953125,643.5546875,57.12890625
19.53125,999.51171875,999.51171875,29.296875
-338.8671875,320.3125,145.01953125,-108.88671875
166.015625,-1000.0,-1000.0,-176.7578125
988.28125,-916.015625,-874.0234375,-84.9609375
906.25,409.1796875,421.875,62.98828125
911.62109375,999.51171875,999.51171875,59.5703125
694.82421875,438.96484375,185.546875,-80.56640625
184.08203125,-861.81640625,-1000.0,-170.8984375
790.52734375,-1000.0,-1000.0,-110.3515625
772.94921875,-145.99609375,140.13671875,25.390625
-373.53515625,999.51171875,999.51171875,34.1796875
-250.9765625,910.15625,343.75,-77.63671875
707.03125,-377.44140625,-953.61328125,-162.109375
889.6484375,-1000.0,-1000.0,-121.09375
999.51171875,-111.328125,10.7421875,34.66796875
632.32421875,999.51171875,999.51171875,83.0078125
-568.84765625,787.59765625,570.3125,-43.45703125
-340.8203125,-564.94140625,-761.23046875,-144.04296875
827.63671875,-1000.0,-1000.0,-119.62890625
999.51171875,-25.87890625,-94.23828125,23.4375
688.4765625,999.51171875,999.51171875,83.49609375
297.8515625,951.171875,762.20703125,-31.25
20.5078125,-242.1875,-540.52734375,-146.484375
231.93359375,-1000.0,-1000.0,-150.390625
917.96875,-216.30859375,-169.921875,-3.90625
955.078125,964.35546875,999.51171875,80.56640625
483.88671875,999.51171875,981.93359375,-14.16015625
-204.1015625,108.88671875,-186.03515625,-133.7890625
-796.38671875,-1000.0,-1000.0,-153.80859375
-1000.0,-655.2734375,-184.5703125,-11.71875
-977.5390625,709.47265625,985.3515625,86.9140625
-975.09765625,999.51171875,999.51171875,8.7890625
-1000.0,199.70703125,102.05078125,-121.09375
-345.21484375,-1000.0,-1000.0,-157.2265625
668.45703125,-542.48046875,-300.29296875,-29.78515625
952.1484375,832.51953125,956.54296875,70.3125
945.3125,999.51171875,999.51171875,3.90625
976.07421875,314.94140625,156.73828125,-118.65234375
929.19921875,-1000.0,-1000.0,-171.875
847.65625,-644.53125,-414.0625,-69.82421875
957.51953125,764.6484375,901.3671875,59.08203125
999.51171875,999.51171875,999.51171875,41.50390625
275.390625,283.203125,217.28515625,-80.078125
139.6484375,-1000.0,-1000.0,-157.2265625
354.4921875,-790.0390625,-559.5703125,-62.5
-195.3125,602.05078125,801.7578125,66.89453125
-556.640625,999.51171875,999.51171875,40.0390625
-850.5859375,126.46484375,226.07421875,-95.703125
-1000.0,-1000.0,-1000.0,-173.828125
-782.2265625,-1000.0,-869.62890625,-95.21484375
-416.50390625,-140.625,437.01171875,61.03515625
79.1015625,999.51171875,999.51171875,72.265625
468.75,976.07421875,364.2578125,-66.40625
-2.9296875,-279.296875,-957.51953125,-162.109375
-34.66796875,-1000.0,-1000.0,-110.83984375
745.1171875,28.80859375,188.96484375,51.26953125
679.6875,999.51171875,999.51171875,76.66015625
658.203125,972.65625,492.67578125,-58.59375
999.51171875,-187.98828125,-828.125,-150.390625
890.13671875,-1000.0,-1000.0,-118.1640625
938.4765625,-161.1328125,-18.5546875,28.80859375
982.91015625,999.51171875,999.51171875,71.77734375
930.17578125,999.51171875,688.4765625,-54.19921875
968.75,-5.37109375,-622.0703125,-165.52734375
942.3828125,-1000.0,-1000.0,-150.87890625
-121.09375,-438.96484375,-147.94921875,-2.44140625
-1000.0,871.09375,999.51171875,65.4296875
-704.1015625,999.51171875,951.171875,-38.0859375
110.83984375,206.54296875,-246.58203125,-150.87890625
354.98046875,-1000.0,-1000.0,-156.25
-357.91015625,-675.78125,-186.03515625,-21.97265625
-983.88671875,737.79296875,999.51171875,64.94140625
-411.1328125,999.51171875,975.5859375,-9.765625
-648.4375,17.578125,-178.7109375,-133.30078125
-1000.0,-1000.0,-1000.0,-160.64453125
-1000.0,-918.45703125,-270.99609375,-32.2265625
-764.6484375,346.19140625,964.35546875,76.66015625
-596.19140625,999.51171875,999.51171875,9.765625
-899.4140625,163.0859375,21.484375,-125.9765625
-955.078125,-1000.0,-1000.0,-163.0859375
139.16015625,-314.94140625,-357.91015625,-32.2265625
999.51171875,957.51953125,921.38671875,78.61328125
555.17578125,999.51171875,999.51171875,2.9296875
-394.53125,211.42578125,146.484375,-142.578125
364.2578125,-1000.0,-1000.0,-199.21875
999.51171875,-747.0703125,-601.5625,-84.47265625
899.4140625,602.05078125,751.46484375,51.7578125
999.51171875,999.51171875,999.51171875,19.53125
495.1171875,544.921875,181.15234375,-114.74609375
175.29296875,-784.66796875,-1000.0,-187.98828125
-174.31640625,-1000.0,-822.265625,-102.5390625
-1000.0,-58.10546875,500.9765625,53.7109375
-920.41015625,999.51171875,999.51171875,55.6640625
-190.4296875,481.4453125,200.1953125,-80.56640625
333.0078125,-912.59765625,-1000.0,-166.50390625
616.69921875,-1000.0,-994.140625,-102.5390625
942.87109375,100.5859375,218.75,52.734375
975.5859375,999.51171875,999.51171875,63.96484375
953.125,902.83203125,302.24609375,-73.73046875
958.0078125,-308.10546875,-961.9140625,-157.2265625
921.875,-1000.0,-1000.0,-111.328125
999.51171875,-179.19921875,-31.25,30.2734375
20.99609375,999.51171875,999.51171875,65.4296875
-1000.0,968.75,571.2890625,-50.78125
-953.125,-269.04296875,-756.8359375,-151.3671875
-826.171875,-1000.0,-1000.0,-138.671875
-5.859375,-250.0,-163.0859375,20.5078125
808.59375,999.51171875,999.51171875,93.26171875
28.80859375,731.4453125,667.96875,-29.78515625
-751.953125,-648.92578125,-676.26953125,-154.296875
-802.24609375,-1000.0,-1000.0,-147.4609375
-67.87109375,-155.76171875,-191.89453125,9.765625
999.51171875,960.9375,999.51171875,84.9609375
943.359375,999.51171875,886.71875,-29.296875
948.2421875,221.19140625,-374.51171875,-150.390625
958.984375,-1000.0,-1000.0,-167.96875
957.51953125,-244.62890625,-206.54296875,-28.3203125
999.51171875,987.3046875,999.51171875,74.70703125
381.8359375,999.51171875,999.51171875,-5.37109375
448.2421875,226.07421875,-100.09765625,-137.6953125
999.51171875,-1000.0,-1000.0,-177.734375
943.359375,-638.18359375,-343.26171875,-49.31640625
961.42578125,753.41796875,930.17578125,79.58984375
966.30859375,999.51171875,999.51171875,11.23046875
965.33203125,175.78125,52.734375,-122.55859375
965.8203125,-1000.0,-1000.0,-170.41015625
965.8203125,-885.25390625,-519.53125,-76.66015625
960.9375,430.17578125,816.40625,65.4296875
965.8203125,999.51171875,999.51171875,29.78515625
981.93359375,225.09765625,140.625,-121.58203125
805.6640625,-1000.0,-1000.0,-178.22265625
806.640625,-1000.0,-736.81640625,-83.0078125
999.51171875,90.33203125,604.00390625,53.7109375
156.25,999.51171875,999.51171875,33.69140625
-991.69921875,150.87890625,175.78125,-113.28125
-1000.0,-1000.0,-1000.0,-174.8046875
105.95703125,-1000.0,-904.78515625,-79.58984375
548.33984375,54.19921875,366.2109375,55.17578125
-817.87109375,999.51171875,999.51171875,46.875
-1000.0,570.80078125,287.59765625,-77.63671875
-922.36328125,-761.23046875,-977.5390625,-162.109375
-1000.0,-1000.0,-1000.0,-104.98046875
-368.1640625,-192.3828125,49.8046875,41.50390625
682.6171875,999.51171875,999.51171875,81.54296875
999.51171875,981.4453125,374.51171875,-27.83203125
168.45703125,-235.83984375,-919.43359375,-141.11328125
-1000.0,-1000.0,-1000.0,-127.44140625
-985.3515625,-247.55859375,-112.79296875,14.6484375
-971.19140625,999.51171875,999.51171875,66.40625
-1000.0,938.96484375,612.3046875,-50.29296875
-1000.0,-343.75,-723.14453125,-161.62109375
-981.93359375,-1000.0,-1000.0,-149.90234375
-993.65234375,-199.21875,-170.41015625,-9.27734375
-1000.0,999.51171875,999.51171875,62.98828125
-999.0234375,963.37890625,777.34375,-37.109375
-1000.0,-259.27734375,-537.109375,-154.296875
-1000.0,-1000.0,-1000.0,-159.66796875
-1000.0,-387.6953125,-199.21875,-8.30078125
-1000.0,922.36328125,999.51171875,85.44921875
-1000.0,999.51171875,913.0859375,-17.08984375
-1000.0,-110.83984375,-324.70703125,-141.6015625
-1000.0,-1000.0,-1000.0,-157.71484375
-1000.0,-603.515625,-254.8828125,-26.3671875
-1000.0,729.4921875,965.8203125,77.63671875
-1000.0,999.51171875,999.51171875,1.46484375
-1000.0,170.41015625,-1.46484375,-139.6484375
-1000.0,-1000.0,-1000.0,-174.8046875
-1000.0,-925.78125,-433.10546875,-53.22265625
-1000.0,360.3515625,876.953125,80.56640625
-1000.0,999.51171875,999.51171875,30.2734375
-1000.0,269.53125,118.1640625,-117.67578125
-1000.0,-993.1640625,-1000.0,-165.52734375
-1000.0,-1000.0,-625.48828125,-62.01171875
-1000.0,105.95703125,724.609375,69.3359375
-1000.0,999.51171875,999.51171875,38.0859375
-1000.0,660.15625,165.0390625,-108.88671875
-1000.0,-699.21875,-1000.0,-186.03515625
-1000.0,-1000.0,-868.65234375,-106.4453125
-985.3515625,40.0390625,432.12890625,42.48046875
-981.93359375,999.51171875,999.51171875,50.78125
-975.09765625,428.22265625,186.5234375,-91.30859375
-770.99609375,-927.24609375,-1000.0,-174.31640625
-21.484375,-1000.0,-1000.0,-104.00390625
833.49609375,103.515625,193.84765625,42.96875
982.91015625,999.51171875,999.51171875,65.91796875
939.94140625,999.51171875,329.58984375,-62.5
970.21484375,-27.34375,-976.07421875,-161.1328125
965.33203125,-1000.0,-1000.0,-110.3515625
965.8203125,353.02734375,113.76953125,41.9921875
965.33203125,999.51171875,999.51171875,53.22265625
965.33203125,902.34375,419.43359375,-66.40625
965.33203125,-271.484375,-876.46484375,-167.96875
965.8203125,-1000.0,-1000.0,-153.3203125
963.37890625,-160.15625,-136.71875,5.859375
968.26171875,996.58203125,999.51171875,62.01171875
963.37890625,999.51171875,683.10546875,-59.5703125
929.6875,-11.71875,-646.97265625,-164.55078125
954.58984375,-1000.0,-1000.0,-157.2265625
972.16796875,-280.2734375,-194.3359375,-15.625
962.890625,965.33203125,999.51171875,66.89453125
929.19921875,999.51171875,867.67578125,-22.94921875
987.79296875,41.9921875,-405.2734375,-135.25390625
979.4921875,-1000.0,-1000.0,-152.83203125
320.3125,-733.88671875,-222.65625,-24.90234375
627.44140625,606.93359375,998.53515625,86.9140625
999.51171875,999.51171875,999.51171875,20.99609375
922.36328125,183.10546875,-137.6953125,-116.2109375
974.609375,-1000.0,-1000.0,-148.92578125
965.8203125,-329.58984375,-271.484375,-22.4609375
965.33203125,937.98828125,953.61328125,83.984375
965.33203125,999.51171875,999.51171875,19.53125
965.33203125,527.83203125,105.95703125,-103.515625
965.8203125,-869.140625,-1000.0,-159.66796875
965.8203125,-1000.0,-499.0234375,-61.03515625
970.21484375,178.22265625,838.37890625,72.265625
943.359375,999.51171875,999.51171875,20.01953125
999.51171875,178.22265625,157.71484375,-117.1875
787.109375,-1000.0,-1000.0,-176.7578125
651.85546875,-1000.0,-722.65625,-87.40234375
973.14453125,31.25,624.51171875,50.29296875
953.125,999.51171875,999.51171875,35.15625
953.61328125,490.234375,187.01171875,-98.6328125
968.26171875,-974.12109375,-1000.0,-174.31640625
964.35546875,-942.87109375,-854.98046875,-86.9140625
965.33203125,434.5703125,457.51953125,60.05859375
965.33203125,999.51171875,999.51171875,48.828125
965.33203125,322.75390625,203.125,-86.42578125
968.75,-918.9453125,-1000.0,-169.921875
953.125,-1000.0,-1000.0,-105.46875
921.875,-226.5625,85.44921875,39.55078125
999.51171875,999.51171875,999.51171875,73.2421875
-21.97265625,233.3984375,305.6640625,-62.98828125
-908.203125,-1000.0,-956.54296875,-178.22265625
382.32421875,-1000.0,-1000.0,-125.48828125
999.51171875,-209.47265625,-124.0234375,38.57421875
924.8046875,999.51171875,999.51171875,78.125
959.9609375,999.51171875,545.41015625,-61.5234375
968.26171875,-96.6796875,-792.96875,-169.921875
977.5390625,-1000.0,-1000.0,-139.6484375
899.4140625,-274.4140625,-183.59375,6.34765625
999.51171875,999.51171875,999.51171875,68.359375
646.484375,888.18359375,748.046875,-34.66796875
-885.7421875,-428.7109375,-575.68359375,-156.25
-175.78125,-1000.0,-1000.0,-157.2265625
999.51171875,-203.61328125,-196.77734375,3.90625
931.15234375,938.4765625,999.51171875,88.37890625
943.359375,999.51171875,946.77734375,-20.5078125
979.98046875,376.46484375,-250.9765625,-143.5546875
895.01953125,-1000.0,-1000.0,-165.52734375
999.51171875,-638.671875,-274.90234375,-36.1328125
346.19140625,863.76953125,974.609375,67.87109375
-1000.0,999.51171875,999.51171875,-15.13671875
-959.9609375,-218.26171875,-81.54296875,-140.625
-1000.0,-1000.0,-1000.0,-174.8046875
-602.05078125,-848.6328125,-408.69140625,-63.4765625
692.3828125,377.44140625,881.34765625,56.15234375
999.51171875,999.51171875,999.51171875,10.25390625
922.36328125,439.453125,134.27734375,-115.234375
970.703125,-1000.0,-1000.0,-174.8046875
965.8203125,-528.3203125,-534.1796875,-60.546875
965.33203125,894.04296875,817.87109375,78.125
965.33203125,999.51171875,999.51171875,41.50390625
965.33203125,203.61328125,151.3671875,-91.796875
965.33203125,-1000.0,-1000.0,-170.8984375
965.8203125,-1000.0,-820.3125,-89.35546875
977.5390625,24.90234375,495.60546875,58.10546875
910.64453125,999.51171875,999.51171875,44.921875
999.51171875,408.203125,179.6875,-101.5625
755.37109375,-892.578125,-1000.0,-167.96875
-616.2109375,-1000.0,-1000.0,-105.46875
-1000.0,-279.296875,161.1328125,28.80859375
-940.4296875,999.51171875,999.51171875,48.828125
-1000.0,409.1796875,287.59765625,-73.2421875
-1000.0,-931.640625,-970.703125,-159.66796875
-1000.0,-1000.0,-1000.0,-110.3515625
-1000.0,-374.51171875,-57.12890625,37.59765625
-1000.0,999.51171875,999.51171875,68.84765625
-1000.0,660.15625,429.19921875,-55.6640625
-942.3828125,-760.25390625,-891.11328125,-151.3671875
-1000.0,-1000.0,-1000.0,-120.60546875
-453.125,-145.99609375,-126.953125,19.53125
666.015625,947.75390625,999.51171875,67.87109375
805.6640625,999.51171875,727.05078125,-51.7578125
404.296875,528.3203125,-589.35546875,-155.2734375
-672.36328125,-1000.0,-1000.0,-152.34375
-445.3125,-333.984375,-188.4765625,-12.20703125
-495.60546875,999.51171875,999.51171875,75.1953125
-718.75,848.14453125,835.44921875,-21.97265625
-913.0859375,-431.640625,-455.078125,-145.5078125
-1000.0,-1000.0,-1000.0,-149.90234375
-794.921875,-461.42578125,-217.28515625,-8.30078125
486.81640625,827.1484375,999.51171875,81.0546875
622.55859375,999.51171875,991.69921875,-6.34765625
318.84765625,197.265625,-169.921875,-130.37109375
968.75,-1000.0,-1000.0,-161.1328125
952.1484375,-209.47265625,-242.67578125,-30.76171875
939.453125,999.51171875,973.14453125,77.63671875
999.51171875,999.51171875,999.51171875,6.8359375
-253.90625,140.13671875,49.31640625,-125.48828125
-1000.0,-1000.0,-1000.0,-171.38671875
-228.02734375,-613.28125,-436.03515625,-52.734375
783.203125,734.375,874.0234375,80.56640625
999.51171875,999.51171875,999.51171875,37.109375
806.15234375,483.3984375,165.0390625,-87.40234375
163.0859375,-818.359375,-1000.0,-153.3203125
399.90234375,-1000.0,-675.29296875,-68.84765625
-460.44921875,-207.51953125,676.7578125,54.19921875
-1000.0,999.51171875,999.51171875,24.90234375
-517.08984375,750.48828125,192.3828125,-95.21484375
822.75390625,-608.3984375,-1000.0,-170.41015625
192.3828125,-1000.0,-916.50390625,-103.515625
-1000.0,-175.78125,353.02734375,33.203125
-867.1875,993.65234375,999.51171875,29.296875
353.02734375,999.51171875,285.64453125,-81.54296875
718.26171875,-101.5625,-998.53515625,-170.8984375
591.30859375,-1000.0,-1000.0,-132.32421875
999.51171875,-21.484375,154.296875,19.53125
959.9609375,999.51171875,999.51171875,38.57421875
960.9375,999.51171875,350.09765625,-79.1015625
965.8203125,68.84765625,-935.05859375,-169.921875
965.8203125,-1000.0,-1000.0,-129.8828125
964.84375,-200.1953125,-54.6875,22.4609375
966.796875,999.51171875,999.51171875,55.17578125
963.8671875,999.51171875,594.23828125,-63.96484375
954.1015625,-41.50390625,-733.88671875,-164.55078125
963.37890625,-1000.0,-1000.0,-155.76171875
966.796875,-181.15234375,-148.92578125,-9.27734375
964.84375,983.88671875,999.51171875,56.15234375
965.33203125,999.51171875,853.02734375,-51.26953125
965.33203125,173.33984375,-423.33984375,-165.52734375
965.8203125,-1000.0,-1000.0,-169.43359375
967.28515625,-201.66015625,-184.5703125,-21.484375
957.51953125,999.51171875,999.51171875,60.546875
908.203125,999.51171875,920.8984375,-36.1328125
999.51171875,139.16015625,-298.828125,-151.85546875
-5.859375,-1000.0,-1000.0,-178.22265625
-870.1171875,-851.5625,-264.6484375,-51.7578125
536.1328125,470.21484375,970.21484375,63.4765625
999.51171875,999.51171875,999.51171875,-10.7421875
915.52734375,187.98828125,-41.50390625,-151.85546875
967.7734375,-1000.0,-1000.0,-192.3828125
967.7734375,-661.62109375,-365.72265625,-73.73046875
961.42578125,702.63671875,912.59765625,46.875
977.5390625,999.51171875,999.51171875,-7.8125
921.38671875,518.06640625,132.8125,-136.23046875
892.08984375,-794.921875,-1000.0,-181.15234375
999.51171875,-1000.0,-656.73828125,-83.984375
359.375,-151.3671875,693.84765625,35.15625
326.171875,999.51171875,999.51171875,11.23046875
999.51171875,319.3359375,152.83203125,-120.1171875
954.58984375,-1000.0,-1000.0,-185.05859375
954.58984375,-1000.0,-811.5234375,-97.65625
968.26171875,27.34375,508.7890625,41.9921875
965.33203125,999.51171875,999.51171875,39.0625
965.33203125,737.3046875,171.875,-99.12109375
965.8203125,-568.84765625,-1000.0,-182.12890625
965.8203125,-1000.0,-1000.0,-104.98046875
968.75,-205.56640625,177.24609375,45.8984375
951.171875,999.51171875,999.51171875,48.828125
997.55859375,663.0859375,251.46484375,-87.890625
878.41796875,-717.28515625,-985.3515625,-174.31640625
772.94921875,-1000.0,-1000.0,-128.41796875
933.10546875,-207.51953125,-62.98828125,13.671875
976.5625,999.51171875,999.51171875,46.875
924.31640625,854.00390625,386.71875,-71.77734375
-293.45703125,-469.7265625,-916.50390625,-176.7578125
-1000.0,-1000.0,-1000.0,-146.97265625
-946.77734375,-228.02734375,-163.57421875,12.6953125
-999.0234375,999.51171875,999.51171875,64.94140625
-1000.0,406.73828125,518.5546875,-64.94140625
-972.16796875,-921.38671875,-825.1953125,-171.38671875
-1000.0,-1000.0,-1000.0,-137.6953125
-821.77734375,-408.203125,-213.8671875,3.41796875
25.390625,871.09375,999.51171875,75.68359375
695.80078125,999.51171875,787.109375,-8.7890625
924.31640625,150.390625,-529.78515625,-137.20703125
960.9375,-1000.0,-1000.0,-158.203125
961.42578125,-322.265625,-216.30859375,-15.13671875
966.30859375,945.80078125,989.74609375,70.3125
965.8203125,999.51171875,999.51171875,-2.9296875
965.33203125,267.578125,-91.796875,-130.37109375
965.8203125,-1000.0,-1000.0,-166.015625
965.33203125,-666.50390625,-336.42578125,-35.64453125
965.8203125,737.79296875,940.91796875,68.359375
965.33203125,999.51171875,999.51171875,-0.9765625
965.33203125,176.26953125,20.01953125,-134.27734375
965.8203125,-1000.0,-1000.0,-174.31640625
965.33203125,-895.99609375,-483.88671875,-62.98828125
965.33203125,413.57421875,842.7734375,59.08203125
965.33203125,999.51171875,999.51171875,18.5546875
976.07421875,224.12109375,122.0703125,-117.1875
899.90234375,-985.83984375,-1000.0,-176.26953125
999.51171875,-1000.0,-742.1875,-80.56640625
515.625,-40.0390625,596.19140625,51.26953125
-862.79296875,999.51171875,999.51171875,25.87890625
-1000.0,134.27734375,152.83203125,-114.2578125
-950.1953125,-1000.0,-1000.0,-186.03515625
-1000.0,-1000.0,-922.36328125,-104.00390625
-1000.0,-259.765625,339.84375,39.55078125
-1000.0,999.51171875,999.51171875,51.7578125
-1000.0,402.83203125,217.28515625,-64.453125
-1000.0,-942.3828125,-1000.0,-146.484375
-1000.0,-1000.0,-1000.0,-85.9375
-1000.0,-213.8671875,156.25,56.640625
-1000.0,999.51171875,999.51171875,72.75390625
-1000.0,605.46875,329.58984375,-62.5
-1000.0,-779.296875,-942.3828125,-163.0859375
-1000.0,-1000.0,-1000.0,-117.1875
-1000.0,-220.703125,-103.515625,41.9921875
-1000.0,999.51171875,999.51171875,91.30859375
-1000.0,736.328125,479.00390625,-29.296875
-1000.0,-624.0234375,-848.14453125,-138.18359375
-1000.0,-1000.0,-1000.0,-120.60546875
-1000.0,-230.46875,-168.9453125,17.08984375
-1000.0,935.05859375,999.51171875,71.77734375
-1000.0,999.51171875,828.125,-30.76171875
-1000.0,210.44921875,-461.42578125,-136.71875
-1000.0,-1000.0,-1000.0,-133.30078125
-1000.0,-215.33203125,-188.4765625,14.6484375
-1000.0,999.51171875,999.51171875,91.30859375
-1000.0,999.51171875,896.484375,-12.6953125
-1000.0,34.1796875,-351.07421875,-144.04296875
-1000.0,-1000.0,-1000.0,-161.62109375
-1000.0,-612.3046875,-249.0234375,-29.78515625
-1000.0,740.234375,980.46875,69.82421875
-1000.0,999.51171875,999.51171875,4.39453125
-1000.0,190.91796875,-82.51953125,-120.1171875
-1000.0,-1000.0,-1000.0,-158.69140625
-1000.0,-651.85546875,-346.19140625,-41.015625
-1000.0,738.76953125,926.26953125,90.8203125
-1000.0,999.51171875,999.51171875,38.57421875
-976.5625,200.68359375,81.0546875,-103.02734375
-1000.0,-1000.0,-1000.0,-152.34375
-869.140625,-492.1875,-497.55859375,-46.875
-196.77734375,863.28125,837.40234375,72.265625
263.18359375,999.51171875,999.51171875,28.80859375
213.8671875,688.96484375,163.0859375,-100.09765625
403.3203125,-830.56640625,-1000.0,-163.57421875
910.15625,-795.8984375,-746.58203125,-76.171875
989.74609375,687.98828125,600.09765625,62.98828125
925.78125,999.51171875,999.51171875,49.8046875
748.046875,452.1484375,172.36328125,-89.84375
821.2890625,-862.3046875,-1000.0,-166.015625
955.078125,-1000.0,-982.421875,-90.8203125
999.51171875,-88.8671875,235.83984375,41.50390625
0.9765625,999.51171875,999.51171875,48.33984375
-1000.0,282.2265625,233.3984375,-92.28515625
-989.74609375,-993.65234375,-1000.0,-187.98828125
-42.96875,-1000.0,-1000.0,-123.53515625
999.51171875,-30.2734375,24.4140625,40.0390625
950.68359375,999.51171875,999.51171875,63.96484375
946.77734375,999.51171875,472.65625,-66.40625
955.078125,179.6875,-840.8203125,-151.85546875
934.08203125,-1000.0,-1000.0,-113.76953125
999.51171875,-270.99609375,-141.6015625,30.2734375
-73.73046875,999.51171875,999.51171875,67.87109375
-1000.0,436.5234375,545.41015625,-53.7109375
-957.03125,-901.3671875,-798.828125,-156.73828125
-989.74609375,-1000.0,-1000.0,-131.8359375
-1000.0,-410.15625,-192.87109375,16.6015625
-1000.0,906.73828125,999.51171875,83.0078125
-1000.0,999.51171875,818.84765625,-22.94921875
-1000.0,-110.3515625,-481.4453125,-137.20703125
-1000.0,-1000.0,-1000.0,-132.32421875
-1000.0,-321.77734375,-197.75390625,7.8125
-1000.0,960.9375,999.51171875,92.28515625
-1000.0,999.51171875,935.546875,1.953125
-1000.0,-93.26171875,-279.296875,-119.62890625
-1000.0,-1000.0,-1000.0,-155.76171875
-1000.0,-770.99609375,-304.19921875,-43.45703125
-1000.0,529.78515625,940.91796875,70.80078125
-1000.0,999.51171875,999.51171875,11.71875
-1000.0,182.6171875,26.3671875,-112.79296875
-1000.0,-1000.0,-1000.0,-145.01953125
-1000.0,-761.71875,-443.359375,-27.83203125
-1000.0,611.81640625,877.9296875,88.8671875
-1000.0,999.51171875,999.51171875,35.64453125
-1000.0,148.92578125,97.65625,-103.515625
-1000.0,-1000.0,-1000.0,-162.109375
-971.19140625,-1000.0,-665.0390625,-63.96484375
-1000.0,156.73828125,682.12890625,65.4296875
-982.421875,999.51171875,999.51171875,34.66796875
205.56640625,821.2890625,152.34375,-93.75
999.51171875,-582.51953125,-1000.0,-158.203125
919.921875,-1000.0,-869.140625,-78.61328125
960.44921875,467.7734375,422.36328125,57.6171875
967.7734375,999.51171875,999.51171875,47.36328125
965.33203125,999.51171875,259.765625,-73.73046875
965.8203125,-36.1328125,-1000.0,-149.4140625
965.8203125,-1000.0,-1000.0,-100.09765625
965.33203125,-87.40234375,154.78515625,47.36328125
965.33203125,999.51171875,999.51171875,64.94140625
965.33203125,852.5390625,302.734375,-66.89453125
965.8203125,-431.640625,-959.47265625,-162.109375
965.33203125,-1000.0,-1000.0,-121.58203125
966.30859375,-174.31640625,-83.984375,26.85546875
960.44921875,998.046875,999.51171875,62.5
923.828125,999.51171875,480.46875,-57.12890625
999.51171875,-85.9375,-850.09765625,-163.0859375
94.7265625,-1000.0,-1000.0,-139.16015625
18.5546875,-182.6171875,-146.97265625,15.625
999.51171875,999.51171875,999.51171875,73.73046875
810.546875,999.51171875,669.43359375,-32.71484375
944.82421875,-20.01953125,-667.96875,-142.578125
977.05078125,-1000.0,-1000.0,-146.484375
958.0078125,-244.62890625,-201.66015625,-5.37109375
969.23828125,967.7734375,999.51171875,72.75390625
958.0078125,999.51171875,835.9375,-26.85546875
971.6796875,152.34375,-454.1015625,-151.85546875
901.85546875,-1000.0,-1000.0,-157.71484375
841.796875,-480.46875,-230.95703125,-12.6953125
999.51171875,919.921875,997.55859375,83.49609375
271.484375,999.51171875,999.0234375,-3.41796875
-629.8828125,-126.46484375,-158.203125,-134.765625
228.02734375,-1000.0,-1000.0,-155.2734375
999.51171875,-616.69921875,-334.47265625,-24.90234375
673.828125,741.69921875,926.7578125,83.984375
-532.2265625,999.51171875,999.51171875,12.20703125
-887.20703125,-5.859375,70.3125,-126.953125
77.1484375,-1000.0,-1000.0,-157.71484375
833.49609375,-867.1875,-519.04296875,-36.1328125
915.0390625,415.0390625,815.91796875,76.66015625
999.51171875,999.51171875,999.51171875,33.69140625
98.14453125,147.94921875,162.109375,-103.02734375
-1000.0,-988.76953125,-1000.0,-164.55078125
-972.65625,-1000.0,-771.484375,-68.84765625
-979.4921875,-253.90625,566.89453125,58.59375
-1000.0,999.51171875,999.51171875,44.43359375
-1000.0,171.875,167.48046875,-93.26171875
-1000.0,-1000.0,-1000.0,-153.80859375
-1000.0,-1000.0,-912.59765625,-70.80078125
-1000.0,-234.86328125,357.91015625,62.01171875
-1000.0,999.51171875,999.51171875,62.01171875
-1000.0,450.1953125,242.1875,-67.3828125
-1000.0,-940.4296875,-1000.0,-149.90234375
-1000.0,-1000.0,-1000.0,-86.42578125
-1000.0,40.0390625,167.48046875,61.03515625
-985.3515625,999.51171875,999.51171875,70.3125
-967.7734375,999.51171875,438.96484375,-49.8046875
-1000.0,-133.30078125,-861.328125,-140.13671875
1.46484375,-1000.0,-1000.0,-102.05078125
999.51171875,-45.41015625,-89.35546875,42.96875
865.234375,999.51171875,999.51171875,78.125
923.33984375,999.51171875,624.0234375,-35.15625
978.02734375,127.44140625,-707.03125,-151.3671875
898.92578125,-1000.0,-1000.0,-140.13671875
999.51171875,-198.2421875,-186.5234375,14.16015625
93.26171875,999.51171875,999.51171875,80.56640625
-214.84375,999.51171875,759.27734375,-27.34375
999.51171875,89.84375,-563.96484375,-130.37109375
972.65625,-1000.0,-1000.0,-139.16015625
935.546875,-314.453125,-198.73046875,-7.32421875
941.40625,942.87109375,999.51171875,83.984375
999.51171875,999.51171875,980.95703125,-8.7890625
545.41015625,220.703125,-191.40625,-133.7890625
350.5859375,-1000.0,-1000.0,-150.87890625
997.0703125,-605.46875,-269.53125,-22.4609375
914.0625,786.1328125,958.49609375,72.265625
956.0546875,999.51171875,999.51171875,3.41796875
-82.51953125,144.53125,53.22265625,-130.37109375
-851.5625,-1000.0,-1000.0,-174.8046875
-85.44921875,-1000.0,-408.69140625,-52.24609375
-689.453125,5.37109375,903.3203125,61.03515625
-1000.0,999.51171875,999.51171875,0.0
-472.65625,179.6875,99.609375,-125.0
626.46484375,-1000.0,-1000.0,-150.87890625
995.1171875,-894.53125,-626.953125,-45.41015625
939.94140625,400.390625,718.26171875,69.82421875
938.96484375,999.51171875,999.51171875,37.109375
999.51171875,729.00390625,193.84765625,-92.28515625
804.19921875,-781.25,-1000.0,-163.57421875
592.7734375,-786.62109375,-758.7890625,-76.171875
945.80078125,715.8203125,592.7734375,60.546875
999.51171875,999.51171875,999.51171875,33.203125
926.7578125,505.859375,194.3359375,-93.26171875
790.0390625,-794.43359375,-1000.0,-161.1328125
952.1484375,-1000.0,-1000.0,-96.19140625
754.8828125,-224.609375,194.82421875,43.9453125
344.7265625,999.51171875,999.51171875,55.17578125
-459.9609375,222.65625,267.578125,-87.890625
-1000.0,-1000.0,-982.91015625,-175.78125
-923.33984375,-1000.0,-1000.0,-107.91015625
-1000.0,-212.40234375,-25.87890625,47.8515625
-711.9140625,983.3984375,999.51171875,80.56640625
271.97265625,999.51171875,544.43359375,-45.41015625
780.2734375,7.32421875,-783.203125,-143.5546875
765.13671875,-1000.0,-1000.0,-115.72265625
790.52734375,-184.5703125,-164.55078125,34.66796875
991.2109375,998.53515625,999.51171875,83.49609375
959.47265625,999.51171875,668.45703125,-33.69140625
964.35546875,90.33203125,-674.31640625,-145.01953125
973.6328125,-1000.0,-1000.0,-140.13671875
895.5078125,-292.96875,-196.2890625,4.8828125
999.51171875,999.51171875,999.51171875,70.80078125
383.30078125,792.48046875,835.44921875,-41.015625
-1000.0,-542.48046875,-455.078125,-164.0625
-491.69921875,-1000.0,-1000.0,-154.78515625
643.5546875,-369.140625,-222.65625,-7.8125
957.51953125,875.48828125,999.51171875,75.1953125
948.73046875,999.51171875,999.51171875,-18.06640625
957.51953125,212.890625,-153.3203125,-142.08984375
973.14453125,-1000.0,-1000.0,-159.66796875
894.04296875,-632.8125,-315.91796875,-27.83203125
999.51171875,773.4375,939.453125,73.2421875
164.55078125,999.51171875,999.51171875,-9.27734375
-379.39453125,106.93359375,55.17578125,-128.90625
949.70703125,-1000.0,-1000.0,-153.80859375
999.51171875,-448.2421875,-441.40625,-44.921875
919.43359375,875.0,877.44140625,73.73046875
974.609375,999.51171875,999.51171875,21.97265625
965.8203125,276.85546875,136.23046875,-112.3046875
965.8203125,-989.74609375,-1000.0,-167.48046875
965.8203125,-1000.0,-736.328125,-81.54296875
965.33203125,88.8671875,604.98046875,42.96875
965.33203125,999.51171875,999.51171875,26.85546875
965.8203125,375.0,168.9453125,-107.91015625
965.8203125,-925.29296875,-1000.0,-184.5703125
965.33203125,-1000.0,-915.0390625,-101.07421875
965.8203125,-91.30859375,353.02734375,41.9921875
965.33203125,999.51171875,999.51171875,37.109375
965.33203125,811.5234375,246.09375,-92.28515625
965.33203125,-492.1875,-1000.0,-176.7578125
965.8203125,-1000.0,-1000.0,-125.9765625
965.8203125,-221.6796875,84.47265625,26.85546875
965.33203125,999.51171875,999.51171875,44.921875
965.33203125,650.87890625,316.40625,-93.26171875
965.33203125,-733.88671875,-954.1015625,-167.96875
965.8203125,-1000.0,-1000.0,-120.60546875
965.8203125,-183.59375,-105.95703125,11.23046875
965.33203125,999.51171875,999.51171875,42.48046875
965.33203125,990.234375,521.484375,-77.63671875
970.21484375,-184.08203125,-812.01171875,-166.50390625
945.3125,-1000.0,-1000.0,-136.23046875
937.5,-426.7578125,-196.77734375,-0.48828125
999.51171875,999.51171875,999.51171875,57.12890625
-138.18359375,386.23046875,678.7109375,-58.59375
-1000.0,-978.515625,-664.0625,-173.828125
-945.80078125,-1000.0,-1000.0,-159.1796875
-995.60546875,-788.57421875,-211.42578125,-13.671875
-1000.0,519.04296875,999.51171875,63.96484375
-1000.0,999.51171875,939.94140625,-23.4375
-1000.0,80.56640625,-282.2265625,-136.71875
-1000.0,-1000.0,-1000.0,-155.76171875
-970.703125,-364.2578125,-238.76953125,-21.484375
-1000.0,946.77734375,999.51171875,83.0078125
-709.47265625,999.51171875,956.54296875,-3.41796875
385.7421875,83.0078125,-194.82421875,-126.953125
680.6640625,-1000.0,-1000.0,-146.484375
-583.0078125,-1000.0,-424.8046875,-32.71484375
-1000.0,122.55859375,876.46484375,72.265625
-932.6171875,999.51171875,999.51171875,11.23046875
-1000.0,114.2578125,62.98828125,-115.72265625
-998.046875,-1000.0,-1000.0,-150.390625
-1000.0,-1000.0,-663.0859375,-45.8984375
-1000.0,-52.734375,675.29296875,71.77734375
-1000.0,999.51171875,999.51171875,39.0625
-1000.0,233.88671875,156.73828125,-88.37890625
-1000.0,-1000.0,-1000.0,-155.2734375
-987.79296875,-1000.0,-825.1953125,-73.2421875
-1000.0,-77.1484375,489.74609375,59.5703125
-849.609375,999.51171875,999.51171875,49.8046875
-624.51171875,678.22265625,183.10546875,-74.70703125
2.44140625,-694.82421875,-1000.0,-141.6015625
897.4609375,-1000.0,-1000.0,-75.68359375
978.02734375,34.1796875,154.78515625,55.17578125
939.94140625,999.51171875,999.51171875,54.19921875
971.19140625,999.51171875,268.06640625,-63.4765625
965.8203125,188.4765625,-982.91015625,-146.97265625
965.8203125,-1000.0,-1000.0,-114.74609375
965.8203125,-207.51953125,-40.0390625,30.2734375
965.33203125,999.51171875,999.51171875,62.5
965.8203125,995.60546875,402.34375,-55.6640625
965.8203125,-193.84765625,-904.296875,-147.94921875
965.8203125,-1000.0,-1000.0,-123.53515625
965.33203125,-177.24609375,-162.59765625,20.5078125
965.33203125,999.51171875,999.51171875,63.4765625
965.33203125,999.51171875,616.69921875,-58.59375
965.33203125,-45.8984375,-730.95703125,-163.57421875
965.8203125,-1000.0,-1000.0,-150.87890625
965.8203125,-180.6640625,-186.5234375,0.48828125
965.33203125,999.51171875,999.51171875,66.40625
965.33203125,999.51171875,791.50390625,-41.9921875
965.33203125,34.66796875,-513.671875,-148.92578125
965.33203125,-1000.0,-1000.0,-153.3203125
965.33203125,-502.44140625,-233.88671875,-13.671875
965.33203125,840.33203125,999.51171875,75.68359375
965.33203125,999.51171875,975.09765625,-10.7421875
965.33203125,187.5,-209.9609375,-129.39453125
965.8203125,-1000.0,-1000.0,-152.34375
965.33203125,-719.23828125,-317.3828125,-29.296875
965.33203125,659.66796875,932.12890625,65.91796875
965.33203125,999.51171875,999.51171875,-6.8359375
965.33203125,145.99609375,65.91796875,-133.7890625
965.8203125,-1000.0,-1000.0,-169.921875
965.33203125,-1000.0,-573.73046875,-67.87109375
965.33203125,86.42578125,774.4140625,44.921875
965.33203125,999.51171875,999.51171875,4.8828125
965.8203125,204.1015625,106.93359375,-117.1875
965.33203125,-1000.0,-1000.0,-159.66796875
965.8203125,-1000.0,-721.6796875,-66.89453125
965.33203125,120.1171875,619.140625,52.734375
965.33203125,999.51171875,999.51171875,26.85546875
965.33203125,342.7734375,158.203125,-95.703125
965.8203125,-944.3359375,-1000.0,-160.64453125
965.33203125,-1000.0,-886.23046875,-86.9140625
965.33203125,-70.3125,396.97265625,45.41015625
965.33203125,999.51171875,999.51171875,42.96875
965.33203125,533.203125,201.66015625,-87.890625
965.33203125,-817.3828125,-1000.0,-164.55078125
965.8203125,-1000.0,-1000.0,-98.14453125
965.33203125,-213.8671875,63.96484375,45.8984375
965.33203125,999.51171875,999.51171875,60.05859375
965.8203125,846.19140625,330.56640625,-64.453125
960.9375,-491.2109375,-954.1015625,-151.85546875
964.84375,-1000.0,-1000.0,-103.02734375
958.49609375,-148.4375,-64.94140625,53.22265625
971.19140625,999.51171875,999.51171875,77.1484375
955.078125,788.57421875,487.3046875,-50.29296875
709.47265625,-529.78515625,-835.44921875,-144.53125
732.421875,-1000.0,-1000.0,-125.9765625
954.58984375,-272.4609375,-186.5234375,19.04296875
979.98046875,939.453125,999.51171875,79.1015625
889.6484375,999.51171875,784.1796875,-16.6015625
514.16015625,56.15234375,-528.80859375,-120.60546875
454.58984375,-1000.0,-1000.0,-122.55859375
818.84765625,-399.4140625,-196.77734375,22.4609375
993.65234375,901.3671875,999.51171875,94.7265625
796.875,999.51171875,954.1015625,-4.39453125
334.9609375,198.73046875,-245.60546875,-124.0234375
180.17578125,-1000.0,-1000.0,-149.90234375
624.51171875,-747.55859375,-283.69140625,-12.6953125
982.421875,627.44140625,962.890625,93.26171875
724.12109375,999.51171875,999.51171875,15.625
239.74609375,166.015625,-33.69140625,-110.3515625
56.15234375,-1000.0,-1000.0,-155.2734375
439.453125,-931.640625,-425.29296875,-31.73828125
829.1015625,368.1640625,881.8359375,86.9140625
617.1875,999.51171875,999.51171875,24.90234375
148.92578125,133.30078125,104.4921875,-113.28125
-41.50390625,-1000.0,-1000.0,-163.57421875
290.0390625,-1000.0,-656.73828125,-58.10546875
705.56640625,-43.45703125,691.40625,75.68359375
571.77734375,999.51171875,999.51171875,50.78125
71.2890625,188.96484375,145.99609375,-89.84375
-203.61328125,-1000.0,-1000.0,-159.66796875
59.08203125,-1000.0,-842.28515625,-75.1953125
537.109375,-53.7109375,463.8671875,62.98828125
494.62890625,999.51171875,999.51171875,52.24609375
28.3203125,499.0234375,207.03125,-79.1015625
-259.765625,-915.0390625,-1000.0,-156.25
-43.45703125,-1000.0,-958.0078125,-90.33203125
457.03125,155.76171875,301.7578125,44.43359375
474.609375,999.51171875,999.51171875,43.45703125
37.109375,446.77734375,246.09375,-88.37890625
-249.0234375,-863.28125,-989.74609375,-169.43359375
-87.890625,-1000.0,-1000.0,-115.234375
422.8515625,-227.5390625,-5.859375,31.25
529.296875,999.51171875,999.51171875,62.5
101.5625,724.12109375,390.625,-68.359375
-270.5078125,-647.4609375,-906.25,-173.33984375
-213.8671875,-1000.0,-1000.0,-139.16015625
310.546875,-175.29296875,-153.80859375,10.25390625
471.6796875,976.5625,999.51171875,55.6640625
74.21875,999.51171875,717.7734375,-59.5703125
-291.9921875,41.50390625,-608.3984375,-152.83203125
-300.29296875,-1000.0,-1000.0,-140.13671875
175.78125,-436.5234375,-196.2890625,0.9765625
418.45703125,913.57421875,999.51171875,80.078125
78.125,999.51171875,832.03125,-22.94921875
-317.87109375,-45.8984375,-461.42578125,-142.08984375
-357.91015625,-1000.0,-1000.0,-141.6015625
129.39453125,-282.71484375,-201.171875,-2.9296875
422.8515625,953.61328125,999.51171875,87.890625
99.609375,999.51171875,986.81640625,-7.32421875
-334.9609375,126.46484375,-175.78125,-140.625
-446.2890625,-1000.0,-1000.0,-158.203125
-6.8359375,-558.59375,-290.52734375,-27.83203125
353.515625,807.12890625,951.66015625,72.265625
107.91015625,999.51171875,999.51171875,6.8359375
-329.58984375,182.12890625,40.0390625,-125.9765625
-487.79296875,-1000.0,-1000.0,-165.52734375
-102.05078125,-862.79296875,-485.3515625,-40.52734375
280.2734375,473.14453125,845.21484375,83.0078125
62.01171875,999.51171875,999.51171875,19.53125
-355.95703125,179.19921875,122.0703125,-121.09375
-517.578125,-1000.0,-1000.0,-167.48046875
-159.66796875,-784.66796875,-645.99609375,-59.5703125
312.98828125,568.359375,707.51953125,67.87109375
199.70703125,999.51171875,999.51171875,30.2734375
-261.23046875,243.65234375,159.1796875,-109.375
-480.46875,-968.75,-1000.0,-165.52734375
-198.73046875,-1000.0,-918.45703125,-73.2421875
293.45703125,-92.7734375,345.21484375,60.05859375
269.04296875,999.51171875,999.51171875,45.41015625
-188.96484375,597.16796875,235.83984375,-84.47265625
-480.46875,-763.671875,-1000.0,-160.15625
-310.546875,-1000.0,-1000.0,-104.4921875
209.47265625,-163.57421875,111.328125,45.8984375
282.2265625,999.51171875,999.51171875,69.3359375
-153.80859375,999.51171875,393.5546875,-50.78125
-516.6015625,-125.9765625,-901.3671875,-156.73828125
-463.8671875,-1000.0,-1000.0,-125.9765625
28.80859375,-224.609375,-104.4921875,30.2734375
168.9453125,999.51171875,999.51171875,66.40625
-224.609375,745.60546875,501.46484375,-51.26953125
-570.80078125,-616.69921875,-833.0078125,-151.85546875
-535.64453125,-1000.0,-1000.0,-130.859375
-52.734375,-208.984375,-169.921875,8.30078125
129.8828125,999.51171875,999.51171875,57.6171875
-313.96484375,999.51171875,750.0,-55.17578125
-746.58203125,-201.171875,-573.73046875,-168.9453125
-704.58984375,-1000.0,-1000.0,-162.59765625
-125.0,-203.125,-178.7109375,-21.97265625
132.8125,960.9375,999.51171875,56.640625
-235.3515625,999.51171875,952.63671875,-27.83203125
-665.52734375,211.42578125,-241.69921875,-144.53125
-875.48828125,-1000.0,-1000.0,-164.55078125
-573.2421875,-650.87890625,-251.46484375,-26.85546875
-439.453125,744.62890625,982.91015625,67.3828125
-859.375,999.51171875,999.51171875,-7.8125
-1000.0,138.18359375,-67.87109375,-131.8359375
-984.86328125,-1000.0,-1000.0,-175.29296875
-1000.0,-834.9609375,-375.48828125,-52.24609375
-1000.0,500.9765625,911.62109375,65.4296875
-1000.0,999.51171875,999.51171875,7.8125
-1000.0,137.20703125,76.66015625,-112.79296875
-1000.0,-1000.0,-1000.0,-161.62109375
-1000.0,-1000.0,-722.16796875,-69.3359375
-1000.0,10.25390625,624.0234375,56.15234375
-1000.0,999.51171875,999.51171875,28.80859375
-1000.0,139.6484375,49.8046875,-104.98046875
-1000.0,-1000.0,-1000.0,-165.0390625
-1000.0,-1000.0,-972.65625,-78.125
-1000.0,-183.59375,230.46875,48.33984375
-1000.0,999.51171875,999.51171875,33.203125
-1000.0,874.0234375,107.421875,-90.8203125
-1000.0,-423.33984375,-1000.0,-167.96875
-1000.0,-1000.0,-1000.0,-113.28125
-1000.0,-229.00390625,-145.01953125,16.6015625
-992.67578125,999.51171875,999.51171875,22.94921875
-1000.0,496.09375,139.6484375,-99.609375
-999.51171875,-876.46484375,-1000.0,-179.19921875
-730.95703125,-1000.0,-1000.0,-130.859375
-711.9140625,-360.3515625,-254.8828125,13.18359375
-995.60546875,999.51171875,999.51171875,59.08203125
-1000.0,406.73828125,161.62109375,-67.87109375
-990.234375,-940.91796875,-1000.0,-171.875
-996.58203125,-1000.0,-1000.0,-129.39453125
-998.53515625,-614.2578125,-365.72265625,0.9765625
-1000.0,965.33203125,999.51171875,47.36328125
-1000.0,512.6953125,189.453125,-59.5703125
-1000.0,-940.4296875,-1000.0,-170.8984375
-1000.0,-1000.0,-1000.0,-163.57421875
-1000.0,-829.58984375,-684.5703125,-39.55078125
-1000.0,718.26171875,895.99609375,42.96875
-1000.0,613.76953125,270.99609375,-60.546875
-1000.0,-942.87109375,-1000.0,-185.05859375
-1000.0,-1000.0,-965.33203125,-172.8515625
-1000.0,-1000.0,-1000.0,-51.7578125
-1000.0,360.83984375,334.47265625,36.1328125
-1000.0,730.95703125,330.078125,-61.03515625
-1000.0,-910.64453125,-1000.0,-190.4296875
-1000.0,-979.4921875,-927.734375,-185.05859375
-1000.0,-1000.0,-1000.0,-73.2421875
-968.26171875,-229.4921875,-56.15234375,21.97265625
-1000.0,865.72265625,298.33984375,-25.87890625
-863.76953125,-571.2890625,-1000.0,-152.34375
294.921875,-1000.0,-943.84765625,-176.26953125
999.51171875,-1000.0,-1000.0,-75.68359375
929.6875,34.66796875,-142.08984375,26.85546875
958.984375,999.51171875,343.26171875,-13.671875
968.75,121.58203125,-1000.0,-140.625
965.33203125,-1000.0,-962.40234375,-176.7578125
973.14453125,-1000.0,-1000.0,-90.8203125
926.26953125,-446.2890625,-424.31640625,20.01953125
999.51171875,999.51171875,214.84375,6.34765625
681.15234375,58.10546875,-952.63671875,-129.39453125
304.19921875,-1000.0,-1000.0,-199.21875
999.51171875,-951.66015625,-1000.0,-119.62890625
392.578125,-983.88671875,-730.95703125,5.37109375
-1000.0,-1000.0,-255.37109375,6.34765625
-1000.0,-1000.0,-946.2890625,-105.46875
-959.47265625,-937.5,-1000.0,-168.45703125
-1000.0,-1000.0,-1000.0,-120.1171875
-1000.0,-818.84765625,-804.6875,3.90625
-1000.0,805.17578125,89.84375,48.828125
-1000.0,254.8828125,-638.18359375,-70.80078125
-988.76953125,-1000.0,-1000.0,-163.57421875
-1000.0,-917.96875,-967.7734375,-125.48828125
-891.11328125,-1000.0,-1000.0,-16.11328125
-862.3046875,52.24609375,-87.890625,31.73828125
-876.46484375,275.390625,-434.08203125,-72.75390625
-686.03515625,-1000.0,-1000.0,-180.6640625
-925.78125,-1000.0,-943.84765625,-145.99609375
-1000.0,-895.5078125,-1000.0,-11.71875
-593.26171875,672.36328125,176.7578125,63.96484375
-322.75390625,444.3359375,73.2421875,-52.24609375
-970.703125,-1000.0,-1000.0,-187.98828125
-322.265625,-940.4296875,-955.078125,-180.17578125
520.5078125,-1000.0,-1000.0,-63.96484375
354.98046875,-32.71484375,-583.0078125,19.53125
-728.02734375,271.97265625,-597.65625,-76.171875
-1000.0,-1000.0,-1000.0,-195.3125
-229.98046875,-920.8984375,-967.7734375,-181.15234375
-16.6015625,-1000.0,-1000.0,-68.359375
-770.99609375,-271.97265625,-762.6953125,3.41796875
-217.28515625,549.31640625,-722.65625,-64.453125
-698.2421875,-884.27734375,-1000.0,-170.8984375
-824.70703125,-1000.0,-994.140625,-185.546875
-28.80859375,-933.59375,-996.09375,-86.42578125
711.9140625,-1000.0,-1000.0,6.34765625
999.51171875,-1000.0,-1000.0,-38.0859375
562.98828125,-1000.0,-1000.0,-157.2265625
-184.08203125,-1000.0,-1000.0,-208.49609375
-545.8984375,-1000.0,-1000.0,-119.140625
-849.12109375,-1000.0,-1000.0,-15.13671875
-1000.0,-1000.0,-1000.0,-41.50390625
-988.28125,-1000.0,-1000.0,-134.27734375
-1000.0,-1000.0,-1000.0,-178.7109375
-1000.0,-1000.0,-1000.0,-112.3046875
-1000.0,-1000.0,-1000.0,-6.34765625
-1000.0,-1000.0,-1000.0,-16.6015625
-1000.0,-1000.0,-1000.0,-111.81640625
-1000.0,-1000.0,-1000.0,-180.17578125
-1000.0,-1000.0,-1000.0,-116.2109375
-1000.0,-1000.0,-1000.0,21.97265625
-1000.0,-1000.0,-1000.0,20.01953125
-1000.0,-1000.0,-1000.0,-95.703125
-1000.0,-998.53515625,-1000.0,-177.734375
-1000.0,-1000.0,-1000.0,-132.8125
-1000.0,-1000.0,-1000.0,10.25390625
-1000.0,-967.28515625,-1000.0,34.1796875
-967.28515625,-987.3046875,-1000.0,-89.84375
-1000.0,-1000.0,-1000.0,-171.38671875
-765.13671875,-997.55859375,-1000.0,-134.765625
355.95703125,-1000.0,-1000.0,6.34765625
999.51171875,-1000.0,-1000.0,51.26953125
938.4765625,-1000.0,-1000.0,-47.8515625
957.03125,-1000.0,-1000.0,-144.53125
969.23828125,-1000.0,-1000.0,-148.92578125
971.19140625,-1000.0,-1000.0,-35.15625
911.62109375,-1000.0,-1000.0,30.76171875
999.51171875,-1000.0,-1000.0,-54.19921875
440.4296875,-1000.0,-1000.0,-159.1796875
-862.3046875,-1000.0,-1000.0,-169.921875
-1000.0,-1000.0,-1000.0,-60.05859375
-883.7890625,-1000.0,-1000.0,12.20703125
-999.0234375,-1000.0,-1000.0,-55.6640625
-1000.0,-1000.0,-1000.0,-150.390625
-993.1640625,-1000.0,-1000.0,-164.0625
-950.1953125,-1000.0,-1000.0,-55.6640625
-1000.0,-1000.0,-1000.0,37.109375
-270.01953125,-1000.0,-1000.0,-23.4375
914.0625,-1000.0,-1000.0,-125.9765625
548.828125,-1000.0,-1000.0,-144.53125
-41.50390625,-1000.0,-1000.0,-47.36328125
-755.859375,-1000.0,-1000.0,41.9921875
-1000.0,-1000.0,-1000.0,4.39453125
-970.21484375,-1000.0,-1000.0,-109.86328125
-1000.0,-1000.0,-1000.0,-166.50390625
-1000.0,-1000.0,-1000.0,-75.68359375
-1000.0,-1000.0,-1000.0,37.59765625
-999.0234375,-1000.0,-1000.0,16.6015625
-1000.0,-1000.0,-1000.0,-82.03125
-998.046875,-1000.0,-1000.0,-140.13671875
-989.74609375,-1000.0,-1000.0,-84.9609375
-913.57421875,-1000.0,-1000.0,38.0859375
-939.94140625,-1000.0,-1000.0,43.9453125
-1000.0,-1000.0,-1000.0,-63.4765625
-990.72265625,-970.703125,-964.35546875,-128.41796875
-1000.0,-988.28125,-1000.0,-72.75390625
-520.01953125,-1000.0,-958.0078125,49.8046875
-325.68359375,356.93359375,-77.1484375,92.7734375
-565.91796875,360.3515625,-526.3671875,-21.484375
-713.8671875,-1000.0,-1000.0,-140.625
-858.3984375,-997.0703125,-1000.0,-106.4453125
-294.921875,-1000.0,-805.6640625,21.97265625
-2.44140625,476.5625,802.24609375,83.0078125
-102.5390625,495.60546875,243.65234375,-20.99609375
-416.015625,-1000.0,-1000.0,-130.859375
-949.21875,-975.5859375,-1000.0,-115.72265625
-1000.0,-1000.0,-519.53125,2.9296875
-971.19140625,235.83984375,999.51171875,80.078125
-1000.0,764.16015625,473.6328125,-17.578125
-947.265625,-778.3203125,-925.78125,-135.7421875
-603.515625,-1000.0,-1000.0,-126.953125
-745.1171875,-570.3125,-254.8828125,0.9765625
-565.4296875,732.421875,955.56640625,93.26171875
-157.71484375,999.51171875,999.51171875,29.296875
-93.26171875,190.91796875,30.2734375,-90.8203125
328.125,-1000.0,-1000.0,-136.71875
159.1796875,-191.40625,-166.015625,-13.671875
-512.20703125,990.72265625,984.86328125,98.6328125
-454.58984375,999.51171875,999.51171875,24.4140625
44.43359375,515.13671875,346.19140625,-96.6796875
-54.19921875,-1000.0,-1000.0,-145.5078125
68.84765625,-395.99609375,-185.546875,-25.87890625
35.64453125,963.8671875,999.51171875,101.07421875
-732.421875,999.51171875,946.2890625,36.1328125
-976.07421875,722.65625,988.76953125,-77.1484375
-922.36328125,-866.69921875,-331.0546875,-118.65234375
-998.046875,-509.765625,-98.6328125,-7.8125
-998.53515625,999.51171875,999.51171875,117.67578125
-999.51171875,894.53125,927.24609375,83.0078125
-992.67578125,999.51171875,952.63671875,-38.0859375
-1000.0,96.6796875,969.23828125,-106.4453125
-928.7109375,-559.08203125,966.30859375,-35.64453125
-789.55078125,929.6875,966.30859375,77.1484375
-828.61328125,999.51171875,966.30859375,64.453125
-863.76953125,909.1796875,965.8203125,-31.25
-827.63671875,980.46875,966.30859375,-81.0546875
-689.453125,966.30859375,966.30859375,-26.3671875
-541.50390625,966.30859375,965.8203125,92.28515625
-559.08203125,966.30859375,966.30859375,106.93359375
-606.4453125,966.30859375,966.30859375,-9.27734375
-672.36328125,965.8203125,965.8203125,-96.19140625
-386.23046875,965.8203125,966.30859375,-46.875
172.36328125,966.30859375,965.8203125,80.078125
71.77734375,965.8203125,966.30859375,98.6328125
516.6015625,966.30859375,966.30859375,-1.46484375
999.51171875,965.8203125,965.8203125,-79.1015625
937.98828125,965.8203125,965.8203125,-53.22265625
952.63671875,966.30859375,965.8203125,55.6640625
981.4453125,966.30859375,966.30859375,92.28515625
716.796875,966.30859375,966.30859375,7.8125
431.640625,965.8203125,965.8203125,-83.0078125
647.94921875,965.8203125,966.30859375,-73.73046875
822.75390625,966.30859375,966.30859375,42.48046875
815.4296875,966.30859375,965.8203125,92.7734375
635.7421875,966.30859375,965.8203125,0.9765625
179.6875,966.30859375,966.30859375,-93.26171875
105.95703125,965.8203125,966.30859375,-86.42578125
281.73828125,965.8203125,966.30859375,18.5546875
373.046875,966.30859375,965.8203125,88.37890625
321.2890625,966.30859375,966.30859375,22.4609375
61.03515625,965.8203125,965.8203125,-68.84765625
-118.1640625,965.8203125,965.8203125,-78.61328125
207.03125,966.30859375,966.30859375,17.578125
490.72265625,966.30859375,965.8203125,97.65625
183.59375,966.30859375,966.30859375,39.55078125
104.00390625,966.30859375,966.30859375,-54.6875
10.7421875,966.30859375,966.30859375,-84.47265625
-220.703125,966.30859375,965.8203125,2.44140625
-326.171875,966.30859375,966.30859375,103.02734375
-307.6171875,966.30859375,966.30859375,57.12890625
-242.1875,966.30859375,966.30859375,-64.453125
-311.5234375,966.30859375,966.30859375,-107.421875
-202.63671875,966.30859375,965.8203125,-18.5546875
3.90625,966.30859375,965.8203125,83.984375
243.1640625,965.8203125,965.8203125,48.828125
417.48046875,965.8203125,966.30859375,-63.4765625
567.3828125,966.30859375,966.30859375,-103.515625
478.515625,966.30859375,966.30859375,-23.4375
-307.6171875,965.8203125,966.30859375,84.47265625
-862.3046875,966.30859375,965.8203125,65.4296875
-993.65234375,966.30859375,966.30859375,-46.38671875
-846.19140625,966.30859375,966.30859375,-119.140625
-79.58984375,966.30859375,966.30859375,-62.98828125
599.12109375,966.30859375,966.30859375,61.5234375
860.83984375,966.30859375,966.30859375,64.94140625
977.5390625,966.30859375,965.8203125,-41.9921875
953.61328125,966.30859375,966.30859375,-111.328125
968.26171875,966.30859375,966.30859375,-77.1484375
965.33203125,966.30859375,966.30859375,36.1328125
965.33203125,966.30859375,966.30859375,60.546875
965.33203125,966.30859375,966.30859375,-31.73828125
965.33203125,965.8203125,965.8203125,-114.74609375
965.33203125,966.30859375,965.8203125,-92.28515625
965.33203125,966.30859375,966.30859375,39.0625
965.33203125,966.30859375,966.30859375,83.49609375
965.33203125,966.30859375,965.8203125,-14.16015625
965.33203125,966.30859375,965.8203125,-100.09765625
965.33203125,965.8203125,965.8203125,-96.6796875
965.33203125,966.30859375,966.30859375,19.53125
965.33203125,966.30859375,966.30859375,74.70703125
965.33203125,966.30859375,966.30859375,-9.765625
965.33203125,965.8203125,966.30859375,-97.16796875
966.796875,966.30859375,966.30859375,-107.91015625
953.61328125,966.30859375,966.30859375,0.9765625
982.91015625,966.30859375,966.30859375,69.3359375
876.46484375,966.30859375,966.30859375,-8.7890625
557.6171875,966.30859375,966.30859375,-114.74609375
498.046875,966.30859375,966.30859375,-126.953125
847.65625,966.30859375,966.30859375,-20.01953125
835.44921875,966.30859375,966.30859375,63.4765625
244.140625,965.8203125,966.30859375,7.8125
-249.51171875,966.30859375,965.8203125,-95.703125
-792.48046875,966.30859375,966.30859375,-114.74609375
-1000.0,966.30859375,966.30859375,-20.01953125
-978.515625,966.30859375,966.30859375,66.40625
-969.7265625,966.30859375,965.8203125,27.34375
-1000.0,966.30859375,966.30859375,-70.3125
-446.77734375,966.30859375,966.30859375,-107.91015625
639.16015625,966.30859375,966.30859375,-17.578125
999.51171875,966.796875,965.8203125,83.0078125
838.37890625,888.671875,965.8203125,23.4375
-351.07421875,999.51171875,969.7265625,-104.00390625
-1000.0,66.89453125,943.359375,-162.109375
-954.1015625,-664.55078125,947.265625,-95.21484375
-998.53515625,870.60546875,973.6328125,33.69140625
-1000.0,965.33203125,929.19921875,40.0390625
-997.55859375,999.51171875,999.51171875,-60.05859375
-1000.0,138.671875,527.83203125,-126.46484375
-1000.0,-718.75,343.26171875,-90.33203125
-1000.0,800.78125,999.51171875,32.2265625
-1000.0,978.515625,900.390625,43.45703125
-1000.0,999.51171875,999.51171875,-59.5703125
-1000.0,252.44140625,237.3046875,-157.2265625
-1000.0,-719.23828125,-239.2578125,-135.7421875
-1000.0,729.4921875,999.51171875,12.6953125
-1000.0,999.51171875,918.45703125,27.83203125
-1000.0,999.51171875,999.51171875,-78.125
-1000.0,297.36328125,191.89453125,-164.55078125
-1000.0,-1000.0,-714.84375,-149.90234375
-1000.0,57.12890625,741.69921875,2.9296875
-1000.0,999.51171875,996.58203125,40.0390625
-997.55859375,999.51171875,999.51171875,-72.265625
-996.58203125,380.37109375,281.25,-158.203125
-1000.0,-1000.0,-1000.0,-174.8046875
-837.890625,-154.296875,260.7421875,-38.57421875
-729.98046875,999.51171875,999.51171875,53.7109375
-836.42578125,999.51171875,999.51171875,-39.0625
-880.37109375,704.1015625,338.37890625,-139.6484375
-841.796875,-872.0703125,-1000.0,-162.59765625
-623.53515625,-133.7890625,-38.57421875,-39.55078125
-519.04296875,999.51171875,999.51171875,62.98828125
-621.09375,999.51171875,999.51171875,-22.4609375
-671.875,656.25,340.8203125,-142.08984375
-653.80859375,-974.12109375,-1000.0,-180.17578125
-436.03515625,-404.78515625,-214.35546875,-63.96484375
-312.98828125,998.046875,999.51171875,61.5234375
-434.5703125,981.93359375,999.51171875,7.32421875
-518.06640625,914.0625,399.90234375,-112.79296875
-528.80859375,-616.69921875,-1000.0,-171.38671875
-346.6796875,-556.15234375,-281.73828125,-79.58984375
-226.5625,942.87109375,986.81640625,61.03515625
-329.1015625,999.51171875,999.51171875,27.83203125
-416.015625,686.03515625,457.03125,-94.7265625
-432.12890625,-695.3125,-1000.0,-169.43359375
-269.53125,-1000.0,-553.22265625,-99.609375
-127.9296875,183.59375,849.609375,39.55078125
-211.9140625,999.51171875,999.51171875,16.11328125
-325.1953125,806.640625,470.703125,-110.3515625
-356.93359375,-500.9765625,-964.35546875,-181.15234375
-233.3984375,-1000.0,-875.9765625,-115.234375
-63.4765625,104.00390625,507.8125,35.64453125
-118.65234375,999.51171875,999.51171875,36.1328125
-245.1171875,999.51171875,548.33984375,-97.16796875
-285.64453125,236.328125,-778.3203125,-178.22265625
-214.84375,-1000.0,-1000.0,-130.37109375
-41.50390625,-264.16015625,32.2265625,16.11328125
-59.08203125,999.51171875,999.51171875,34.1796875
-224.12109375,732.91015625,356.93359375,-96.19140625
-261.71875,-629.8828125,-919.921875,-187.5
-169.43359375,-1000.0,-1000.0,-152.34375
-20.01953125,-190.4296875,-233.88671875,8.7890625
-27.34375,999.51171875,999.51171875,73.2421875
-190.4296875,966.796875,424.31640625,-59.08203125
-262.20703125,-277.83203125,-906.73828125,-164.55078125
-183.59375,-1000.0,-1000.0,-139.16015625
6.34765625,-211.42578125,-301.7578125,-13.671875
40.0390625,999.51171875,999.51171875,47.8515625
-145.5078125,780.2734375,460.44921875,-58.59375
-225.09765625,-545.8984375,-884.765625,-174.8046875
-142.578125,-1000.0,-1000.0,-164.0625
17.578125,-603.02734375,-567.3828125,-36.1328125
75.68359375,702.63671875,937.01171875,52.734375
-81.0546875,999.51171875,707.03125,-20.5078125
-191.89453125,164.55078125,-739.74609375,-134.27734375
-159.1796875,-1000.0,-1000.0,-160.64453125
-20.01953125,-867.67578125,-816.89453125,-50.78125
55.6640625,527.83203125,618.1640625,52.734375
-74.21875,999.51171875,879.39453125,-25.87890625
-182.12890625,-179.6875,-641.11328125,-163.0859375
-155.76171875,-1000.0,-1000.0,-188.96484375
-29.78515625,-1000.0,-1000.0,-86.9140625
70.3125,-10.7421875,177.734375,35.64453125
-25.390625,999.51171875,999.51171875,11.71875
-165.52734375,130.859375,-362.3046875,-125.0
-151.3671875,-1000.0,-1000.0,-179.6875
-11.23046875,-1000.0,-1000.0,-91.796875
90.33203125,-249.51171875,-105.95703125,33.203125
13.18359375,999.51171875,999.51171875,23.4375
-129.39453125,443.359375,-52.24609375,-117.67578125
-154.296875,-913.57421875,-1000.0,-193.359375
-19.04296875,-1000.0,-1000.0,-110.3515625
115.234375,-235.83984375,-208.49609375,26.85546875
57.12890625,999.51171875,999.51171875,33.69140625
-104.98046875,196.77734375,78.61328125,-102.05078125
-128.41796875,-1000.0,-1000.0,-187.5
-13.18359375,-1000.0,-1000.0,-117.1875
112.3046875,-264.16015625,-257.32421875,30.2734375
78.125,999.51171875,999.51171875,58.59375
-90.33203125,384.765625,156.73828125,-65.91796875
-135.25390625,-951.66015625,-1000.0,-155.2734375
-23.4375,-1000.0,-1000.0,-111.328125
119.140625,-206.0546875,-280.2734375,23.92578125
108.3984375,999.51171875,999.51171875,73.2421875
-58.10546875,744.62890625,194.3359375,-47.36328125
-131.34765625,-591.796875,-1000.0,-164.0625
-56.640625,-1000.0,-1000.0,-133.7890625
104.00390625,-719.23828125,-470.703125,-3.90625
135.7421875,803.22265625,999.51171875,60.05859375
-36.1328125,718.75,298.33984375,-45.8984375
-115.234375,-774.90234375,-1000.0,-158.69140625
-36.1328125,-1000.0,-1000.0,-138.18359375
118.65234375,-593.75,-626.46484375,-9.27734375
172.36328125,827.1484375,947.75390625,82.03125
21.484375,989.2578125,482.91015625,-8.7890625
-95.703125,-408.69140625,-956.0546875,-151.3671875
-40.0390625,-1000.0,-1000.0,-157.71484375
119.140625,-948.2421875,-860.3515625,-20.99609375
195.80078125,266.11328125,610.83984375,71.77734375
148.92578125,999.51171875,774.90234375,-6.34765625
85.44921875,-81.0546875,-770.5078125,-132.32421875
109.375,-1000.0,-1000.0,-152.34375
228.515625,-1000.0,-995.60546875,-49.31640625
153.3203125,-85.9375,250.0,53.7109375
-43.45703125,999.51171875,999.51171875,9.27734375
-147.94921875,176.7578125,-430.17578125,-127.9296875
-110.3515625,-1000.0,-1000.0,-171.875
114.2578125,-1000.0,-1000.0,-74.21875
267.578125,-221.6796875,3.41796875,48.828125
152.34375,999.51171875,999.51171875,31.73828125
-7.8125,169.43359375,-197.75390625,-102.5390625
2.9296875,-1000.0,-1000.0,-165.0390625
165.52734375,-1000.0,-1000.0,-76.66015625
154.296875,-195.3125,-105.46875,51.7578125
128.41796875,999.51171875,999.51171875,57.6171875
406.25,285.15625,61.03515625,-72.265625
830.078125,-1000.0,-1000.0,-166.9921875
984.86328125,-1000.0,-1000.0,-100.09765625
951.171875,230.46875,-124.0234375,45.41015625
958.984375,999.51171875,999.51171875,51.7578125
967.28515625,429.19921875,144.04296875,-80.078125
990.72265625,-867.67578125,-1000.0,-165.0390625
641.11328125,-1000.0,-1000.0,-113.28125
750.48828125,-232.421875,-248.046875,39.55078125
999.51171875,999.51171875,999.51171875,71.77734375
526.85546875,694.3359375,223.6328125,-59.08203125
428.7109375,-669.921875,-1000.0,-154.78515625
758.30078125,-1000.0,-1000.0,-119.62890625
545.41015625,-300.29296875,-276.3671875,6.34765625
432.12890625,923.828125,999.51171875,63.96484375
864.2578125,999.51171875,440.91796875,-34.66796875
997.0703125,78.125,-897.4609375,-139.6484375
913.0859375,-1000.0,-1000.0,-150.390625
999.51171875,-572.265625,-346.19140625,-29.78515625
879.39453125,999.51171875,999.51171875,69.82421875
-76.66015625,562.98828125,558.59375,-35.15625
303.22265625,-875.0,-815.4296875,-164.0625
999.51171875,-1000.0,-1000.0,-155.2734375
949.21875,-417.48046875,-382.8125,-21.484375
895.99609375,838.37890625,965.8203125,74.21875
866.2109375,999.51171875,924.8046875,-1.46484375
932.6171875,401.85546875,-351.5625,-139.16015625
896.97265625,-1000.0,-1000.0,-170.41015625
859.86328125,-810.546875,-493.65234375,-51.26953125
999.51171875,665.0390625,844.7265625,54.6875
443.84765625,999.51171875,999.51171875,-6.34765625
-901.85546875,-138.18359375,-115.234375,-145.01953125
-1000.0,-1000.0,-1000.0,-181.640625
-820.80078125,-1000.0,-673.828125,-75.68359375
-722.65625,120.60546875,645.5078125,41.015625
-594.23828125,999.51171875,999.51171875,1.46484375
374.0234375,728.515625,105.95703125,-120.60546875
-214.35546875,-649.4140625,-1000.0,-171.875
-1000.0,-1000.0,-789.55078125,-96.6796875
-903.3203125,188.96484375,531.25,31.25
-1000.0,999.51171875,999.51171875,17.08984375
-607.421875,472.65625,161.62109375,-105.46875
4.39453125,-893.5546875,-1000.0,-165.0390625
-791.50390625,-1000.0,-946.2890625,-99.12109375
-1000.0,113.28125,301.26953125,41.015625
-979.4921875,999.51171875,999.51171875,50.29296875
-942.3828125,776.85546875,252.44140625,-68.84765625
464.84375,-500.0,-995.60546875,-162.109375
518.5546875,-1000.0,-1000.0,-117.67578125
-260.7421875,-157.2265625,43.45703125,36.1328125
653.3203125,999.51171875,999.51171875,86.42578125
924.31640625,999.51171875,416.50390625,-30.2734375
820.80078125,-150.87890625,-899.90234375,-153.80859375
999.51171875,-1000.0,-1000.0,-129.8828125
776.85546875,-31.73828125,-52.734375,21.97265625
126.953125,999.51171875,999.51171875,74.21875
-378.41796875,896.484375,727.05078125,-30.76171875
-965.8203125,-346.6796875,-587.890625,-149.4140625
-647.4609375,-1000.0,-1000.0,-135.7421875
50.78125,-156.25,-113.76953125,31.25
-565.91796875,970.21484375,999.51171875,99.609375
-1000.0,999.51171875,973.6328125,-7.8125
-971.19140625,209.47265625,-181.15234375,-116.2109375
-1000.0,-1000.0,-1000.0,-142.578125
-935.05859375,-514.6484375,-165.0390625,-22.4609375
-974.12109375,849.12109375,996.58203125,78.125
-985.3515625,999.51171875,999.51171875,-0.48828125
214.84375,307.6171875,67.3828125,-125.9765625
945.80078125,-1000.0,-1000.0,-158.203125
152.83203125,-619.140625,-222.65625,-33.69140625
-361.81640625,791.015625,984.86328125,70.80078125
-171.875,999.51171875,999.51171875,-5.37109375
436.5234375,244.140625,161.62109375,-118.65234375
289.0625,-1000.0,-1000.0,-160.64453125
-56.640625,-431.15234375,-322.265625,-62.98828125
237.79296875,915.52734375,951.171875,68.84765625
-170.8984375,999.51171875,999.51171875,34.66796875
147.94921875,182.12890625,175.29296875,-100.09765625
933.59375,-1000.0,-1000.0,-177.24609375
965.8203125,-947.75390625,-675.78125,-92.7734375
948.2421875,314.94140625,682.12890625,54.19921875
968.26171875,999.51171875,999.51171875,42.48046875
967.28515625,335.9375,155.76171875,-111.328125
958.0078125,-952.1484375,-1000.0,-206.54296875
936.03515625,-1000.0,-947.265625,-115.72265625
999.51171875,30.76171875,300.78125,44.921875
202.63671875,999.51171875,999.51171875,58.10546875
-505.37109375,450.1953125,200.1953125,-86.42578125
-652.83203125,-911.1328125,-1000.0,-190.91796875
-284.66796875,-1000.0,-1000.0,-115.234375
576.171875,31.25,75.68359375,59.08203125
776.85546875,999.51171875,999.51171875,108.3984375
852.5390625,594.7265625,280.76171875,-15.13671875
955.078125,-734.375,-970.703125,-143.5546875
721.19140625,-1000.0,-1000.0,-115.72265625
-357.91015625,-218.26171875,-116.69921875,46.38671875
130.37109375,938.96484375,999.51171875,109.375
999.51171875,999.51171875,624.51171875,-10.25390625
948.2421875,228.02734375,-711.9140625,-133.30078125
51.7578125,-1000.0,-1000.0,-138.671875
-156.25,-436.03515625,-152.34375,17.578125
692.3828125,942.87109375,999.51171875,113.76953125
960.44921875,999.51171875,867.67578125,6.34765625
815.4296875,-62.98828125,-407.2265625,-122.0703125
591.30859375,-1000.0,-1000.0,-132.32421875
723.6328125,-230.46875,-138.18359375,16.6015625
999.51171875,973.14453125,999.51171875,117.1875
796.875,999.51171875,999.51171875,36.1328125
660.15625,111.81640625,5.859375,-115.234375
526.85546875,-1000.0,-1000.0,-175.29296875
438.96484375,-207.03125,-156.25,-25.87890625
999.51171875,999.51171875,996.09375,89.84375
533.203125,999.51171875,999.51171875,33.69140625
-242.67578125,-43.9453125,189.94140625,-99.12109375
829.1015625,-1000.0,-1000.0,-159.66796875
831.0546875,-635.25390625,-204.58984375,-32.71484375
420.41015625,695.80078125,994.140625,87.40234375
939.94140625,999.51171875,999.51171875,34.66796875
877.44140625,188.96484375,269.53125,-105.95703125
43.45703125,-1000.0,-1000.0,-177.734375
-546.875,-1000.0,-272.94921875,-69.82421875
-150.390625,192.3828125,972.65625,66.89453125
389.6484375,999.51171875,999.51171875,48.828125
953.125,298.828125,380.859375,-72.75390625
975.5859375,-1000.0,-1000.0,-174.31640625
948.73046875,-1000.0,-436.03515625,-93.26171875
929.6875,268.5546875,912.109375,57.6171875
999.51171875,999.51171875,999.51171875,50.78125
506.8359375,360.3515625,535.64453125,-72.75390625
242.67578125,-958.0078125,-997.55859375,-158.203125
987.79296875,-1000.0,-646.97265625,-89.35546875
983.3984375,180.17578125,804.6875,68.84765625
940.91796875,999.51171875,999.51171875,73.2421875
968.75,999.51171875,777.83203125,-52.734375
966.30859375,-14.16015625,-672.36328125,-146.97265625
968.75,-1000.0,-854.98046875,-125.0
926.7578125,302.24609375,659.66796875,32.2265625
942.87109375,999.51171875,999.51171875,64.94140625
972.16796875,856.4453125,866.69921875,-65.4296875
963.37890625,-348.6328125,-413.57421875,-163.0859375
965.33203125,-1000.0,-1000.0,-135.7421875
950.68359375,-166.015625,259.765625,25.390625
955.56640625,983.88671875,999.51171875,90.33203125
920.8984375,999.51171875,982.91015625,-15.13671875
912.59765625,37.109375,-143.06640625,-141.11328125
780.76171875,-1000.0,-1000.0,-151.85546875
904.78515625,-118.1640625,84.9609375,10.25390625
949.21875,999.51171875,999.51171875,99.12109375
999.51171875,999.51171875,999.51171875,-1.46484375
709.9609375,237.79296875,81.54296875,-142.578125
-592.28515625,-1000.0,-1000.0,-174.8046875
-1000.0,-484.86328125,-120.1171875,-30.76171875
-949.21875,927.24609375,999.51171875,74.70703125
-1000.0,999.51171875,999.51171875,-0.9765625
-1000.0,-126.46484375,139.16015625,-136.23046875
-994.140625,-1000.0,-1000.0,-168.9453125
-952.63671875,-720.21484375,-193.359375,-24.4140625
-1000.0,566.89453125,997.0703125,91.30859375
-269.04296875,999.51171875,999.51171875,27.83203125
999.51171875,470.21484375,209.47265625,-96.19140625
-245.1171875,-1000.0,-1000.0,-163.57421875
-537.109375,-620.60546875,-309.08203125,-55.17578125
999.51171875,832.51953125,961.42578125,80.56640625
97.65625,999.51171875,999.51171875,35.64453125
-896.484375,242.67578125,190.4296875,-116.2109375
147.4609375,-1000.0,-1000.0,-185.05859375
675.78125,-953.125,-602.05078125,-76.66015625
804.6875,355.46875,761.23046875,50.78125
891.11328125,999.51171875,999.51171875,27.83203125
-283.203125,127.44140625,137.20703125,-114.2578125
-1000.0,-1000.0,-1000.0,-182.6171875
-1000.0,-1000.0,-942.3828125,-92.7734375
-599.609375,-142.578125,313.96484375,48.33984375
-552.24609375,999.51171875,999.51171875,40.52734375
-1000.0,184.08203125,107.421875,-101.5625
-993.65234375,-1000.0,-1000.0,-166.50390625
-992.1875,-1000.0,-1000.0,-95.21484375
-999.51171875,-262.6953125,-129.39453125,29.296875
-1000.0,999.51171875,999.51171875,37.109375
-996.58203125,582.03125,150.87890625,-75.1953125
-967.7734375,-809.08203125,-1000.0,-146.97265625
-995.1171875,-1000.0,-1000.0,-99.12109375
-997.0703125,-229.98046875,-240.234375,37.59765625
-976.5625,999.51171875,999.51171875,70.80078125
-1000.0,280.76171875,165.0390625,-65.91796875
-356.93359375,-995.1171875,-1000.0,-162.59765625
52.24609375,-1000.0,-1000.0,-125.48828125
-52.734375,-259.27734375,-328.125,9.765625
-569.3359375,999.51171875,999.51171875,62.01171875
-1000.0,474.12109375,209.9609375,-57.6171875
-879.8828125,-891.6015625,-1000.0,-155.2734375
-916.9921875,-1000.0,-1000.0,-139.6484375
-1000.0,-743.1640625,-577.63671875,-22.4609375
-890.625,640.13671875,999.51171875,51.7578125
-845.21484375,999.51171875,364.74609375,-57.12890625
-1000.0,-273.92578125,-1000.0,-178.7109375
-1000.0,-1000.0,-1000.0,-165.52734375
-983.3984375,-840.8203125,-851.07421875,-49.31640625
-977.5390625,549.8046875,692.87109375,41.50390625
-1000.0,999.51171875,475.5859375,-20.5078125
-66.89453125,-437.5,-1000.0,-137.6953125
166.9921875,-1000.0,-982.421875,-171.38671875
-766.11328125,-1000.0,-1000.0,-72.75390625
-694.3359375,51.26953125,281.25,45.41015625
-512.20703125,999.51171875,634.765625,-10.25390625
-203.61328125,-42.96875,-944.82421875,-143.06640625
-748.53515625,-1000.0,-988.76953125,-166.015625
-1000.0,-1000.0,-1000.0,-64.94140625
-969.23828125,-204.1015625,-7.32421875,47.36328125
-1000.0,999.51171875,874.51171875,7.8125
-955.56640625,53.7109375,-660.64453125,-134.765625
-1000.0,-1000.0,-1000.0,-191.89453125
-553.22265625,-1000.0,-1000.0,-90.8203125
-186.5234375,-149.4140625,-161.62109375,48.828125
-983.88671875,999.51171875,999.51171875,34.66796875
-1000.0,134.27734375,-422.36328125,-100.09765625
-930.17578125,-1000.0,-1000.0,-163.0859375
-1000.0,-1000.0,-1000.0,-79.1015625
-865.234375,-83.984375,-225.09765625,52.24609375
358.88671875,999.51171875,999.51171875,44.921875
999.51171875,361.328125,-83.49609375,-104.00390625
812.98828125,-925.29296875,-1000.0,-184.08203125
520.5078125,-1000.0,-1000.0,-114.74609375
-456.0546875,-345.703125,-284.1796875,20.5078125
-1000.0,999.51171875,999.51171875,63.96484375
-970.703125,206.54296875,122.0703125,-62.5
-931.640625,-1000.0,-1000.0,-174.31640625
-1000.0,-1000.0,-1000.0,-132.8125
-381.34765625,-253.41796875,-317.3828125,16.6015625
952.1484375,947.265625,999.51171875,69.82421875
972.65625,999.51171875,204.58984375,-47.8515625
945.3125,214.35546875,-1000.0,-131.34765625
886.71875,-1000.0,-1000.0,-104.4921875
855.46875,-439.94140625,-378.90625,14.6484375
990.72265625,999.51171875,999.51171875,89.35546875
420.8984375,627.9296875,316.89453125,-8.7890625
-715.33203125,-798.33984375,-982.91015625,-122.55859375
-859.86328125,-1000.0,-1000.0,-114.74609375
-789.55078125,-881.8359375,-454.1015625,-2.44140625
-1000.0,573.73046875,999.51171875,87.40234375
-1000.0,815.91796875,560.546875,-5.37109375
-807.12890625,-707.03125,-837.40234375,-133.7890625
-117.1875,-1000.0,-1000.0,-128.90625
777.83203125,-411.1328125,-525.87890625,-7.8125
597.16796875,990.234375,927.734375,86.9140625
-599.12109375,842.28515625,811.03515625,8.30078125
-1000.0,-523.4375,-591.30859375,-130.859375
-499.51171875,-1000.0,-1000.0,-158.203125
415.0390625,-460.44921875,-645.99609375,-37.59765625
942.3828125,828.125,718.26171875,80.56640625
999.51171875,999.51171875,999.51171875,27.83203125
206.0546875,139.6484375,-256.8359375,-100.5859375
-530.2734375,-1000.0,-1000.0,-150.390625
-208.0078125,-1000.0,-869.62890625,-47.36328125
45.41015625,134.27734375,389.16015625,79.1015625
-104.00390625,999.51171875,999.51171875,43.45703125
-828.125,93.26171875,-28.80859375,-109.86328125
-989.74609375,-1000.0,-1000.0,-171.38671875
-1000.0,-1000.0,-1000.0,-74.70703125
-315.91796875,-215.33203125,143.06640625,66.89453125
577.1484375,999.51171875,999.51171875,58.10546875
-231.4453125,202.63671875,96.19140625,-94.23828125
-75.68359375,-1000.0,-1000.0,-167.96875
-81.0546875,-1000.0,-1000.0,-90.8203125
-557.6171875,-256.8359375,-53.22265625,43.9453125
683.59375,999.51171875,999.51171875,65.4296875
338.37890625,662.109375,181.15234375,-54.19921875
-1000.0,-723.6328125,-1000.0,-150.390625
-832.51953125,-1000.0,-1000.0,-95.21484375
-470.21484375,-230.46875,-166.50390625,43.9453125
-388.18359375,999.51171875,999.51171875,62.98828125
-454.58984375,351.07421875,251.46484375,-69.82421875
-1000.0,-964.84375,-996.58203125,-166.9921875
-643.5546875,-1000.0,-1000.0,-131.8359375
730.46875,-192.87109375,-227.05078125,14.16015625
999.51171875,994.140625,999.51171875,74.21875
954.1015625,999.51171875,451.66015625,-29.78515625
849.12109375,-68.84765625,-887.6953125,-149.90234375
706.54296875,-1000.0,-1000.0,-149.90234375
990.72265625,-238.28125,-232.421875,-2.9296875
812.98828125,999.51171875,999.51171875,73.73046875
-297.36328125,603.02734375,650.87890625,-42.48046875
-1000.0,-768.06640625,-703.125,-160.64453125
-961.9140625,-1000.0,-1000.0,-171.875
-1000.0,-395.01953125,-251.46484375,-47.36328125
-715.8203125,947.265625,999.51171875,71.2890625
-722.16796875,981.93359375,874.51171875,-9.765625
-974.609375,-299.31640625,-402.34375,-139.16015625
-1000.0,-1000.0,-1000.0,-158.203125
-142.08984375,-412.59765625,-351.07421875,-33.203125
998.046875,861.328125,930.17578125,75.1953125
944.3359375,999.51171875,999.51171875,0.9765625
968.26171875,191.40625,-82.03125,-129.39453125
505.859375,-1000.0,-1000.0,-170.8984375
326.66015625,-855.46875,-513.18359375,-60.546875
210.9375,493.1640625,813.4765625,63.96484375
-796.38671875,999.51171875,999.51171875,21.484375
-1000.0,85.44921875,81.0546875,-117.1875
-957.51953125,-1000.0,-1000.0,-182.12890625
-1000.0,-1000.0,-686.5234375,-83.49609375
-996.58203125,-32.2265625,648.4375,41.9921875
-1000.0,999.51171875,999.51171875,14.16015625
-979.00390625,588.8671875,176.26953125,-120.1171875
-886.71875,-782.71484375,-1000.0,-187.98828125
-762.20703125,-1000.0,-882.8125,-104.98046875
-792.48046875,-50.29296875,413.57421875,32.71484375
-584.47265625,999.51171875,999.51171875,46.875
-566.89453125,328.61328125,204.1015625,-81.0546875
-976.5625,-953.125,-1000.0,-166.9921875
-888.18359375,-1000.0,-1000.0,-102.05078125
-864.2578125,-219.7265625,197.75390625,45.8984375
-944.3359375,999.51171875,999.51171875,70.80078125
-714.84375,582.51953125,330.56640625,-59.08203125
-291.015625,-822.75390625,-960.44921875,-163.57421875
-145.99609375,-1000.0,-1000.0,-130.37109375
-448.73046875,-68.359375,41.50390625,15.625
-739.2578125,999.51171875,999.51171875,59.08203125
-932.6171875,707.03125,582.51953125,-53.22265625
-970.21484375,-632.32421875,-738.76953125,-154.296875
-1000.0,-1000.0,-1000.0,-144.53125
-458.49609375,-160.64453125,-118.1640625,8.7890625
904.78515625,967.7734375,999.51171875,83.984375
478.02734375,999.51171875,849.12109375,-34.66796875
174.8046875,156.25,-415.0390625,-149.90234375
736.328125,-1000.0,-1000.0,-153.80859375
-464.35546875,-473.14453125,-151.3671875,-31.73828125
-1000.0,879.39453125,999.51171875,57.6171875
-906.25,999.51171875,999.51171875,-20.01953125
-1000.0,155.2734375,-82.03125,-141.6015625
-116.69921875,-1000.0,-1000.0,-161.1328125
999.51171875,-197.75390625,-185.546875,-16.6015625
905.2734375,998.53515625,993.1640625,83.0078125
954.1015625,999.51171875,999.51171875,6.8359375
892.578125,215.33203125,96.19140625,-115.234375
-388.671875,-1000.0,-1000.0,-170.8984375
-749.0234375,-810.546875,-295.41015625,-50.29296875
696.77734375,534.66796875,950.68359375,88.37890625
999.51171875,999.51171875,999.51171875,33.69140625
907.71484375,765.13671875,214.35546875,-93.26171875
975.09765625,-660.15625,-1000.0,-159.66796875
964.35546875,-979.98046875,-436.03515625,-69.3359375
959.9609375,482.421875,892.578125,64.453125
985.83984375,999.51171875,999.51171875,45.41015625
689.94140625,330.078125,242.1875,-76.171875
655.2734375,-919.921875,-1000.0,-163.57421875
-264.16015625,-1000.0,-606.4453125,-86.9140625
-1000.0,-193.84765625,756.8359375,55.17578125
-970.21484375,999.51171875,999.51171875,46.875
-881.8359375,382.32421875,317.3828125,-88.37890625
-300.78125,-978.02734375,-1000.0,-170.8984375
-495.60546875,-1000.0,-770.5078125,-102.05078125
-1000.0,31.73828125,596.19140625,39.0625
-992.67578125,999.51171875,999.51171875,45.8984375
-988.76953125,648.4375,470.703125,-69.82421875
-1000.0,-680.6640625,-893.5546875,-150.87890625
-1000.0,-1000.0,-1000.0,-106.93359375
-1000.0,-207.51953125,243.1640625,37.109375
-1000.0,999.51171875,999.51171875,65.4296875
-1000.0,845.21484375,624.51171875,-53.7109375
-1000.0,-482.91015625,-701.171875,-146.484375
-1000.0,-1000.0,-1000.0,-117.1875
-990.72265625,-163.0859375,26.85546875,22.4609375
-986.328125,978.515625,999.51171875,72.75390625
-1000.0,999.51171875,836.9140625,-37.59765625
-375.9765625,68.359375,-419.921875,-134.27734375
339.35546875,-1000.0,-1000.0,-121.58203125
736.81640625,-185.546875,-107.421875,14.6484375
934.5703125,999.51171875,999.51171875,81.54296875
815.4296875,999.51171875,948.73046875,-22.4609375
-282.2265625,14.6484375,-242.67578125,-141.6015625
-1000.0,-1000.0,-1000.0,-157.71484375
-956.54296875,-491.2109375,-170.41015625,-19.53125
-995.60546875,825.1953125,999.0234375,63.4765625
-1000.0,999.51171875,999.51171875,-13.671875
-1000.0,449.21875,14.16015625,-123.046875
-1000.0,-1000.0,-1000.0,-157.71484375
-998.046875,-693.84765625,-232.91015625,-41.015625
-1000.0,750.0,981.4453125,67.87109375
-964.84375,999.51171875,999.51171875,13.671875
-854.00390625,304.6875,122.0703125,-112.3046875
-796.875,-1000.0,-1000.0,-158.69140625
-436.5234375,-730.46875,-401.3671875,-40.0390625
396.97265625,661.62109375,906.73828125,90.33203125
913.0859375,999.51171875,999.51171875,44.43359375
962.40234375,686.5234375,176.26953125,-82.03125
912.59765625,-878.90625,-1000.0,-140.13671875
999.51171875,-479.98046875,-554.19921875,-51.26953125
477.5390625,954.58984375,801.7578125,71.2890625
-620.60546875,999.51171875,999.51171875,35.64453125
-953.61328125,273.92578125,175.29296875,-96.6796875
-987.79296875,-950.68359375,-1000.0,-171.875
-983.88671875,-1000.0,-912.109375,-96.19140625
-899.90234375,-226.07421875,363.76953125,43.45703125
-948.2421875,999.51171875,999.51171875,50.29296875
-1000.0,299.8046875,190.4296875,-74.70703125
-1000.0,-985.83984375,-1000.0,-162.109375
-934.5703125,-1000.0,-1000.0,-101.07421875
-748.53515625,-234.86328125,94.7265625,52.734375
-754.39453125,999.51171875,999.51171875,64.94140625
-871.09375,616.2109375,301.7578125,-73.2421875
-913.0859375,-771.97265625,-959.47265625,-167.48046875
-795.8984375,-1000.0,-1000.0,-121.58203125
-622.55859375,-176.26953125,-114.2578125,28.3203125
-650.390625,984.86328125,999.51171875,67.87109375
-803.7109375,999.51171875,509.27734375,-42.48046875
-838.8671875,-30.2734375,-822.75390625,-140.625
-710.9375,-1000.0,-1000.0,-128.41796875
-519.53125,-190.91796875,-195.80078125,16.6015625
-541.015625,978.515625,999.51171875,74.21875
-689.453125,999.51171875,620.60546875,-37.109375
-718.26171875,219.7265625,-721.6796875,-145.99609375
-583.49609375,-1000.0,-1000.0,-147.4609375
-338.37890625,-500.9765625,-236.328125,-2.44140625
-337.890625,927.24609375,999.51171875,84.47265625
-557.6171875,999.51171875,777.83203125,-21.484375
-651.3671875,-170.8984375,-541.9921875,-140.13671875
-595.703125,-1000.0,-1000.0,-145.99609375
-396.97265625,-467.7734375,-286.1328125,-18.5546875
-310.05859375,839.35546875,968.26171875,78.61328125
-432.12890625,999.51171875,999.51171875,4.39453125
-512.6953125,207.51953125,-138.671875,-122.55859375
-480.95703125,-1000.0,-1000.0,-154.78515625
-261.23046875,-412.109375,-381.8359375,-11.23046875
-168.9453125,919.43359375,923.828125,102.5390625
-297.36328125,999.51171875,999.51171875,13.18359375
-370.1171875,171.38671875,-51.7578125,-121.58203125
-347.16796875,-1000.0,-1000.0,-162.109375
-137.6953125,-941.40625,-611.328125,-51.7578125
-17.08984375,330.078125,718.26171875,58.59375
-141.11328125,999.51171875,999.51171875,20.01953125
-258.7890625,270.01953125,110.83984375,-97.65625
-250.0,-1000.0,-1000.0,-158.203125
-59.08203125,-1000.0,-776.3671875,-63.4765625
59.08203125,291.9921875,545.41015625,59.5703125
-55.6640625,999.51171875,999.51171875,37.59765625
-170.41015625,988.28125,178.22265625,-81.54296875
-187.98828125,-124.0234375,-1000.0,-158.203125
-57.12890625,-1000.0,-959.9609375,-93.26171875
91.796875,-86.9140625,282.71484375,58.59375
-0.9765625,999.51171875,999.51171875,75.1953125
-159.1796875,543.45703125,230.46875,-67.87109375
-175.29296875,-818.84765625,-1000.0,-166.015625
-43.9453125,-1000.0,-1000.0,-113.28125
102.5390625,-166.50390625,89.84375,30.76171875
42.48046875,999.51171875,999.51171875,60.546875
-106.4453125,851.07421875,409.66796875,-55.17578125
-152.83203125,-458.0078125,-902.34375,-144.53125
-45.41015625,-1000.0,-1000.0,-109.86328125
109.375,-183.59375,-37.109375,39.55078125
65.4296875,999.51171875,999.51171875,82.03125
-77.1484375,964.84375,649.4140625,-37.109375
-134.27734375,-279.296875,-675.78125,-139.6484375
-62.98828125,-1000.0,-1000.0,-132.32421875
119.62890625,-166.50390625,-118.65234375,10.25390625
79.1015625,985.3515625,999.51171875,69.3359375
-94.7265625,999.51171875,921.38671875,-34.66796875
-147.94921875,59.5703125,-298.33984375,-147.94921875
-104.4921875,-1000.0,-1000.0,-163.57421875
79.1015625,-176.26953125,-125.48828125,-10.7421875
77.63671875,991.2109375,999.51171875,76.66015625
-83.0078125,999.51171875,999.51171875,-20.5078125
-120.1171875,222.65625,46.38671875,-127.9296875
-78.125,-1000.0,-1000.0,-135.25390625
128.90625,-197.265625,-173.828125,7.32421875
161.62109375,994.62890625,993.1640625,102.05078125
-26.3671875,999.51171875,999.51171875,16.11328125
-96.19140625,361.81640625,210.9375,-102.5390625
-72.265625,-1000.0,-1000.0,-137.6953125
115.72265625,-373.046875,-190.91796875,-8.30078125
169.43359375,962.890625,994.140625,94.7265625
4.8828125,999.51171875,999.51171875,26.3671875
-79.1015625,880.37109375,555.6640625,-79.58984375
-107.421875,-663.57421875,-1000.0,-139.6484375
62.01171875,-491.2109375,-259.765625,-36.1328125
146.97265625,999.51171875,999.51171875,101.5625
-10.25390625,892.578125,914.0625,58.59375
-65.4296875,999.51171875,999.51171875,-55.17578125
-91.796875,60.05859375,-261.23046875,-127.44140625
15.13671875,-519.53125,-308.59375,-62.98828125
143.06640625,961.42578125,999.51171875,74.70703125
10.25390625,999.51171875,900.390625,45.41015625
-100.09765625,913.57421875,999.51171875,-78.61328125
-105.95703125,979.00390625,-22.4609375,-155.2734375
2.9296875,966.796875,-273.92578125,-103.02734375
102.5390625,964.35546875,999.51171875,32.2265625
-4.8828125,894.53125,901.3671875,38.57421875
-96.6796875,999.51171875,999.51171875,-62.01171875
-130.859375,106.4453125,-25.87890625,-140.13671875
-23.4375,-982.91015625,-566.89453125,-98.6328125
160.64453125,499.0234375,940.4296875,45.8984375
45.8984375,999.51171875,953.61328125,55.6640625
-92.7734375,999.51171875,999.51171875,-55.17578125
-134.27734375,180.6640625,31.25,-142.08984375
-63.4765625,-1000.0,-948.2421875,-129.39453125
119.62890625,328.61328125,551.7578125,18.5546875
49.8046875,999.51171875,999.51171875,68.84765625
-96.6796875,999.51171875,999.51171875,-38.0859375
-146.484375,194.82421875,68.359375,-142.08984375
-103.515625,-1000.0,-1000.0,-145.01953125
88.37890625,-213.8671875,-38.0859375,3.90625
82.03125,999.51171875,999.51171875,78.125
-88.8671875,999.51171875,968.26171875,-27.83203125
-143.06640625,-43.9453125,-151.3671875,-144.04296875
-100.09765625,-1000.0,-1000.0,-162.59765625
64.453125,-366.2109375,-203.125,-22.4609375
85.44921875,904.296875,999.51171875,60.546875
-60.546875,999.51171875,987.79296875,-37.59765625
-155.2734375,217.7734375,-147.94921875,-161.62109375
-146.97265625,-1000.0,-1000.0,-201.171875
42.48046875,-544.43359375,-435.546875,-76.171875
97.65625,896.97265625,948.73046875,46.875
-68.84765625,999.51171875,959.9609375,-15.625
-142.578125,-198.2421875,-360.3515625,-143.5546875
-107.421875,-1000.0,-1000.0,-167.48046875
33.69140625,-1000.0,-915.52734375,-68.359375
113.76953125,0.9765625,386.23046875,51.7578125
-14.6484375,999.51171875,999.51171875,29.78515625
-142.08984375,-88.37890625,-378.90625,-117.1875
-125.0,-1000.0,-1000.0,-182.12890625
15.13671875,-1000.0,-1000.0,-99.609375
119.140625,-257.8125,-80.56640625,27.34375
30.2734375,999.51171875,999.51171875,22.94921875
-122.0703125,53.22265625,-295.8984375,-126.46484375
-128.90625,-1000.0,-1000.0,-199.70703125
13.18359375,-1000.0,-1000.0,-115.234375
133.30078125,-265.13671875,-237.79296875,20.99609375
40.52734375,999.51171875,999.51171875,24.4140625
-104.00390625,171.38671875,-74.21875,-104.4921875
-101.5625,-1000.0,-1000.0,-186.03515625
23.92578125,-1000.0,-1000.0,-128.41796875
158.69140625,-229.00390625,-262.6953125,21.97265625
85.44921875,999.51171875,999.51171875,55.17578125
-88.37890625,165.52734375,145.99609375,-76.171875
-114.2578125,-1000.0,-1000.0,-168.9453125
-0.48828125,-1000.0,-1000.0,-120.60546875
146.97265625,-244.140625,-251.953125,20.99609375
94.23828125,999.51171875,999.51171875,68.84765625
-89.35546875,840.33203125,366.2109375,-49.31640625
-142.08984375,-489.74609375,-953.125,-159.66796875
-14.6484375,-1000.0,-1000.0,-133.7890625
191.40625,-153.80859375,-178.7109375,23.4375
188.96484375,963.8671875,999.51171875,87.890625
41.50390625,999.51171875,906.73828125,-13.671875
-36.62109375,228.02734375,-336.9140625,-119.62890625
3.41796875,-1000.0,-1000.0,-132.32421875
210.9375,-304.19921875,-164.55078125,13.671875
208.49609375,964.84375,999.51171875,102.05078125
14.6484375,999.51171875,999.51171875,0.9765625
-59.5703125,218.26171875,-38.57421875,-127.9296875
-29.78515625,-1000.0,-1000.0,-157.71484375
151.3671875,-268.06640625,-176.7578125,-15.625
164.55078125,975.09765625,987.79296875,73.73046875
-26.85546875,999.51171875,999.51171875,-8.30078125
-109.86328125,268.5546875,187.01171875,-117.1875
-91.796875,-1000.0,-1000.0,-153.3203125
91.30859375,-206.0546875,-200.68359375,-19.53125
132.8125,999.0234375,997.0703125,98.6328125
-28.80859375,999.51171875,999.51171875,36.62109375
-113.76953125,345.21484375,247.55859375,-83.49609375
-128.41796875,-1000.0,-1000.0,-143.5546875
34.66796875,-765.625,-344.23828125,-41.50390625
119.62890625,613.76953125,940.4296875,88.37890625
-33.69140625,999.51171875,999.51171875,41.9921875
-145.5078125,508.30078125,328.125,-91.30859375
-157.71484375,-994.140625,-1000.0,-162.109375
11.23046875,-772.94921875,-525.87890625,-67.87109375
156.25,668.9453125,846.19140625,72.265625
44.921875,999.51171875,999.51171875,44.43359375
-76.171875,511.71875,373.53515625,-75.1953125
-68.84765625,-828.61328125,-1000.0,-150.87890625
134.27734375,-1000.0,-832.51953125,-88.8671875
378.90625,42.48046875,531.73828125,56.15234375
293.9453125,999.51171875,999.51171875,58.10546875
99.12109375,827.63671875,482.91015625,-71.2890625
14.16015625,-462.890625,-877.9296875,-167.48046875
51.7578125,-1000.0,-1000.0,-134.765625
172.8515625,-54.19921875,245.1171875,13.18359375
66.89453125,999.51171875,999.51171875,47.36328125
-100.09765625,999.51171875,700.1953125,-66.89453125
-108.88671875,36.1328125,-604.98046875,-160.64453125
-5.859375,-1000.0,-1000.0,-135.25390625
209.47265625,-178.22265625,-0.9765625,17.578125
660.64453125,987.3046875,999.51171875,57.6171875
979.4921875,999.51171875,826.171875,-52.734375
957.51953125,222.16796875,-432.12890625,-150.87890625
953.61328125,-1000.0,-1000.0,-150.87890625
990.72265625,-206.54296875,-141.6015625,-13.671875
871.58203125,999.51171875,999.51171875,50.78125
842.28515625,999.51171875,937.01171875,-41.9921875
999.51171875,189.453125,-272.94921875,-148.92578125
451.171875,-1000.0,-1000.0,-171.875
-50.29296875,-448.73046875,-178.7109375,-34.66796875
-124.51171875,917.96875,999.51171875,71.2890625
-422.36328125,999.51171875,999.51171875,-6.34765625
-291.50390625,23.92578125,-96.6796875,-127.9296875
-372.0703125,-1000.0,-1000.0,-163.57421875
-15.13671875,-514.16015625,-269.53125,-38.0859375
926.26953125,833.984375,964.35546875,87.40234375
112.3046875,999.51171875,999.51171875,20.99609375
-365.234375,194.3359375,64.453125,-115.234375
255.859375,-1000.0,-1000.0,-150.390625
794.921875,-636.23046875,-457.03125,-34.66796875
694.82421875,740.72265625,865.72265625,77.63671875
480.95703125,999.51171875,999.51171875,25.390625
687.01171875,311.5234375,148.4375,-102.5390625
-73.2421875,-1000.0,-1000.0,-166.50390625
142.578125,-794.921875,-660.15625,-72.265625
996.58203125,605.95703125,696.2890625,74.70703125
999.51171875,999.51171875,999.51171875,56.640625
149.4140625,138.18359375,147.4609375,-88.8671875
-227.05078125,-1000.0,-1000.0,-166.50390625
829.58984375,-1000.0,-942.3828125,-79.58984375
999.51171875,33.69140625,305.6640625,70.80078125
925.29296875,999.51171875,999.51171875,78.125
972.65625,916.9921875,208.49609375,-62.98828125
966.30859375,-304.6875,-1000.0,-149.4140625
964.84375,-1000.0,-1000.0,-90.33203125
956.0546875,-149.4140625,65.91796875,38.0859375
983.88671875,999.51171875,999.51171875,51.7578125
825.1953125,648.4375,266.6015625,-65.4296875
606.4453125,-719.7265625,-975.09765625,-157.71484375
646.484375,-1000.0,-1000.0,-115.72265625
776.3671875,-200.1953125,-145.01953125,30.2734375
698.73046875,999.51171875,999.51171875,75.68359375
376.46484375,916.50390625,462.890625,-41.015625
179.19921875,-374.0234375,-870.1171875,-156.73828125
184.08203125,-1000.0,-1000.0,-137.6953125
409.66796875,-149.90234375,-177.734375,9.27734375
422.36328125,999.51171875,999.51171875,63.96484375
150.390625,919.921875,657.71484375,-39.0625
-46.38671875,-313.4765625,-684.5703125,-136.23046875
-73.2421875,-1000.0,-1000.0,-133.7890625
250.48828125,-511.71875,-242.67578125,6.34765625
377.9296875,860.83984375,999.51171875,73.73046875
31.73828125,999.51171875,828.61328125,-37.109375
-181.15234375,-174.8046875,-472.16796875,-163.0859375
-76.171875,-1000.0,-1000.0,-179.6875
248.046875,-400.87890625,-305.17578125,-53.22265625
324.70703125,891.11328125,974.609375,50.78125
35.64453125,999.51171875,987.79296875,-14.6484375
-162.59765625,74.70703125,-207.51953125,-141.11328125
-194.82421875,-1000.0,-1000.0,-172.8515625
31.25,-853.02734375,-486.81640625,-48.828125
124.51171875,455.56640625,831.0546875,69.3359375
-167.96875,999.51171875,999.51171875,21.97265625
-347.65625,157.2265625,35.15625,-107.91015625
-238.28125,-1000.0,-1000.0,-165.52734375
58.10546875,-967.7734375,-681.640625,-62.5
293.45703125,280.2734375,651.3671875,68.84765625
134.27734375,999.51171875,999.51171875,42.96875
-110.83984375,653.3203125,140.625,-85.9375
-171.38671875,-687.5,-1000.0,-160.15625
-9.27734375,-1000.0,-893.06640625,-79.58984375
201.66015625,41.50390625,393.06640625,58.59375
-16.11328125,999.51171875,999.51171875,38.57421875
-429.6875,143.5546875,133.7890625,-101.07421875
-736.81640625,-1000.0,-1000.0,-175.29296875
-974.609375,-1000.0,-1000.0,-109.86328125
-1000.0,-266.6015625,109.375,27.34375
-994.62890625,999.51171875,999.51171875,49.8046875
-993.1640625,398.92578125,203.61328125,-69.82421875
-1000.0,-943.359375,-1000.0,-157.71484375
-939.94140625,-1000.0,-1000.0,-100.5859375
-687.01171875,-187.98828125,-44.43359375,45.8984375
-594.7265625,999.51171875,999.51171875,83.49609375
-246.58203125,999.51171875,334.9609375,-31.25
337.890625,-166.015625,-945.3125,-134.765625
783.203125,-1000.0,-1000.0,-111.328125
975.09765625,-162.109375,-190.4296875,33.69140625
954.1015625,985.83984375,999.51171875,87.40234375
964.84375,999.51171875,537.59765625,-25.390625
969.23828125,121.09375,-810.05859375,-131.34765625
949.21875,-1000.0,-1000.0,-131.34765625
968.26171875,-204.58984375,-209.47265625,6.8359375
882.32421875,999.51171875,999.51171875,92.7734375
195.80078125,999.51171875,821.77734375,-4.8828125
-590.33203125,-24.90234375,-476.07421875,-133.30078125
-889.16015625,-1000.0,-1000.0,-146.97265625
-908.203125,-946.2890625,-275.87890625,-11.23046875
-939.94140625,371.58203125,999.51171875,80.078125
-1000.0,999.51171875,894.53125,4.8828125
-998.53515625,-256.34765625,-377.9296875,-123.046875
-1000.0,-1000.0,-1000.0,-152.83203125
-998.53515625,-914.0625,-376.46484375,-22.94921875
-994.140625,286.1328125,916.015625,76.66015625
-1000.0,999.51171875,999.51171875,4.8828125
-994.140625,198.73046875,-69.3359375,-127.9296875
-1000.0,-1000.0,-1000.0,-176.7578125
-957.03125,-1000.0,-565.91796875,-67.87109375
-861.328125,204.58984375,771.97265625,58.59375
-960.44921875,999.51171875,999.51171875,14.6484375
-1000.0,502.9296875,45.41015625,-117.67578125
-1000.0,-844.23828125,-1000.0,-173.33984375
-839.35546875,-1000.0,-810.546875,-81.54296875
-613.76953125,14.16015625,494.62890625,44.43359375
-708.49609375,999.51171875,999.51171875,28.3203125
-842.28515625,356.93359375,125.9765625,-89.35546875
-817.3828125,-1000.0,-1000.0,-161.1328125
-604.00390625,-997.0703125,-912.59765625,-88.8671875
-432.6171875,303.7109375,356.4453125,42.48046875
-542.48046875,999.51171875,999.51171875,34.66796875
-703.61328125,249.0234375,147.94921875,-89.84375
-695.80078125,-974.609375,-1000.0,-166.015625
-500.9765625,-1000.0,-1000.0,-97.16796875
-279.78515625,-90.8203125,51.7578125,57.12890625
-337.40234375,999.51171875,999.51171875,80.56640625
-534.66796875,433.59375,219.7265625,-60.05859375
-557.12890625,-898.92578125,-999.51171875,-155.2734375
-392.08984375,-1000.0,-1000.0,-107.421875
-174.8046875,-214.35546875,-127.9296875,24.90234375
-213.37890625,999.51171875,999.51171875,61.5234375
-414.0625,728.515625,379.39453125,-43.9453125
-467.28515625,-639.6484375,-924.31640625,-141.6015625
-350.09765625,-1000.0,-1000.0,-125.0
-83.984375,-155.76171875,-222.16796875,20.99609375
-83.984375,960.9375,999.51171875,79.58984375
-313.4765625,999.51171875,615.234375,-26.85546875
-381.34765625,217.7734375,-736.81640625,-135.25390625
-301.7578125,-1000.0,-1000.0,-140.13671875
-42.96875,-203.125,-211.42578125,5.859375
-15.625,999.51171875,999.51171875,95.703125
-224.12109375,999.51171875,793.45703125,-5.37109375
-314.453125,220.21484375,-502.9296875,-126.953125
-261.23046875,-1000.0,-1000.0,-146.484375
11.23046875,-785.15625,-328.61328125,-27.83203125
75.1953125,625.0,979.4921875,65.4296875
-126.953125,999.51171875,957.03125,-11.71875
-208.49609375,-48.828125,-284.1796875,-137.20703125
-164.55078125,-1000.0,-1000.0,-158.69140625
51.7578125,-702.1484375,-425.29296875,-41.50390625
144.04296875,630.37109375,881.34765625,69.3359375
-45.41015625,999.51171875,999.51171875,15.625
-192.3828125,181.15234375,-33.69140625,-112.79296875
-176.7578125,-1000.0,-1000.0,-167.96875
26.85546875,-796.875,-628.90625,-71.77734375
139.6484375,564.453125,709.9609375,51.26953125
-73.73046875,999.51171875,999.51171875,8.7890625
-287.109375,142.578125,78.61328125,-120.1171875
-294.43359375,-1000.0,-1000.0,-181.640625
-132.32421875,-1000.0,-854.98046875,-100.09765625
231.93359375,65.91796875,437.5,35.64453125
735.83984375,999.51171875,999.51171875,33.203125
733.88671875,480.46875,134.27734375,-92.28515625
254.39453125,-846.6796875,-1000.0,-166.015625
112.79296875,-1000.0,-1000.0,-105.95703125
133.7890625,-206.0546875,148.92578125,32.71484375
-105.46875,999.51171875,999.51171875,51.26953125
-264.16015625,491.2109375,197.265625,-76.66015625
-556.15234375,-883.7890625,-1000.0,-159.1796875
-921.875,-1000.0,-1000.0,-111.328125
-951.171875,-240.72265625,-59.5703125,19.04296875
-977.5390625,999.51171875,999.51171875,55.17578125
-988.76953125,414.0625,287.109375,-64.94140625
-1000.0,-933.10546875,-972.65625,-164.55078125
-829.1015625,-1000.0,-1000.0,-125.48828125
-288.0859375,-201.171875,-180.17578125,19.04296875
-327.1484375,999.51171875,999.51171875,64.453125
-765.625,999.51171875,503.41796875,-50.29296875
-905.2734375,-177.24609375,-834.9609375,-151.85546875
-776.85546875,-1000.0,-1000.0,-140.625
-264.6484375,-224.609375,-222.65625,0.0
426.26953125,954.1015625,999.51171875,83.0078125
888.671875,999.51171875,679.19921875,-7.8125
973.14453125,218.75,-666.015625,-124.0234375
912.109375,-1000.0,-1000.0,-136.23046875
999.51171875,-328.61328125,-247.55859375,-7.8125
583.984375,999.51171875,999.51171875,81.0546875
-354.00390625,999.51171875,875.48828125,-8.7890625
-453.125,-190.4296875,-406.73828125,-133.7890625
-314.453125,-1000.0,-1000.0,-154.78515625
-5.859375,-194.82421875,-272.94921875,-26.85546875
188.4765625,974.609375,979.4921875,70.80078125
-46.38671875,999.51171875,999.51171875,-1.46484375
-108.88671875,90.8203125,-148.4375,-120.1171875
194.82421875,-1000.0,-1000.0,-149.90234375
62.5,-991.69921875,-537.59765625,-42.96875
320.3125,231.4453125,790.0390625,62.98828125
987.3046875,999.51171875,999.51171875,25.87890625
962.40234375,155.76171875,31.73828125,-99.12109375
950.1953125,-1000.0,-1000.0,-151.85546875
970.21484375,-1000.0,-729.4921875,-62.5
967.28515625,216.30859375,592.28515625,48.828125
956.0546875,999.51171875,999.51171875,30.76171875
986.328125,390.13671875,138.18359375,-97.16796875
909.66796875,-913.0859375,-1000.0,-176.7578125
826.171875,-1000.0,-949.70703125,-106.4453125
951.66015625,-66.40625,298.828125,28.80859375
987.3046875,999.51171875,999.51171875,35.64453125
755.859375,285.64453125,148.4375,-86.42578125
589.84375,-965.8203125,-1000.0,-159.66796875
-260.7421875,-1000.0,-1000.0,-103.02734375
-1000.0,-297.36328125,30.2734375,28.80859375
9.765625,999.51171875,999.51171875,59.08203125
77.1484375,316.89453125,219.7265625,-68.84765625
127.9296875,-1000.0,-1000.0,-156.73828125
999.51171875,-975.09765625,-1000.0,-105.46875
929.6875,284.66796875,-5.859375,35.64453125
