TP9,AF7,AF8,TP10
-977.5390625,-1000.0,-1000.0,-92.7734375
-1000.0,-1000.0,-922.8515625,110.3515625
-1000.0,-259.27734375,344.23828125,236.328125
-1000.0,999.51171875,999.51171875,235.83984375
-1000.0,516.6015625,158.203125,187.98828125
-1000.0,-866.69921875,-1000.0,162.59765625
-1000.0,-1000.0,-1000.0,195.80078125
-1000.0,-240.234375,73.2421875,250.0
-1000.0,999.51171875,999.51171875,269.53125
-1000.0,478.515625,213.37890625,212.40234375
-994.62890625,-889.6484375,-1000.0,156.73828125
-990.234375,-1000.0,-1000.0,181.640625
-994.140625,-273.4375,-123.046875,228.02734375
-610.83984375,958.49609375,999.51171875,239.2578125
-111.328125,999.51171875,387.6953125,177.734375
-87.890625,-78.61328125,-929.6875,128.41796875
19.04296875,-1000.0,-1000.0,3.41796875
695.3125,-166.50390625,-170.8984375,-211.42578125
619.62890625,999.51171875,999.51171875,-310.05859375
110.3515625,985.3515625,608.3984375,-476.5625
368.1640625,-213.37890625,-747.55859375,-602.05078125
-180.6640625,-1000.0,-1000.0,-586.42578125
-923.828125,-884.27734375,-216.30859375,-408.69140625
-996.09375,428.22265625,999.51171875,-126.953125
-985.83984375,999.51171875,808.59375,-82.51953125
-1000.0,-210.44921875,-510.25390625,-260.25390625
-1000.0,-1000.0,-1000.0,-206.54296875
-979.00390625,-760.25390625,-241.69921875,-223.6328125
-1000.0,529.78515625,985.3515625,-398.92578125
-765.13671875,999.51171875,999.51171875,-447.75390625
-169.921875,192.3828125,-136.23046875,-460.9375
415.0390625,-1000.0,-1000.0,-436.5234375
909.1796875,-608.3984375,-382.32421875,-408.203125
969.23828125,780.76171875,918.9453125,-389.16015625
952.63671875,999.51171875,999.51171875,-371.58203125
968.26171875,190.91796875,-33.203125,-363.28125
965.8203125,-1000.0,-1000.0,-344.7265625
965.33203125,-737.3046875,-544.921875,-314.453125
965.33203125,621.09375,781.73828125,-300.29296875
965.33203125,999.51171875,999.51171875,-289.0625
965.33203125,316.40625,118.1640625,-271.484375
965.8203125,-1000.0,-1000.0,-252.44140625
965.33203125,-1000.0,-758.30078125,-224.609375
965.33203125,253.41796875,571.2890625,-222.16796875
965.33203125,999.51171875,999.51171875,-221.6796875
965.33203125,461.42578125,154.78515625,-206.54296875
965.33203125,-885.7421875,-1000.0,-203.125
965.8203125,-1000.0,-969.7265625,-194.3359375
965.33203125,30.2734375,269.53125,-180.6640625
965.33203125,999.51171875,999.51171875,-170.41015625
965.8203125,534.66796875,165.52734375,-170.41015625
960.44921875,-805.6640625,-1000.0,-166.50390625
963.8671875,-1000.0,-1000.0,-150.390625
955.078125,-195.3125,-6.34765625,-139.6484375
980.95703125,999.51171875,999.51171875,-135.25390625
894.53125,602.05078125,264.16015625,-135.25390625
606.4453125,-780.76171875,-980.95703125,-121.09375
567.87109375,-1000.0,-1000.0,-110.83984375
811.5234375,-219.7265625,-160.64453125,-109.86328125
902.83203125,999.51171875,999.51171875,-106.4453125
635.7421875,753.41796875,443.359375,-108.88671875
310.546875,-612.3046875,-893.5546875,-107.421875
327.1484375,-1000.0,-1000.0,-94.7265625
648.4375,-160.15625,-194.3359375,-83.984375
789.0625,975.5859375,999.51171875,-81.54296875
629.39453125,999.51171875,716.796875,-84.47265625
256.8359375,20.01953125,-625.9765625,-78.61328125
333.0078125,-1000.0,-1000.0,-69.3359375
-3.41796875,-1000.0,-238.76953125,-61.5234375
-1000.0,-149.4140625,999.51171875,-64.94140625
-934.5703125,999.51171875,864.2578125,-75.1953125
-705.56640625,-110.83984375,-426.7578125,-75.1953125
-515.625,-1000.0,-1000.0,-67.3828125
32.2265625,-575.1953125,-296.38671875,-62.01171875
506.8359375,749.0234375,952.63671875,-57.12890625
434.5703125,999.51171875,999.51171875,-53.7109375
-66.89453125,201.66015625,-75.68359375,-62.98828125
-290.52734375,-1000.0,-1000.0,-56.15234375
-94.23828125,-468.75,-387.6953125,-41.9921875
104.98046875,892.08984375,910.15625,-43.45703125
-69.82421875,999.51171875,999.51171875,-50.29296875
-718.75,108.3984375,33.69140625,-59.08203125
-1000.0,-1000.0,-1000.0,-62.01171875
-982.91015625,-1000.0,-666.9921875,-45.8984375
-999.0234375,-161.1328125,666.9921875,-32.2265625
-999.51171875,999.51171875,999.51171875,-38.0859375
-975.5859375,202.63671875,140.13671875,-49.31640625
-1000.0,-1000.0,-1000.0,-54.19921875
-605.95703125,-1000.0,-869.140625,-42.96875
255.37109375,184.5703125,432.6171875,-30.2734375
733.88671875,999.51171875,999.51171875,-38.57421875
716.796875,650.390625,164.0625,-45.41015625
875.48828125,-650.87890625,-1000.0,-35.15625
661.62109375,-1000.0,-991.2109375,-38.57421875
-731.4453125,-227.5390625,212.890625,27.34375
-1000.0,999.51171875,999.51171875,76.66015625
-830.078125,598.14453125,225.5859375,-0.9765625
-876.46484375,-789.55078125,-999.0234375,-2.9296875
-321.77734375,-1000.0,-1000.0,32.71484375
95.21484375,-160.64453125,-42.48046875,31.73828125
496.09375,958.984375,999.51171875,58.10546875
889.16015625,999.51171875,462.890625,114.74609375
922.36328125,222.16796875,-865.234375,116.69921875
962.890625,-1000.0,-1000.0,143.5546875
950.1953125,-229.4921875,-176.26953125,122.0703125
939.453125,999.51171875,999.51171875,-5.859375
995.1171875,999.51171875,576.171875,-60.05859375
-62.01171875,-140.13671875,-780.76171875,-57.6171875
-1000.0,-1000.0,-1000.0,-24.90234375
-204.1015625,-378.90625,-214.35546875,12.6953125
775.390625,891.11328125,999.51171875,0.9765625
963.37890625,999.51171875,785.64453125,-47.36328125
944.82421875,186.5234375,-541.015625,-62.98828125
965.33203125,-1000.0,-1000.0,-42.48046875
966.796875,-305.6640625,-232.91015625,-11.23046875
965.33203125,969.7265625,999.51171875,-8.30078125
965.33203125,999.51171875,933.10546875,-48.828125
965.33203125,137.6953125,-307.6171875,-60.546875
965.33203125,-1000.0,-1000.0,-42.96875
965.33203125,-749.0234375,-358.3984375,-4.8828125
965.8203125,608.3984375,925.78125,16.6015625
965.33203125,999.51171875,999.51171875,-4.39453125
965.33203125,147.94921875,-71.77734375,-19.04296875
965.8203125,-1000.0,-1000.0,-5.859375
965.33203125,-999.51171875,-581.0546875,25.390625
965.33203125,241.2109375,746.58203125,40.0390625
965.33203125,999.51171875,999.51171875,14.16015625
965.33203125,177.24609375,112.3046875,-22.94921875
965.33203125,-1000.0,-1000.0,-11.23046875
965.8203125,-1000.0,-770.99609375,22.4609375
963.8671875,-22.4609375,560.546875,36.1328125
967.7734375,999.51171875,999.51171875,20.01953125
962.890625,329.58984375,153.80859375,-21.97265625
930.6640625,-952.1484375,-1000.0,-27.34375
951.171875,-1000.0,-937.5,0.0
963.8671875,-126.46484375,315.4296875,14.6484375
970.21484375,999.51171875,999.51171875,-4.8828125
945.80078125,983.88671875,211.9140625,-32.71484375
759.765625,-205.56640625,-1000.0,-42.48046875
795.41015625,-1000.0,-1000.0,-22.94921875
954.58984375,-234.375,36.62109375,6.34765625
990.234375,999.51171875,999.51171875,-4.39453125
798.33984375,468.75,257.32421875,-43.9453125
422.8515625,-901.3671875,-982.421875,-55.17578125
432.12890625,-1000.0,-1000.0,-26.85546875
730.95703125,-231.4453125,-148.4375,8.7890625
831.54296875,999.51171875,999.51171875,1.953125
562.98828125,874.0234375,459.47265625,-38.0859375
258.30078125,-445.3125,-882.32421875,-58.59375
252.9296875,-1000.0,-1000.0,-26.85546875
526.3671875,-167.48046875,-179.19921875,7.8125
662.109375,999.51171875,999.51171875,1.953125
500.48828125,973.14453125,620.1171875,-31.73828125
235.3515625,-189.94140625,-733.3984375,-64.453125
190.91796875,-1000.0,-1000.0,-47.8515625
479.4921875,-579.58984375,-232.91015625,-12.6953125
649.90234375,801.26953125,999.51171875,-17.578125
467.28515625,999.51171875,840.33203125,-50.78125
152.34375,-131.34765625,-466.30859375,-66.89453125
75.1953125,-1000.0,-1000.0,-41.50390625
356.93359375,-499.51171875,-272.94921875,1.953125
588.8671875,837.40234375,981.4453125,16.11328125
460.9375,999.51171875,999.51171875,-2.9296875
138.671875,86.42578125,-180.6640625,-43.45703125
-12.20703125,-1000.0,-1000.0,-51.26953125
184.08203125,-823.73046875,-413.0859375,-19.53125
270.99609375,486.81640625,877.9296875,-20.99609375
64.94140625,999.51171875,999.51171875,-49.31640625
-321.2890625,245.60546875,76.171875,-65.91796875
-776.85546875,-969.7265625,-1000.0,-45.41015625
-584.9609375,-1000.0,-684.5703125,-12.20703125
-35.15625,-92.7734375,657.71484375,-5.859375
116.2109375,999.51171875,999.51171875,-32.71484375
-61.5234375,400.87890625,137.20703125,-63.4765625
-175.78125,-927.734375,-1000.0,-64.453125
41.9921875,-1000.0,-869.140625,-32.71484375
381.8359375,-149.4140625,429.6875,-8.7890625
449.21875,999.51171875,999.51171875,-27.34375
154.78515625,305.6640625,150.390625,-67.87109375
-78.125,-980.46875,-1000.0,-74.70703125
67.87109375,-1000.0,-998.53515625,-43.9453125
386.23046875,-187.98828125,198.2421875,-15.13671875
515.13671875,999.51171875,999.51171875,-27.34375
1.46484375,496.09375,224.609375,-76.171875
-535.64453125,-905.2734375,-1000.0,-91.30859375
-250.48828125,-1000.0,-1000.0,-54.6875
249.51171875,4.8828125,47.8515625,-25.390625
429.19921875,999.51171875,999.51171875,-40.52734375
277.34375,849.609375,350.09765625,-58.59375
55.17578125,-408.203125,-930.17578125,-70.80078125
86.9140625,-1000.0,-1000.0,-52.734375
421.875,-277.83203125,-191.89453125,7.8125
667.48046875,999.51171875,999.51171875,-23.4375
-291.9921875,434.08203125,481.4453125,-89.84375
-1000.0,-932.6171875,-867.67578125,-123.53515625
-961.42578125,-1000.0,-1000.0,-119.140625
-993.65234375,-823.2421875,-220.703125,-106.4453125
-1000.0,473.6328125,999.51171875,-101.5625
-1000.0,999.51171875,803.22265625,-111.81640625
-1000.0,-4.39453125,-515.625,-131.34765625
-1000.0,-1000.0,-1000.0,-125.0
-1000.0,-764.16015625,-248.046875,-107.91015625
-1000.0,561.03515625,999.51171875,-78.125
-977.5390625,999.51171875,963.37890625,-77.63671875
-1000.0,193.84765625,-249.51171875,-94.7265625
-860.83984375,-1000.0,-1000.0,-79.58984375
33.69140625,-580.56640625,-353.02734375,-46.875
860.3515625,835.44921875,928.22265625,-45.8984375
964.84375,992.67578125,999.51171875,-68.84765625
946.77734375,999.51171875,-43.9453125,-78.125
968.75,-314.94140625,-1000.0,-73.2421875
965.8203125,-909.66796875,-501.953125,-20.5078125
965.33203125,616.69921875,822.265625,16.6015625
965.33203125,999.51171875,999.51171875,-44.921875
965.33203125,395.5078125,102.5390625,-96.6796875
965.33203125,-911.62109375,-1000.0,-100.5859375
965.33203125,-1000.0,-763.671875,-74.70703125
965.8203125,15.13671875,565.91796875,-55.6640625
965.33203125,999.51171875,999.51171875,-62.01171875
965.33203125,441.89453125,162.109375,-79.58984375
965.33203125,-983.3984375,-1000.0,-88.37890625
965.33203125,-992.1875,-874.0234375,-75.1953125
965.33203125,336.9140625,426.7578125,-70.80078125
965.33203125,999.51171875,999.51171875,-84.47265625
965.8203125,325.1953125,153.80859375,-96.6796875
978.515625,-918.45703125,-1000.0,-95.21484375
909.66796875,-1000.0,-1000.0,-79.1015625
999.51171875,-239.74609375,46.875,-62.5
770.99609375,999.51171875,999.51171875,-69.82421875
-619.62890625,157.71484375,217.7734375,-94.7265625
-1000.0,-1000.0,-998.046875,-85.44921875
-937.5,-1000.0,-1000.0,-61.03515625
-1000.0,-544.43359375,-155.76171875,-48.828125
-1000.0,999.51171875,999.51171875,-47.36328125
-987.3046875,641.11328125,410.64453125,-62.01171875
-988.76953125,-818.84765625,-915.0390625,-62.01171875
-978.515625,-1000.0,-1000.0,-42.96875
-279.296875,-196.2890625,-206.0546875,-23.92578125
669.921875,947.265625,999.51171875,-23.92578125
953.61328125,999.51171875,669.921875,-41.50390625
950.1953125,221.6796875,-685.05859375,-51.26953125
962.40234375,-1000.0,-1000.0,-46.38671875
967.28515625,-308.59375,-218.75,-37.59765625
965.33203125,958.49609375,999.51171875,-34.1796875
965.33203125,999.51171875,855.95703125,-51.7578125
965.33203125,272.4609375,-432.12890625,-67.3828125
965.33203125,-1000.0,-1000.0,-57.12890625
965.33203125,-608.88671875,-282.71484375,-32.2265625
965.33203125,792.48046875,978.515625,-25.390625
965.33203125,999.51171875,999.51171875,-45.41015625
965.8203125,203.125,-180.17578125,-61.03515625
965.8203125,-1000.0,-1000.0,-45.8984375
965.8203125,-540.52734375,-364.2578125,-35.15625
965.33203125,841.796875,910.64453125,-31.25
965.33203125,999.51171875,999.51171875,-28.3203125
965.33203125,212.40234375,54.19921875,-41.015625
965.8203125,-1000.0,-1000.0,-34.1796875
965.33203125,-732.421875,-562.98828125,-20.99609375
965.33203125,648.92578125,783.69140625,-39.0625
965.33203125,999.51171875,999.51171875,-64.94140625
965.33203125,121.09375,88.8671875,-83.984375
965.8203125,-1000.0,-1000.0,-51.7578125
965.33203125,-1000.0,-847.65625,-25.390625
965.33203125,-88.8671875,448.2421875,-43.45703125
965.33203125,999.51171875,999.51171875,-49.8046875
965.33203125,410.64453125,149.4140625,-72.265625
965.33203125,-909.1796875,-1000.0,-77.63671875
965.33203125,-1000.0,-1000.0,-58.10546875
965.33203125,-240.72265625,162.59765625,-46.38671875
964.84375,999.51171875,999.51171875,-59.08203125
968.26171875,591.30859375,201.171875,-81.54296875
949.21875,-803.7109375,-1000.0,-70.3125
951.171875,-1000.0,-1000.0,-49.8046875
963.37890625,-177.24609375,-16.6015625,-43.45703125
966.30859375,999.51171875,999.51171875,-52.24609375
966.30859375,860.83984375,335.9375,-67.87109375
784.1796875,-447.75390625,-945.80078125,-54.6875
781.73828125,-1000.0,-1000.0,-25.87890625
953.61328125,-191.89453125,-171.38671875,-14.16015625
979.00390625,999.51171875,999.51171875,-24.4140625
912.59765625,933.10546875,516.6015625,-44.921875
636.23046875,-304.6875,-833.984375,-52.24609375
591.796875,-1000.0,-1000.0,-43.45703125
838.8671875,-415.0390625,-213.37890625,-31.25
991.2109375,898.92578125,999.51171875,-34.1796875
849.12109375,999.51171875,760.7421875,-59.08203125
476.5625,-78.61328125,-577.63671875,-76.171875
403.3203125,-1000.0,-1000.0,-64.94140625
697.75390625,-187.98828125,-202.63671875,-46.875
875.9765625,993.1640625,999.51171875,-52.734375
722.65625,999.51171875,921.38671875,-67.3828125
403.3203125,71.2890625,-322.265625,-70.80078125
274.4140625,-1000.0,-1000.0,-68.359375
536.1328125,-458.984375,-301.26953125,-52.24609375
779.78515625,877.9296875,961.9140625,-41.015625
661.62109375,999.51171875,999.51171875,-49.8046875
342.28515625,111.328125,-113.76953125,-56.640625
192.3828125,-1000.0,-1000.0,-52.24609375
407.71484375,-950.1953125,-483.88671875,-38.0859375
668.45703125,313.4765625,834.9609375,-29.296875
613.28125,999.51171875,999.51171875,-33.69140625
299.31640625,160.64453125,71.2890625,-44.921875
102.05078125,-1000.0,-1000.0,-49.31640625
284.1796875,-962.40234375,-658.203125,-25.87890625
579.58984375,304.19921875,681.640625,-8.7890625
579.1015625,999.51171875,999.51171875,-25.87890625
234.86328125,194.82421875,154.296875,-35.64453125
-17.08984375,-979.4921875,-1000.0,-29.296875
159.1796875,-1000.0,-927.24609375,-18.5546875
477.5390625,-226.5625,340.8203125,10.25390625
534.1796875,999.51171875,999.51171875,8.7890625
235.83984375,252.9296875,148.4375,-28.3203125
-15.625,-1000.0,-1000.0,-32.2265625
90.33203125,-1000.0,-1000.0,-24.4140625
393.5546875,-250.0,46.875,-20.5078125
497.55859375,999.51171875,999.51171875,-26.85546875
242.67578125,694.3359375,251.953125,-51.7578125
-20.5078125,-681.15234375,-989.2578125,-51.26953125
36.1328125,-1000.0,-1000.0,-22.94921875
333.984375,-217.7734375,-104.00390625,-13.18359375
468.26171875,999.51171875,999.51171875,-19.04296875
237.79296875,741.69921875,386.71875,-42.48046875
-55.17578125,-627.9296875,-927.24609375,-53.22265625
-37.109375,-1000.0,-1000.0,-37.59765625
291.9921875,-185.05859375,-184.5703125,-21.484375
452.1484375,999.51171875,999.51171875,-22.94921875
250.0,997.0703125,607.91015625,-41.50390625
-55.6640625,-212.40234375,-752.9296875,-49.8046875
-95.703125,-1000.0,-1000.0,-39.55078125
229.4921875,-183.10546875,-201.66015625,-5.859375
436.5234375,999.51171875,999.51171875,0.0
265.13671875,999.51171875,802.734375,-24.4140625
-53.22265625,-132.32421875,-510.25390625,-34.66796875
-136.71875,-1000.0,-1000.0,-40.0390625
141.11328125,-654.78515625,-265.13671875,-33.203125
355.95703125,677.24609375,991.2109375,-30.76171875
235.83984375,999.51171875,983.88671875,-55.17578125
-67.3828125,87.890625,-214.84375,-70.3125
-184.08203125,-1000.0,-1000.0,-65.4296875
62.5,-950.1953125,-379.39453125,-61.03515625
316.40625,310.05859375,898.4375,-59.08203125
259.27734375,999.51171875,999.51171875,-71.77734375
-41.015625,147.4609375,66.89453125,-77.1484375
-222.16796875,-1000.0,-1000.0,-62.98828125
-7.32421875,-1000.0,-599.609375,-51.26953125
294.43359375,136.23046875,750.9765625,-52.734375
268.06640625,999.51171875,999.51171875,-67.3828125
-32.71484375,132.8125,103.02734375,-62.5
-199.70703125,-1000.0,-1000.0,-51.26953125
-45.41015625,-1000.0,-830.078125,-54.6875
234.375,-157.2265625,476.5625,-63.96484375
288.57421875,999.51171875,999.51171875,-62.5
-5.37109375,281.73828125,149.4140625,-61.03515625
-221.6796875,-984.375,-1000.0,-41.50390625
-76.171875,-1000.0,-980.46875,-11.71875
234.375,-226.5625,237.79296875,5.859375
311.5234375,999.51171875,999.51171875,7.32421875
33.69140625,476.07421875,182.6171875,-23.4375
-212.40234375,-893.5546875,-1000.0,-27.83203125
-115.72265625,-1000.0,-1000.0,-0.9765625
194.3359375,-221.6796875,-23.4375,13.18359375
314.453125,999.51171875,999.51171875,0.48828125
69.3359375,813.4765625,317.3828125,-23.92578125
-207.03125,-533.69140625,-962.40234375,-38.0859375
-159.66796875,-1000.0,-1000.0,-33.203125
166.50390625,-158.69140625,-125.48828125,-10.25390625
322.265625,999.51171875,999.51171875,-11.23046875
103.02734375,840.33203125,466.30859375,-32.71484375
-195.3125,-449.70703125,-867.67578125,-41.50390625
-186.5234375,-1000.0,-1000.0,-24.90234375
129.39453125,-416.50390625,-220.21484375,0.0
305.17578125,907.71484375,999.51171875,-8.7890625
138.18359375,999.51171875,684.5703125,-43.9453125
-166.50390625,-151.3671875,-669.43359375,-57.6171875
-232.91015625,-1000.0,-1000.0,-40.0390625
65.4296875,-457.03125,-225.5859375,-30.76171875
281.73828125,844.7265625,999.51171875,-41.9921875
152.34375,999.51171875,950.1953125,-56.15234375
-138.671875,199.70703125,-270.01953125,-55.6640625
-244.62890625,-1000.0,-1000.0,-34.66796875
20.5078125,-871.58203125,-324.70703125,-16.6015625
277.83203125,467.7734375,956.0546875,-14.16015625
195.80078125,999.51171875,999.51171875,-34.1796875
-126.46484375,129.8828125,-127.9296875,-58.10546875
-272.4609375,-1000.0,-1000.0,-43.45703125
-81.54296875,-996.58203125,-490.72265625,-13.18359375
164.0625,245.1171875,827.63671875,-14.6484375
140.13671875,999.51171875,999.51171875,-36.62109375
-165.0390625,155.76171875,69.82421875,-52.24609375
-314.453125,-1000.0,-1000.0,-53.7109375
-90.8203125,-1000.0,-680.6640625,-9.765625
196.77734375,65.4296875,656.25,2.9296875
197.75390625,999.51171875,999.51171875,-32.71484375
-77.1484375,431.640625,149.4140625,-50.29296875
-286.1328125,-891.11328125,-1000.0,-42.96875
-126.46484375,-1000.0,-923.828125,-20.99609375
193.359375,-150.390625,345.703125,-6.8359375
243.1640625,999.51171875,999.51171875,-13.671875
-43.9453125,460.9375,163.0859375,-45.8984375
-291.50390625,-947.265625,-1000.0,-49.31640625
-162.109375,-1000.0,-1000.0,-3.41796875
175.29296875,116.2109375,186.03515625,37.109375
261.23046875,999.51171875,999.51171875,21.484375
-33.69140625,420.41015625,205.078125,-40.52734375
-289.55078125,-870.1171875,-992.1875,-67.3828125
-221.6796875,-1000.0,-1000.0,-27.34375
41.9921875,-331.54296875,-156.73828125,7.32421875
183.59375,941.40625,999.51171875,4.8828125
1.953125,999.51171875,449.70703125,-21.484375
-263.671875,-103.515625,-888.18359375,-40.0390625
-253.41796875,-1000.0,-1000.0,-5.859375
63.96484375,-237.3046875,-185.546875,17.08984375
242.67578125,960.9375,999.51171875,-17.08984375
61.5234375,999.51171875,678.7109375,-56.15234375
-248.53515625,170.41015625,-672.36328125,-85.44921875
-279.78515625,-1000.0,-1000.0,-79.58984375
40.0390625,-449.21875,-210.9375,-47.36328125
249.51171875,923.33984375,999.51171875,-42.96875
98.6328125,999.51171875,802.734375,-71.77734375
-231.93359375,-37.109375,-513.671875,-84.9609375
-307.6171875,-1000.0,-1000.0,-73.73046875
11.71875,-683.59375,-258.7890625,-51.26953125
235.3515625,649.4140625,988.76953125,-51.7578125
130.859375,999.51171875,995.60546875,-63.96484375
-152.83203125,162.109375,-191.40625,-65.4296875
-269.53125,-1000.0,-1000.0,-63.4765625
-16.6015625,-968.26171875,-386.71875,-43.9453125
236.81640625,303.22265625,907.71484375,-35.15625
173.828125,999.51171875,999.51171875,-57.12890625
-120.1171875,164.55078125,-8.30078125,-75.1953125
-279.78515625,-1000.0,-1000.0,-74.70703125
-46.875,-933.59375,-543.9453125,-45.8984375
237.3046875,355.95703125,786.62109375,-31.73828125
194.82421875,999.51171875,999.51171875,-50.78125
-107.421875,192.3828125,128.90625,-57.6171875
-306.15234375,-1000.0,-1000.0,-51.7578125
-134.765625,-1000.0,-772.4609375,-33.203125
140.625,233.3984375,564.453125,-14.6484375
-12.6953125,999.51171875,999.51171875,-28.80859375
-403.80859375,172.8515625,148.92578125,-57.12890625
-490.234375,-989.74609375,-1000.0,-55.17578125
-269.04296875,-1000.0,-990.72265625,-30.76171875
82.51953125,-238.76953125,221.6796875,-6.34765625
190.91796875,999.51171875,999.51171875,-17.08984375
-52.734375,541.50390625,179.19921875,-47.36328125
-279.296875,-841.30859375,-1000.0,-56.15234375
-174.31640625,-1000.0,-1000.0,-32.71484375
149.4140625,-184.08203125,24.4140625,-6.8359375
258.7890625,999.51171875,999.51171875,-21.484375
-2.9296875,985.3515625,326.171875,-45.41015625
-477.05078125,-199.21875,-950.1953125,-53.7109375
-928.22265625,-1000.0,-1000.0,-37.59765625
-969.7265625,-459.9609375,-145.5078125,-13.18359375
-937.5,999.51171875,999.51171875,-22.4609375
-996.58203125,766.11328125,458.49609375,-60.05859375
-1000.0,-648.92578125,-877.44140625,-73.73046875
-871.09375,-1000.0,-1000.0,-47.36328125
-462.40234375,-355.46875,-217.28515625,-20.01953125
-217.28515625,910.15625,999.51171875,-24.4140625
-307.12890625,999.51171875,711.9140625,-56.15234375
-472.65625,-24.90234375,-643.06640625,-70.3125
-610.3515625,-1000.0,-1000.0,-53.7109375
-410.64453125,-193.84765625,-204.1015625,-28.3203125
-606.4453125,999.51171875,999.51171875,-27.34375
-1000.0,999.51171875,868.1640625,-55.17578125
-995.60546875,-74.70703125,-407.2265625,-73.73046875
-812.5,-1000.0,-1000.0,-65.4296875
-274.90234375,-709.9609375,-325.1953125,-37.59765625
146.97265625,610.83984375,946.77734375,-33.203125
167.48046875,999.51171875,999.51171875,-55.17578125
-38.57421875,181.15234375,-112.79296875,-60.546875
-119.62890625,-1000.0,-1000.0,-66.89453125
-23.92578125,-794.921875,-456.54296875,4.39453125
235.83984375,570.3125,853.515625,77.63671875
321.77734375,999.51171875,999.51171875,-11.71875
37.59765625,139.16015625,69.82421875,-73.2421875
-79.58984375,-1000.0,-1000.0,-74.21875
27.83203125,-1000.0,-691.40625,-16.11328125
193.84765625,26.3671875,647.4609375,62.5
269.04296875,999.51171875,999.51171875,51.26953125
66.40625,256.34765625,138.671875,-14.16015625
-79.1015625,-1000.0,-1000.0,-37.59765625
122.0703125,-994.62890625,-855.46875,9.765625
452.1484375,259.765625,452.1484375,35.64453125
490.234375,999.51171875,999.51171875,7.8125
213.8671875,597.65625,164.0625,-39.0625
-28.80859375,-708.984375,-1000.0,-62.5
32.71484375,-1000.0,-1000.0,-49.31640625
390.13671875,-232.421875,120.1171875,-33.69140625
157.2265625,999.51171875,999.51171875,-52.24609375
-461.42578125,483.88671875,226.5625,-92.28515625
-650.87890625,-893.5546875,-1000.0,-90.8203125
-538.0859375,-1000.0,-1000.0,-60.546875
-183.10546875,-223.6328125,-72.265625,-46.875
65.4296875,999.51171875,999.51171875,-57.12890625
-71.2890625,791.015625,355.95703125,-73.2421875
-386.71875,-566.89453125,-944.3359375,-88.8671875
-338.8671875,-1000.0,-1000.0,-84.9609375
92.7734375,-128.90625,-154.296875,-63.4765625
330.078125,999.51171875,999.51171875,-65.91796875
182.12890625,990.72265625,566.89453125,-86.9140625
-70.3125,-168.45703125,-783.203125,-79.58984375
-105.46875,-1000.0,-1000.0,-49.31640625
172.36328125,-464.84375,-219.23828125,-24.4140625
341.30859375,873.046875,999.51171875,-19.04296875
130.37109375,999.51171875,782.2265625,-41.50390625
-234.375,-49.31640625,-543.9453125,-62.5
-374.51171875,-1000.0,-1000.0,-49.8046875
-134.27734375,-630.859375,-256.34765625,-11.71875
102.05078125,718.75,999.51171875,-6.34765625
9.765625,999.51171875,967.28515625,-41.9921875
-270.01953125,115.234375,-250.9765625,-66.40625
-374.0234375,-1000.0,-1000.0,-56.640625
-122.0703125,-848.14453125,-353.515625,-25.87890625
125.0,478.02734375,927.734375,-11.23046875
21.484375,999.51171875,999.51171875,-29.296875
-292.96875,169.921875,-47.8515625,-60.05859375
-431.640625,-1000.0,-1000.0,-52.24609375
-166.50390625,-759.27734375,-496.09375,-14.6484375
154.296875,597.16796875,819.3359375,-10.25390625
166.015625,999.51171875,999.51171875,-41.9921875
-29.78515625,697.75390625,140.625,-68.84765625
-190.91796875,-581.0546875,-1000.0,-70.80078125
-56.640625,-1000.0,-820.80078125,-57.12890625
241.2109375,-206.0546875,498.046875,-37.59765625
318.359375,999.51171875,999.51171875,-53.7109375
54.6875,345.21484375,159.66796875,-82.51953125
-152.83203125,-1000.0,-1000.0,-79.58984375
42.96875,-642.578125,-846.19140625,-46.875
346.19140625,741.2109375,461.9140625,-23.4375
383.7890625,999.51171875,999.51171875,-36.62109375
130.37109375,461.9140625,186.5234375,-63.4765625
-111.81640625,-868.1640625,-1000.0,-68.84765625
-120.60546875,-1000.0,-1000.0,-47.8515625
-15.625,-22.94921875,143.06640625,-34.1796875
-30.2734375,999.51171875,999.51171875,-45.8984375
-222.16796875,358.3984375,254.39453125,-69.3359375
-595.21484375,-915.0390625,-972.65625,-70.80078125
-981.4453125,-1000.0,-1000.0,-51.26953125
-1000.0,-509.765625,-162.109375,-32.2265625
-988.28125,972.16796875,999.51171875,-44.921875
-1000.0,790.52734375,462.890625,-82.51953125
-1000.0,-624.0234375,-877.44140625,-89.35546875
-1000.0,-1000.0,-1000.0,-63.4765625
-1000.0,-450.1953125,-210.44921875,-44.43359375
-1000.0,957.03125,999.51171875,-56.15234375
-1000.0,892.08984375,636.71875,-80.078125
-980.95703125,-466.796875,-724.12109375,-74.21875
-1000.0,-1000.0,-1000.0,-39.55078125
-876.953125,-536.1328125,-228.515625,-3.90625
-281.73828125,767.08984375,999.51171875,3.90625
51.26953125,999.51171875,870.1171875,-5.859375
96.19140625,197.75390625,-414.0625,3.90625
379.39453125,-1000.0,-1000.0,20.99609375
784.1796875,-293.9453125,-279.296875,48.33984375
999.51171875,966.30859375,968.26171875,79.1015625
119.140625,999.51171875,999.51171875,74.70703125
-761.23046875,261.71875,-109.375,69.3359375
-103.515625,-1000.0,-1000.0,99.12109375
659.66796875,-600.5859375,-427.734375,129.8828125
974.12109375,796.38671875,877.44140625,108.88671875
948.73046875,999.51171875,999.51171875,-8.30078125
961.9140625,173.33984375,56.640625,-111.81640625
967.28515625,-1000.0,-1000.0,-131.34765625
980.46875,-917.48046875,-628.90625,-77.63671875
900.87890625,360.3515625,714.35546875,66.40625
999.51171875,999.51171875,999.51171875,104.98046875
699.21875,356.93359375,146.97265625,22.4609375
-735.83984375,-926.26953125,-1000.0,-2.44140625
-1000.0,-1000.0,-814.453125,97.16796875
-931.15234375,-56.15234375,507.8125,240.234375
-1000.0,999.51171875,999.51171875,223.6328125
-742.1875,244.62890625,149.4140625,135.25390625
-266.11328125,-998.046875,-1000.0,159.66796875
365.234375,-1000.0,-1000.0,209.9609375
875.0,-133.7890625,129.8828125,272.94921875
999.51171875,999.51171875,999.51171875,307.12890625
802.24609375,759.765625,214.84375,254.39453125
635.25390625,-575.68359375,-1000.0,200.1953125
886.71875,-1000.0,-1000.0,219.23828125
983.88671875,-171.38671875,-65.4296875,293.9453125
955.078125,999.51171875,999.51171875,248.046875
965.8203125,981.93359375,382.32421875,108.88671875
965.8203125,-239.2578125,-926.26953125,82.51953125
967.28515625,-1000.0,-1000.0,115.72265625
954.1015625,-193.359375,-182.12890625,167.96875
979.00390625,999.51171875,999.51171875,178.7109375
905.2734375,951.171875,554.19921875,112.3046875
590.8203125,-276.85546875,-801.7578125,53.7109375
536.1328125,-1000.0,-1000.0,66.40625
804.19921875,-428.7109375,-210.9375,126.46484375
961.9140625,874.0234375,999.51171875,150.390625
660.64453125,999.51171875,797.8515625,104.00390625
62.01171875,28.3203125,-520.99609375,50.29296875
-68.359375,-1000.0,-1000.0,40.0390625
4.39453125,-791.015625,-247.55859375,82.51953125
-42.48046875,547.36328125,999.51171875,111.81640625
47.36328125,999.51171875,957.03125,80.56640625
80.56640625,75.1953125,-266.11328125,31.25
219.23828125,-1000.0,-1000.0,20.01953125
656.25,-707.51953125,-354.4921875,66.40625
952.63671875,640.13671875,920.8984375,108.88671875
961.9140625,999.51171875,999.51171875,89.84375
753.41796875,275.87890625,-9.765625,27.83203125
602.05078125,-1000.0,-1000.0,7.32421875
711.42578125,-437.01171875,-432.12890625,58.59375
878.41796875,917.96875,877.9296875,106.93359375
995.60546875,999.51171875,999.51171875,81.0546875
858.88671875,163.57421875,107.421875,13.18359375
748.53515625,-1000.0,-1000.0,-10.7421875
916.015625,-1000.0,-732.421875,28.80859375
970.703125,77.1484375,604.4921875,79.58984375
969.7265625,999.51171875,999.51171875,75.68359375
931.640625,250.48828125,155.2734375,14.16015625
812.5,-996.58203125,-1000.0,-15.13671875
893.5546875,-1000.0,-907.2265625,21.484375
969.23828125,-17.578125,369.140625,79.1015625
973.6328125,999.51171875,999.51171875,79.58984375
916.015625,655.2734375,177.24609375,13.18359375
704.58984375,-681.15234375,-1000.0,-20.5078125
776.85546875,-1000.0,-1000.0,3.90625
953.61328125,-229.4921875,53.22265625,54.6875
984.86328125,999.51171875,999.51171875,76.171875
877.9296875,561.03515625,260.25390625,24.90234375
587.890625,-824.70703125,-980.46875,-29.296875
608.88671875,-1000.0,-1000.0,-13.18359375
860.3515625,-194.3359375,-138.18359375,43.9453125
992.1875,970.21484375,999.51171875,68.359375
836.9140625,999.51171875,441.89453125,16.11328125
493.65234375,41.9921875,-887.6953125,-39.55078125
456.0546875,-1000.0,-1000.0,-24.4140625
751.46484375,-342.28515625,-208.984375,32.2265625
867.67578125,974.609375,999.51171875,57.12890625
640.625,999.51171875,689.94140625,6.8359375
344.7265625,-128.41796875,-666.015625,-52.734375
300.78125,-1000.0,-1000.0,-42.48046875
599.12109375,-478.02734375,-216.796875,28.3203125
804.6875,875.9765625,999.51171875,58.59375
598.6328125,999.51171875,849.12109375,6.8359375
286.62109375,-78.61328125,-451.171875,-55.6640625
16.6015625,-1000.0,-1000.0,-57.12890625
-33.203125,-403.3203125,-244.62890625,-1.46484375
-114.74609375,909.1796875,987.79296875,29.78515625
-627.9296875,999.51171875,999.51171875,-14.16015625
-904.296875,-51.26953125,-144.53125,-64.453125
-993.65234375,-1000.0,-1000.0,-63.96484375
-997.55859375,-1000.0,-457.51953125,-12.6953125
-999.0234375,-242.67578125,852.5390625,35.15625
-1000.0,999.51171875,999.51171875,9.27734375
-1000.0,171.38671875,43.9453125,-59.5703125
-1000.0,-1000.0,-1000.0,-89.35546875
-1000.0,-1000.0,-662.109375,-39.55078125
-1000.0,-105.95703125,674.31640625,27.83203125
-1000.0,999.51171875,999.51171875,10.7421875
-1000.0,272.4609375,154.78515625,-62.98828125
-1000.0,-978.02734375,-1000.0,-87.890625
-1000.0,-1000.0,-886.71875,-41.50390625
-1000.0,-256.8359375,406.25,12.20703125
-1000.0,999.51171875,999.51171875,6.8359375
-1000.0,463.8671875,152.34375,-51.26953125
-1000.0,-905.2734375,-1000.0,-90.33203125
-1000.0,-1000.0,-1000.0,-61.5234375
-993.65234375,-236.81640625,155.2734375,0.0
-995.1171875,999.51171875,999.51171875,11.71875
-945.3125,659.66796875,205.56640625,-43.9453125
-596.6796875,-758.30078125,-1000.0,-85.9375
238.76953125,-1000.0,-1000.0,-57.12890625
908.69140625,28.3203125,-36.62109375,1.953125
963.37890625,999.51171875,999.51171875,16.6015625
950.1953125,999.51171875,345.21484375,-33.69140625
968.75,4.39453125,-940.91796875,-79.58984375
965.33203125,-1000.0,-1000.0,-60.05859375
965.33203125,-201.171875,-190.91796875,4.39453125
965.33203125,990.234375,999.51171875,28.3203125
965.33203125,999.51171875,587.890625,-29.296875
965.33203125,80.56640625,-776.3671875,-87.890625
965.33203125,-1000.0,-1000.0,-78.61328125
965.33203125,-150.87890625,-188.4765625,-20.5078125
965.33203125,999.51171875,999.51171875,9.27734375
965.33203125,999.51171875,747.0703125,-31.73828125
965.33203125,-16.11328125,-587.890625,-94.23828125
965.8203125,-1000.0,-1000.0,-92.28515625
965.33203125,-478.02734375,-235.83984375,-32.2265625
965.33203125,849.609375,999.51171875,7.8125
965.33203125,999.51171875,931.640625,-20.01953125
965.33203125,174.31640625,-312.5,-78.125
972.16796875,-1000.0,-1000.0,-83.49609375
896.484375,-666.9921875,-325.68359375,-20.99609375
999.51171875,715.33203125,929.6875,31.73828125
303.22265625,999.51171875,999.51171875,12.20703125
-997.55859375,144.04296875,8.30078125,-49.8046875
-1000.0,-1000.0,-1000.0,-70.3125
-437.01171875,-1000.0,-546.38671875,-23.92578125
-237.3046875,43.45703125,796.38671875,21.484375
-1000.0,999.51171875,999.51171875,4.39453125
-1000.0,32.71484375,73.2421875,-62.01171875
-973.14453125,-1000.0,-1000.0,-79.58984375
-1000.0,-1000.0,-756.8359375,-30.76171875
-1000.0,-249.0234375,570.80078125,11.23046875
-1000.0,999.51171875,999.51171875,0.0
-971.19140625,175.29296875,144.53125,-56.15234375
-1000.0,-1000.0,-1000.0,-82.03125
-807.12890625,-1000.0,-931.640625,-41.9921875
189.94140625,-114.74609375,327.1484375,13.671875
910.15625,999.51171875,999.51171875,14.6484375
952.63671875,888.18359375,169.43359375,-35.15625
952.63671875,-413.0859375,-1000.0,-76.66015625
968.26171875,-1000.0,-1000.0,-56.15234375
965.8203125,-24.4140625,91.30859375,-0.48828125
965.33203125,999.51171875,999.51171875,11.71875
965.33203125,785.15625,260.25390625,-46.875
965.33203125,-557.6171875,-991.69921875,-92.28515625
965.33203125,-1000.0,-1000.0,-57.12890625
965.33203125,33.69140625,-42.48046875,10.25390625
965.33203125,999.51171875,999.51171875,20.01953125
965.33203125,983.88671875,457.03125,-40.0390625
965.33203125,-162.109375,-867.1875,-87.40234375
965.8203125,-1000.0,-1000.0,-66.40625
967.28515625,-185.05859375,-192.87109375,-9.27734375
956.54296875,999.51171875,999.51171875,14.16015625
988.76953125,999.51171875,668.9453125,-25.390625
888.18359375,-40.52734375,-686.03515625,-78.61328125
831.0546875,-1000.0,-1000.0,-78.61328125
977.05078125,-208.0078125,-204.58984375,-10.7421875
937.98828125,969.7265625,999.51171875,23.4375
999.51171875,999.51171875,865.234375,-21.484375
782.2265625,172.36328125,-411.62109375,-73.2421875
229.4921875,-1000.0,-1000.0,-82.03125
206.0546875,-1000.0,-307.12890625,-20.5078125
389.16015625,1.46484375,967.28515625,36.1328125
772.94921875,999.51171875,999.51171875,16.11328125
885.25390625,199.70703125,-177.24609375,-54.6875
900.87890625,-1000.0,-1000.0,-91.796875
975.09765625,-751.46484375,-384.765625,-17.578125
902.83203125,621.58203125,902.34375,-117.67578125
999.51171875,999.51171875,999.51171875,-405.76171875
276.3671875,186.5234375,45.41015625,-598.14453125
-640.625,-1000.0,-1000.0,-772.4609375
280.2734375,-750.48828125,-524.90234375,-737.79296875
999.51171875,687.01171875,814.453125,-617.67578125
101.07421875,999.51171875,999.51171875,-577.1484375
-1000.0,-196.2890625,109.375,-471.6796875
-975.09765625,-1000.0,-1000.0,-309.5703125
-978.515625,-1000.0,-813.96484375,-162.59765625
-1000.0,-172.36328125,500.0,-1.46484375
-1000.0,999.51171875,999.51171875,55.17578125
-1000.0,188.4765625,149.4140625,20.5078125
-1000.0,-1000.0,-1000.0,19.04296875
-1000.0,-1000.0,-1000.0,121.58203125
-1000.0,-88.8671875,196.2890625,73.73046875
-1000.0,999.51171875,999.51171875,-384.27734375
-1000.0,161.1328125,166.9921875,-643.5546875
-1000.0,-1000.0,-1000.0,-591.796875
-1000.0,-1000.0,-1000.0,-421.875
-1000.0,-252.9296875,-42.96875,-170.8984375
-997.0703125,999.51171875,999.51171875,-28.3203125
-967.7734375,749.0234375,310.546875,-7.8125
-1000.0,-646.97265625,-963.37890625,-23.4375
-500.0,-1000.0,-1000.0,20.99609375
629.8828125,19.04296875,-156.25,103.02734375
994.140625,993.1640625,999.51171875,141.11328125
936.03515625,999.51171875,612.79296875,107.421875
964.35546875,350.5859375,-738.28125,56.640625
966.796875,-1000.0,-1000.0,61.03515625
965.8203125,-230.46875,-211.42578125,117.67578125
964.35546875,999.51171875,999.51171875,154.296875
902.83203125,999.51171875,738.28125,122.0703125
999.51171875,155.2734375,-604.98046875,62.5
38.57421875,-1000.0,-1000.0,49.31640625
-421.875,-516.6015625,-241.2109375,110.3515625
849.609375,871.58203125,999.51171875,156.25
-285.64453125,999.51171875,932.6171875,113.76953125
-1000.0,29.296875,-311.5234375,45.8984375
-590.8203125,-1000.0,-1000.0,34.66796875
400.390625,-613.28125,-337.40234375,88.37890625
941.89453125,740.72265625,937.01171875,121.09375
950.68359375,999.51171875,999.51171875,94.7265625
955.56640625,175.78125,-76.171875,32.71484375
968.75,-1000.0,-1000.0,10.7421875
965.33203125,-919.43359375,-520.99609375,50.29296875
965.33203125,374.0234375,804.6875,91.796875
965.33203125,999.51171875,999.51171875,77.1484375
965.33203125,235.3515625,90.33203125,12.20703125
965.33203125,-1000.0,-1000.0,-13.671875
965.8203125,-1000.0,-715.8203125,25.390625
965.33203125,220.21484375,623.53515625,84.9609375
965.33203125,999.51171875,999.51171875,86.42578125
965.33203125,247.0703125,145.5078125,23.92578125
965.8203125,-970.21484375,-1000.0,-13.18359375
965.33203125,-1000.0,-922.8515625,10.25390625
965.33203125,-158.69140625,345.703125,57.12890625
965.33203125,999.51171875,999.51171875,60.546875
968.75,480.95703125,161.1328125,-5.37109375
954.1015625,-879.8828125,-1000.0,-44.43359375
953.61328125,-1000.0,-1000.0,-20.01953125
984.86328125,-209.47265625,82.51953125,38.0859375
393.06640625,999.51171875,999.51171875,54.6875
-238.76953125,907.2265625,300.78125,1.953125
-64.94140625,-381.8359375,-962.40234375,-35.15625
470.21484375,-1000.0,-1000.0,-17.08984375
999.51171875,-226.07421875,-112.79296875,37.59765625
194.3359375,999.51171875,999.51171875,49.31640625
-1000.0,314.94140625,363.76953125,-11.71875
-916.50390625,-978.02734375,-937.98828125,-54.6875
-291.9921875,-1000.0,-1000.0,-29.296875
373.53515625,-291.50390625,-220.703125,35.64453125
498.53515625,999.51171875,999.51171875,47.8515625
-342.7734375,599.609375,560.05859375,0.48828125
-1000.0,-790.52734375,-804.6875,-39.0625
-829.58984375,-1000.0,-1000.0,-39.0625
-104.00390625,-263.18359375,-211.9140625,17.08984375
-125.48828125,921.875,999.51171875,45.8984375
-186.5234375,999.51171875,837.40234375,-3.90625
263.18359375,222.65625,-459.47265625,-56.640625
512.6953125,-1000.0,-1000.0,-59.08203125
999.51171875,-612.79296875,-290.52734375,-4.8828125
99.12109375,786.62109375,977.05078125,33.69140625
-750.0,999.51171875,999.0234375,1.953125
-28.80859375,137.6953125,-195.80078125,-60.546875
354.4921875,-1000.0,-1000.0,-93.26171875
793.9453125,-724.12109375,-425.78125,-63.4765625
976.5625,637.20703125,874.51171875,-3.41796875
954.1015625,999.51171875,999.51171875,18.06640625
964.84375,199.70703125,33.69140625,-59.5703125
966.30859375,-1000.0,-1000.0,-149.4140625
965.8203125,-1000.0,-631.34765625,-21.484375
965.33203125,90.33203125,707.51953125,-117.1875
965.33203125,999.51171875,999.51171875,-587.40234375
965.33203125,318.84765625,119.140625,-851.07421875
965.8203125,-948.2421875,-1000.0,-733.88671875
965.33203125,-1000.0,-876.46484375,-438.96484375
965.33203125,-91.30859375,411.1328125,-200.68359375
965.33203125,999.51171875,999.51171875,-90.33203125
965.33203125,999.51171875,159.1796875,-93.75
965.8203125,-38.0859375,-1000.0,-111.328125
966.30859375,-1000.0,-1000.0,-27.34375
961.9140625,-237.3046875,175.78125,-232.421875
969.23828125,999.51171875,999.51171875,-598.6328125
958.984375,425.78125,173.828125,-653.3203125
865.72265625,-924.8046875,-1000.0,-623.53515625
898.4375,-1000.0,-1000.0,-600.09765625
969.23828125,-202.1484375,-62.5,-425.29296875
967.28515625,999.51171875,999.51171875,-187.5
954.58984375,999.51171875,368.65234375,-271.484375
748.046875,-223.6328125,-938.4765625,-304.19921875
754.8828125,-1000.0,-1000.0,-104.98046875
948.2421875,-95.703125,-144.53125,65.4296875
981.93359375,999.51171875,999.51171875,134.765625
898.4375,976.07421875,490.234375,104.98046875
609.375,-214.35546875,-854.98046875,68.84765625
571.77734375,-1000.0,-1000.0,95.21484375
833.984375,-222.65625,-217.28515625,164.55078125
990.234375,990.72265625,999.51171875,186.5234375
852.5390625,999.51171875,697.265625,142.08984375
500.9765625,-72.75390625,-653.3203125,90.33203125
418.45703125,-1000.0,-1000.0,94.23828125
708.984375,-513.671875,-238.76953125,144.04296875
914.55078125,820.3125,999.51171875,173.33984375
763.18359375,999.51171875,954.58984375,142.08984375
415.0390625,136.71875,-270.5078125,76.171875
285.15625,-1000.0,-1000.0,60.546875
538.0859375,-1000.0,-354.98046875,104.98046875
761.23046875,182.6171875,933.59375,133.7890625
658.203125,999.51171875,999.51171875,90.33203125
344.23828125,154.78515625,-93.75,17.578125
190.91796875,-1000.0,-1000.0,1.953125
414.55078125,-961.42578125,-476.07421875,57.12890625
673.828125,279.78515625,833.984375,116.69921875
605.95703125,999.51171875,999.51171875,99.12109375
310.05859375,406.25,120.60546875,36.62109375
113.28125,-885.7421875,-1000.0,12.6953125
276.3671875,-1000.0,-764.16015625,51.7578125
562.98828125,-158.69140625,571.77734375,104.00390625
569.82421875,999.51171875,999.51171875,95.21484375
255.859375,180.17578125,138.18359375,38.57421875
17.578125,-1000.0,-1000.0,11.23046875
157.2265625,-1000.0,-916.9921875,50.78125
477.05078125,43.45703125,356.93359375,102.05078125
543.45703125,999.51171875,999.51171875,83.984375
269.53125,371.58203125,162.59765625,26.85546875
6.8359375,-959.47265625,-1000.0,-3.90625
100.5859375,-1000.0,-1000.0,23.4375
432.6171875,69.3359375,178.22265625,76.66015625
532.71484375,999.51171875,999.51171875,81.54296875
275.390625,557.12890625,229.98046875,25.390625
7.32421875,-774.4140625,-985.83984375,-19.53125
80.078125,-1000.0,-1000.0,8.7890625
403.80859375,-206.54296875,-129.39453125,62.5
531.25,999.51171875,999.51171875,67.87109375
291.50390625,880.37109375,399.4140625,19.53125
-7.8125,-405.2734375,-916.50390625,-20.5078125
9.27734375,-1000.0,-1000.0,-4.39453125
319.3359375,-352.05078125,-216.796875,62.5
494.62890625,947.265625,999.51171875,94.23828125
310.546875,999.51171875,604.4921875,54.19921875
-6.34765625,-183.10546875,-761.23046875,4.39453125
-41.50390625,-1000.0,-1000.0,5.859375
264.6484375,-440.4296875,-225.09765625,51.26953125
462.890625,899.4140625,999.51171875,71.2890625
295.8984375,999.51171875,788.57421875,28.3203125
-15.13671875,-107.421875,-536.1328125,-50.78125
-85.44921875,-1000.0,-1000.0,-76.171875
208.49609375,-415.52734375,-250.48828125,-17.578125
430.17578125,870.60546875,985.3515625,32.71484375
312.5,999.51171875,999.51171875,8.7890625
8.7890625,218.75,-153.3203125,-53.7109375
-122.55859375,-1000.0,-1000.0,-71.77734375
120.60546875,-1000.0,-422.36328125,-20.01953125
380.859375,221.19140625,893.06640625,26.3671875
317.3828125,999.51171875,999.51171875,2.9296875
8.30078125,131.8359375,-35.15625,-53.22265625
-140.625,-1000.0,-1000.0,-65.91796875
64.453125,-1000.0,-630.859375,-20.01953125
343.75,80.56640625,704.1015625,36.62109375
282.71484375,999.51171875,999.51171875,22.94921875
41.50390625,129.8828125,109.375,-49.31640625
-365.234375,-1000.0,-1000.0,-46.875
-949.70703125,-1000.0,-800.78125,-454.1015625
-1000.0,-256.34765625,516.11328125,-908.203125
-978.02734375,999.51171875,999.51171875,-893.06640625
-1000.0,170.41015625,145.5078125,-793.45703125
-1000.0,-1000.0,-1000.0,-561.5234375
-1000.0,-1000.0,-987.79296875,-308.59375
-999.0234375,-256.8359375,222.65625,-123.53515625
-993.65234375,999.51171875,999.51171875,-32.71484375
-999.0234375,603.515625,179.6875,-39.0625
-1000.0,-786.1328125,-1000.0,-41.015625
-1000.0,-1000.0,-1000.0,4.8828125
-1000.0,-217.28515625,-29.296875,43.9453125
-986.328125,999.51171875,999.51171875,54.19921875
-1000.0,781.25,297.8515625,26.85546875
-904.78515625,-576.171875,-966.796875,-41.015625
-355.95703125,-1000.0,-1000.0,-20.99609375
404.296875,-145.99609375,-170.41015625,76.171875
869.62890625,990.72265625,999.51171875,113.76953125
876.46484375,999.51171875,476.07421875,74.70703125
745.60546875,-1.953125,-870.60546875,33.69140625
864.74609375,-1000.0,-1000.0,50.29296875
981.93359375,-163.0859375,-201.66015625,107.421875
959.47265625,977.5390625,999.51171875,127.9296875
964.84375,999.51171875,748.046875,83.0078125
965.8203125,421.38671875,-583.0078125,31.73828125
965.33203125,-1000.0,-1000.0,30.76171875
965.33203125,-479.98046875,-224.12109375,72.75390625
965.33203125,932.6171875,999.51171875,145.99609375
965.33203125,999.51171875,901.3671875,-60.05859375
965.33203125,78.125,-367.67578125,-466.30859375
965.8203125,-1000.0,-1000.0,-456.54296875
965.8203125,-329.1015625,-261.23046875,-437.01171875
965.33203125,944.82421875,977.5390625,-633.30078125
965.33203125,999.51171875,999.51171875,-692.87109375
965.33203125,162.109375,-111.81640625,-666.9921875
965.8203125,-1000.0,-1000.0,-677.734375
966.30859375,-582.51953125,-408.203125,-576.66015625
960.44921875,787.59765625,885.7421875,-280.2734375
976.5625,999.51171875,999.51171875,-93.75
930.17578125,210.44921875,81.0546875,-47.36328125
850.5859375,-1000.0,-1000.0,4.39453125
929.6875,-1000.0,-696.2890625,76.66015625
963.37890625,128.41796875,644.04296875,204.1015625
983.88671875,999.51171875,999.51171875,106.4453125
862.3046875,131.8359375,130.37109375,-269.04296875
635.7421875,-1000.0,-1000.0,-301.26953125
793.45703125,-1000.0,-894.53125,-98.14453125
964.84375,-194.3359375,382.32421875,21.484375
985.3515625,999.51171875,999.51171875,71.2890625
806.15234375,383.30078125,151.3671875,0.9765625
497.0703125,-938.96484375,-1000.0,-339.84375
580.078125,-1000.0,-1000.0,-518.5546875
867.67578125,-247.0703125,99.12109375,-469.7265625
935.05859375,999.51171875,999.51171875,-479.00390625
657.71484375,562.98828125,221.6796875,-489.74609375
380.859375,-822.75390625,-998.046875,-459.9609375
431.15234375,-1000.0,-1000.0,-422.36328125
717.28515625,-213.8671875,-111.328125,-395.99609375
833.984375,999.51171875,999.51171875,-375.9765625
576.171875,826.66015625,381.8359375,-377.44140625
276.85546875,-479.00390625,-929.19921875,-367.67578125
297.8515625,-1000.0,-1000.0,-328.125
582.03125,-445.3125,-204.58984375,-297.8515625
737.79296875,921.38671875,999.51171875,-284.1796875
538.57421875,999.0234375,577.63671875,-288.57421875
227.05078125,-295.8984375,-785.64453125,-235.83984375
198.2421875,-1000.0,-1000.0,-149.4140625
483.88671875,-411.1328125,-222.16796875,-173.828125
667.96875,904.296875,999.51171875,-208.0078125
493.65234375,999.51171875,780.2734375,-219.7265625
172.8515625,-92.7734375,-551.26953125,-221.6796875
87.890625,-1000.0,-1000.0,-202.63671875
375.48828125,-169.921875,-212.890625,-183.59375
591.796875,983.3984375,999.51171875,-173.828125
453.125,999.51171875,967.7734375,-166.9921875
138.671875,187.5,-225.09765625,-159.1796875
0.9765625,-1000.0,-1000.0,-156.25
250.0,-817.3828125,-372.55859375,-117.67578125
515.13671875,529.296875,914.0625,13.18359375
452.1484375,999.51171875,999.51171875,126.46484375
131.8359375,173.33984375,-10.7421875,174.31640625
-40.52734375,-1000.0,-1000.0,230.95703125
182.6171875,-842.28515625,-545.41015625,302.24609375
466.796875,481.93359375,782.2265625,356.4453125
431.640625,999.51171875,999.51171875,361.328125
109.375,286.62109375,146.97265625,306.640625
-91.796875,-993.65234375,-1000.0,291.9921875
86.42578125,-1000.0,-773.4375,306.15234375
375.9765625,157.71484375,564.94140625,181.640625
372.0703125,999.51171875,999.51171875,35.64453125
71.2890625,190.91796875,142.578125,-72.265625
-135.25390625,-986.328125,-1000.0,-176.7578125
10.7421875,-1000.0,-1000.0,-6.34765625
302.24609375,-259.765625,184.5703125,26.3671875
368.1640625,999.51171875,999.51171875,-74.21875
110.83984375,556.640625,173.828125,31.73828125
-138.18359375,-827.1484375,-1000.0,83.984375
-52.24609375,-1000.0,-1000.0,164.55078125
262.6953125,-231.93359375,10.25390625,265.13671875
372.0703125,999.51171875,999.51171875,288.57421875
125.0,636.71875,281.25,241.2109375
-155.76171875,-747.0703125,-970.703125,201.171875
-118.1640625,-1000.0,-1000.0,208.984375
194.82421875,-224.609375,-173.828125,265.13671875
345.21484375,999.51171875,999.51171875,290.52734375
135.7421875,937.01171875,486.328125,235.83984375
-153.80859375,-344.23828125,-865.72265625,162.59765625
-148.4375,-1000.0,-1000.0,145.5078125
174.31640625,-176.7578125,-190.91796875,187.01171875
354.00390625,999.51171875,999.51171875,189.94140625
164.0625,967.28515625,669.43359375,133.7890625
-132.8125,-231.93359375,-681.15234375,78.125
-174.31640625,-1000.0,-1000.0,79.1015625
114.74609375,-513.671875,-229.00390625,142.08984375
323.73046875,812.01171875,999.51171875,182.12890625
186.03515625,999.51171875,894.53125,146.97265625
-109.375,101.5625,-375.48828125,94.23828125
-210.9375,-1000.0,-1000.0,78.61328125
60.05859375,-683.10546875,-291.50390625,113.28125
300.29296875,676.7578125,952.1484375,131.34765625
206.0546875,999.51171875,999.51171875,74.21875
-94.7265625,180.17578125,-48.828125,-17.08984375
-244.62890625,-1000.0,-1000.0,-54.19921875
-11.23046875,-1000.0,-473.14453125,-21.484375
267.578125,105.95703125,852.5390625,-12.20703125
226.5625,999.51171875,999.51171875,-27.34375
-74.21875,144.53125,45.41015625,-26.85546875
-239.74609375,-1000.0,-1000.0,0.0
-48.828125,-1000.0,-648.4375,58.10546875
232.91015625,90.8203125,687.5,125.0
240.234375,999.51171875,999.51171875,131.8359375
-60.05859375,236.328125,148.4375,70.80078125
-265.625,-992.1875,-1000.0,39.0625
-100.5859375,-1000.0,-874.51171875,72.265625
200.68359375,-84.9609375,420.41015625,126.953125
245.1171875,999.51171875,999.51171875,132.8125
-34.1796875,598.14453125,164.55078125,63.96484375
-274.4140625,-763.671875,-1000.0,19.04296875
-151.85546875,-1000.0,-1000.0,56.15234375
173.33984375,-172.8515625,155.2734375,118.65234375
266.11328125,999.51171875,999.51171875,121.09375
10.7421875,839.84375,262.20703125,63.4765625
-264.6484375,-480.46875,-980.46875,19.53125
-192.3828125,-1000.0,-1000.0,35.15625
137.20703125,-224.12109375,-77.1484375,98.6328125
267.578125,999.51171875,999.51171875,118.1640625
27.34375,604.4921875,345.703125,55.6640625
-239.74609375,-780.2734375,-944.3359375,2.9296875
-216.30859375,-1000.0,-1000.0,10.7421875
87.40234375,-229.00390625,-195.80078125,56.15234375
263.18359375,960.44921875,999.51171875,83.984375
85.9375,999.51171875,635.7421875,42.48046875
-214.35546875,19.53125,-721.6796875,-17.578125
-251.46484375,-1000.0,-1000.0,-14.6484375
57.6171875,-440.4296875,-199.70703125,42.48046875
258.30078125,873.046875,999.51171875,74.21875
125.9765625,999.51171875,873.046875,40.52734375
-180.17578125,202.63671875,-404.296875,-20.01953125
-268.06640625,-1000.0,-1000.0,-32.2265625
21.97265625,-723.14453125,-260.25390625,25.390625
255.37109375,663.57421875,999.51171875,62.5
139.6484375,999.51171875,967.7734375,32.2265625
-154.78515625,150.390625,-250.9765625,-20.5078125
-256.34765625,-1000.0,-1000.0,-33.69140625
-0.48828125,-686.5234375,-336.42578125,13.671875
247.55859375,690.4296875,923.828125,54.6875
166.015625,999.51171875,999.51171875,21.484375
-143.06640625,156.73828125,31.25,-45.41015625
-301.7578125,-1000.0,-1000.0,-65.91796875
-58.10546875,-1000.0,-555.6640625,-17.578125
218.26171875,214.84375,785.15625,34.66796875
183.59375,999.51171875,999.51171875,19.53125
-115.72265625,133.30078125,102.05078125,-40.52734375
-310.05859375,-1000.0,-1000.0,-66.89453125
-123.53515625,-1000.0,-805.6640625,-32.2265625
183.10546875,-97.16796875,508.7890625,13.18359375
212.40234375,999.51171875,999.51171875,11.23046875
-83.984375,374.0234375,151.85546875,-40.0390625
-297.8515625,-979.00390625,-1000.0,-74.70703125
-134.765625,-1000.0,-948.2421875,-41.015625
171.38671875,94.23828125,305.17578125,20.01953125
228.515625,999.51171875,999.51171875,22.94921875
-50.78125,345.21484375,166.015625,-35.15625
-304.6875,-924.31640625,-1000.0,-76.171875
-192.3828125,-1000.0,-1000.0,-52.734375
141.11328125,-229.98046875,38.57421875,5.859375
241.2109375,999.51171875,999.51171875,30.76171875
2.9296875,808.10546875,284.66796875,-15.625
-264.6484375,-534.66796875,-971.19140625,-67.3828125
-216.30859375,-1000.0,-1000.0,-52.24609375
107.91015625,-163.57421875,-136.23046875,4.39453125
247.55859375,976.5625,999.51171875,25.87890625
44.921875,999.51171875,534.66796875,-20.99609375
-247.55859375,83.984375,-812.01171875,-74.21875
-252.9296875,-1000.0,-1000.0,-74.70703125
64.453125,-419.43359375,-211.42578125,-20.5078125
254.8828125,961.9140625,999.51171875,9.765625
79.1015625,999.51171875,660.15625,-39.0625
-231.93359375,-223.14453125,-696.77734375,-84.9609375
-277.34375,-1000.0,-1000.0,-69.3359375
38.0859375,-476.07421875,-223.14453125,-10.25390625
259.765625,857.421875,999.51171875,23.4375
111.81640625,999.51171875,875.0,-10.25390625
-195.3125,-0.9765625,-411.62109375,-73.73046875
-297.36328125,-1000.0,-1000.0,-83.0078125
-5.859375,-293.45703125,-246.09375,-22.4609375
233.88671875,960.9375,995.1171875,15.625
113.76953125,999.51171875,995.60546875,-12.6953125
-178.22265625,60.05859375,-180.17578125,-68.359375
-302.24609375,-1000.0,-1000.0,-81.54296875
-48.33984375,-802.734375,-430.6640625,-32.2265625
229.4921875,518.06640625,871.09375,19.53125
168.45703125,999.51171875,999.51171875,12.20703125
-140.625,147.4609375,34.66796875,-45.41015625
-307.6171875,-1000.0,-1000.0,-74.70703125
-99.609375,-1000.0,-680.17578125,-25.87890625
199.21875,145.5078125,654.78515625,26.3671875
199.21875,999.51171875,999.51171875,6.8359375
-111.81640625,143.06640625,125.0,-58.59375
-315.91796875,-1000.0,-1000.0,-83.984375
-136.23046875,-1000.0,-863.28125,-43.9453125
171.875,-4.39453125,435.05859375,8.30078125
204.1015625,999.51171875,999.51171875,2.9296875
-79.58984375,382.8125,154.296875,-61.03515625
-303.7109375,-954.1015625,-1000.0,-91.30859375
-173.828125,-1000.0,-999.0234375,-49.31640625
146.97265625,86.42578125,200.1953125,9.27734375
221.6796875,999.51171875,999.51171875,9.765625
-38.0859375,961.42578125,241.69921875,-47.36328125
-282.2265625,-186.03515625,-984.375,-89.35546875
-213.37890625,-1000.0,-1000.0,-71.2890625
104.4921875,-230.46875,-87.40234375,-10.25390625
237.3046875,999.51171875,999.51171875,11.71875
5.859375,712.40234375,341.796875,-40.0390625
-272.4609375,-655.76171875,-948.73046875,-83.984375
-231.4453125,-1000.0,-1000.0,-58.10546875
83.49609375,-253.90625,-189.94140625,-7.32421875
231.4453125,986.328125,999.51171875,11.23046875
46.38671875,999.51171875,559.5703125,-33.203125
-252.44140625,-201.66015625,-800.78125,-92.7734375
-275.390625,-1000.0,-1000.0,-82.03125
62.5,-156.73828125,-192.3828125,-22.4609375
239.2578125,989.74609375,999.51171875,9.765625
55.6640625,999.51171875,789.0625,-26.85546875
-227.5390625,96.6796875,-525.87890625,-88.8671875
-290.52734375,-1000.0,-1000.0,-89.35546875
9.27734375,-575.1953125,-249.51171875,-22.94921875
250.0,795.8984375,999.51171875,24.4140625
146.484375,999.51171875,938.96484375,-9.27734375
-167.48046875,108.88671875,-301.26953125,-70.80078125
-291.50390625,-1000.0,-1000.0,-77.63671875
-20.01953125,-795.8984375,-356.4453125,-23.92578125
231.4453125,547.36328125,924.8046875,20.5078125
153.3203125,999.51171875,999.51171875,0.48828125
-159.66796875,185.05859375,-54.19921875,-59.5703125
-316.40625,-1000.0,-1000.0,-80.078125
-57.6171875,-525.390625,-447.265625,-29.78515625
233.88671875,850.5859375,860.83984375,20.01953125
171.875,999.51171875,999.51171875,-0.9765625
-133.30078125,187.98828125,124.51171875,-67.87109375
-316.40625,-1000.0,-1000.0,-91.796875
-126.953125,-1000.0,-735.83984375,-47.36328125
168.9453125,-4.39453125,604.98046875,-2.44140625
179.19921875,999.51171875,999.51171875,-14.6484375
-98.6328125,442.3828125,151.85546875,-65.91796875
-326.171875,-882.32421875,-1000.0,-96.19140625
-192.87109375,-1000.0,-952.1484375,-64.453125
136.23046875,-218.26171875,296.38671875,-6.34765625
204.1015625,999.51171875,999.51171875,8.30078125
-65.4296875,495.60546875,171.875,-41.9921875
-318.84765625,-882.8125,-1000.0,-89.84375
-216.796875,-1000.0,-1000.0,-62.5
107.421875,-241.2109375,78.61328125,4.39453125
220.703125,999.51171875,999.51171875,25.390625
-29.296875,462.40234375,235.3515625,-31.73828125
-293.45703125,-923.828125,-999.0234375,-83.984375
-212.890625,-1000.0,-1000.0,-59.08203125
106.4453125,-83.0078125,-75.1953125,-3.90625
237.79296875,999.51171875,999.51171875,12.6953125
25.390625,768.5546875,402.34375,-30.76171875
-256.8359375,-539.55078125,-906.73828125,-79.58984375
-246.09375,-1000.0,-1000.0,-63.96484375
67.87109375,-304.19921875,-210.44921875,-16.11328125
250.48828125,999.51171875,999.51171875,50.29296875
51.26953125,792.96875,608.88671875,-211.9140625
-263.18359375,-562.5,-755.859375,-517.08984375
-265.13671875,-1000.0,-1000.0,-396.484375
49.31640625,-362.3046875,-209.9609375,-214.84375
253.41796875,882.8125,999.51171875,-93.26171875
107.91015625,999.51171875,875.48828125,-81.0546875
-201.66015625,174.31640625,-399.4140625,-122.55859375
-294.43359375,-1000.0,-1000.0,-106.93359375
-10.25390625,-691.40625,-282.71484375,-34.1796875
226.5625,686.5234375,968.26171875,18.06640625
116.2109375,999.51171875,999.51171875,-5.37109375
-182.6171875,183.10546875,-119.140625,-53.22265625
-315.4296875,-1000.0,-1000.0,-52.24609375
-62.98828125,-782.71484375,-413.0859375,1.953125
223.14453125,562.98828125,884.765625,56.15234375
163.57421875,999.51171875,999.51171875,36.1328125
-140.625,331.54296875,73.73046875,-25.390625
-311.03515625,-947.265625,-1000.0,-50.29296875
-113.76953125,-1000.0,-629.39453125,-10.25390625
179.19921875,37.109375,716.796875,51.7578125
171.875,999.51171875,999.51171875,46.875
-135.25390625,189.453125,130.37109375,-16.11328125
-324.21875,-1000.0,-1000.0,-39.55078125
-139.6484375,-1000.0,-853.515625,-3.41796875
167.96875,-119.140625,447.75390625,48.828125
208.49609375,999.51171875,999.51171875,48.828125
-83.984375,498.046875,163.57421875,-23.4375
-316.89453125,-962.40234375,-1000.0,-66.40625
-158.69140625,-1000.0,-937.98828125,-24.90234375
166.015625,319.3359375,319.3359375,30.76171875
219.23828125,999.51171875,999.51171875,11.71875
-56.640625,331.0546875,183.59375,-61.03515625
-280.76171875,-917.48046875,-1000.0,-86.9140625
-191.89453125,-1000.0,-1000.0,-90.8203125
102.5390625,-241.69921875,-56.15234375,-77.1484375
244.62890625,999.51171875,999.51171875,-57.12890625
10.7421875,675.29296875,335.44921875,-108.3984375
-272.94921875,-703.125,-950.68359375,-169.43359375
-237.3046875,-1000.0,-1000.0,-155.2734375
83.984375,-208.984375,-168.45703125,-103.515625
255.37109375,999.51171875,999.51171875,-91.30859375
45.41015625,941.40625,553.22265625,-140.13671875
-261.71875,-297.36328125,-800.29296875,-270.01953125
-282.2265625,-1000.0,-1000.0,-359.86328125
31.25,-452.63671875,-216.30859375,-281.25
225.5859375,907.2265625,999.51171875,-305.17578125
52.24609375,999.51171875,713.37890625,-552.24609375
-250.9765625,-216.30859375,-631.8359375,-669.43359375
-308.10546875,-1000.0,-1000.0,-594.23828125
5.37109375,-440.91796875,-232.91015625,-334.47265625
253.41796875,851.5625,999.51171875,-230.95703125
112.3046875,999.51171875,952.1484375,-400.390625
-208.0078125,199.21875,-270.99609375,-345.21484375
-305.17578125,-1000.0,-1000.0,-264.6484375
-39.0625,-746.09375,-314.94140625,-366.69921875
205.078125,632.8125,949.70703125,-516.6015625
125.48828125,999.51171875,999.51171875,-604.00390625
-183.10546875,131.8359375,-65.91796875,-590.8203125
-324.70703125,-1000.0,-1000.0,-545.41015625
-74.21875,-987.3046875,-491.2109375,-493.1640625
195.80078125,231.4453125,827.1484375,-454.1015625
150.390625,999.51171875,999.51171875,-433.59375
-132.32421875,437.5,111.328125,-416.015625
-328.125,-1000.0,-1000.0,-398.4375
-121.09375,-602.5390625,-605.46875,-344.7265625
203.125,844.7265625,747.55859375,-275.87890625
177.24609375,999.51171875,999.51171875,-273.92578125
-123.046875,146.484375,143.5546875,-291.9921875
-322.265625,-1000.0,-1000.0,-279.78515625
-165.0390625,-1000.0,-942.87109375,-272.94921875
150.87890625,-129.8828125,311.03515625,-260.25390625
212.890625,999.51171875,999.51171875,-253.41796875
-60.05859375,417.48046875,154.78515625,-268.5546875
-293.9453125,-913.0859375,-1000.0,-196.77734375
-190.4296875,-1000.0,-1000.0,-40.52734375
115.234375,-201.171875,45.41015625,-47.8515625
217.7734375,999.51171875,999.51171875,-116.2109375
-21.484375,896.97265625,287.59765625,-198.73046875
-299.31640625,-397.4609375,-969.7265625,-265.625
-248.53515625,-1000.0,-1000.0,-226.5625
85.9375,-193.359375,-130.859375,-205.078125
224.609375,999.51171875,999.51171875,-210.9375
6.8359375,931.15234375,395.99609375,-217.28515625
-266.11328125,-333.0078125,-919.43359375,-208.0078125
-266.6015625,-1000.0,-1000.0,-196.2890625
51.7578125,-180.17578125,-204.1015625,-175.78125
233.3984375,960.44921875,999.51171875,-156.25
56.15234375,999.51171875,668.9453125,-155.2734375
-232.421875,231.4453125,-682.6171875,-150.390625
-281.73828125,-1000.0,-1000.0,-145.01953125
21.484375,-496.09375,-215.33203125,-61.5234375
225.09765625,894.04296875,999.51171875,72.75390625
81.0546875,999.51171875,869.140625,117.1875
-218.75,42.96875,-418.45703125,117.1875
-302.734375,-1000.0,-1000.0,165.52734375
-13.671875,-502.9296875,-259.765625,265.625
213.8671875,842.7734375,983.3984375,322.265625
112.3046875,999.51171875,999.51171875,301.26953125
-195.3125,204.58984375,-154.296875,242.1875
-330.56640625,-1000.0,-1000.0,221.6796875
-54.6875,-355.95703125,-326.171875,265.625
212.40234375,944.82421875,936.03515625,310.05859375
133.30078125,999.51171875,999.51171875,284.66796875
-172.36328125,166.50390625,34.1796875,221.19140625
-331.0546875,-1000.0,-1000.0,197.75390625
-104.98046875,-1000.0,-599.609375,238.76953125
195.80078125,44.921875,737.79296875,278.80859375
193.359375,999.51171875,999.51171875,267.08984375
-114.74609375,171.875,136.71875,207.03125
-313.4765625,-1000.0,-1000.0,168.9453125
-135.7421875,-1000.0,-845.703125,199.21875
160.15625,-134.765625,461.9140625,223.14453125
190.4296875,999.51171875,999.51171875,171.875
-97.65625,373.046875,151.3671875,90.8203125
-321.77734375,-936.5234375,-1000.0,66.89453125
-180.17578125,-1000.0,-1000.0,113.28125
135.7421875,-247.55859375,158.69140625,171.875
225.5859375,999.51171875,999.51171875,169.921875
-36.62109375,485.83984375,187.01171875,97.65625
-289.0625,-892.08984375,-1000.0,39.0625
-194.3359375,-1000.0,-1000.0,46.38671875
116.2109375,-178.22265625,-38.0859375,90.33203125
229.4921875,975.5859375,999.51171875,98.14453125
7.32421875,999.51171875,332.03125,33.203125
-273.4375,52.24609375,-948.73046875,-27.34375
-248.53515625,-1000.0,-1000.0,-4.39453125
83.49609375,-295.8984375,-179.6875,68.84765625
241.2109375,999.51171875,999.51171875,97.65625
20.01953125,716.796875,459.47265625,38.0859375
-270.5078125,-652.34375,-880.859375,-18.06640625
-249.0234375,-1000.0,-1000.0,-0.9765625
74.21875,-322.75390625,-218.26171875,50.29296875
252.44140625,929.6875,999.51171875,67.87109375
79.58984375,999.51171875,744.62890625,1.46484375
-228.02734375,-46.875,-599.12109375,-76.66015625
-288.57421875,-1000.0,-1000.0,-67.3828125
29.78515625,-204.58984375,-205.078125,-11.71875
244.140625,973.14453125,999.51171875,17.578125
106.93359375,999.51171875,941.40625,-14.6484375
-196.2890625,189.94140625,-280.76171875,-65.91796875
-307.6171875,-1000.0,-1000.0,-65.4296875
-30.76171875,-892.08984375,-315.4296875,-11.23046875
240.234375,435.546875,955.078125,25.390625
143.06640625,999.51171875,999.51171875,-2.44140625
-172.36328125,109.86328125,-100.5859375,-55.6640625
-308.10546875,-1000.0,-1000.0,-69.82421875
-75.68359375,-911.62109375,-468.26171875,-20.99609375
210.44921875,380.859375,841.796875,17.578125
173.828125,999.51171875,999.51171875,-20.01953125
-143.06640625,144.04296875,104.4921875,-81.0546875
-322.75390625,-1000.0,-1000.0,-93.75
-112.79296875,-1000.0,-741.69921875,-48.33984375
186.03515625,102.5390625,598.6328125,-3.90625
183.59375,999.51171875,999.51171875,-23.92578125
-119.62890625,190.4296875,136.23046875,-83.984375
103.515625,-1000.0,-1000.0,-18.5546875
247.0703125,-1000.0,-924.8046875,-9.27734375
18.06640625,-163.0859375,339.84375,-65.4296875
-282.71484375,999.51171875,999.51171875,-108.88671875
-247.0703125,399.90234375,157.71484375,-75.68359375
92.7734375,-932.6171875,-1000.0,-15.13671875
249.0234375,-1000.0,-1000.0,-3.41796875
47.36328125,-187.98828125,109.86328125,-43.9453125
-242.1875,999.51171875,999.51171875,-92.28515625
-272.94921875,650.390625,231.93359375,-80.078125
32.71484375,-721.6796875,-991.69921875,-11.23046875
239.74609375,-1000.0,-1000.0,19.04296875
91.796875,-213.37890625,850.5859375,-11.23046875
-217.28515625,999.51171875,-445.80078125,-60.05859375
-308.59375,799.31640625,-1000.0,-58.10546875
3.41796875,-549.8046875,-218.26171875,-6.34765625
231.93359375,-1000.0,984.86328125,13.671875
114.74609375,-171.38671875,999.51171875,-20.99609375
-178.22265625,999.51171875,-67.3828125,-74.70703125
-317.87109375,944.3359375,-1000.0,-78.125
-50.78125,-287.59765625,-383.30078125,-9.765625
225.09765625,-1000.0,915.0390625,42.96875
151.3671875,-368.65234375,999.51171875,3.41796875
-163.57421875,892.08984375,24.4140625,-63.96484375
-312.98828125,999.51171875,-1000.0,-72.265625
-85.44921875,139.16015625,-559.08203125,-28.80859375
184.5703125,-1000.0,777.83203125,1.46484375
154.296875,-273.92578125,999.51171875,-16.6015625
-142.08984375,968.26171875,124.51171875,-59.08203125
-323.2421875,999.51171875,-1000.0,-73.73046875
-142.578125,198.73046875,-798.33984375,-43.9453125
154.296875,-1000.0,523.4375,-15.625
180.6640625,-913.57421875,999.51171875,-28.80859375
-119.140625,395.01953125,149.4140625,-90.8203125
-334.47265625,999.51171875,-1000.0,-124.51171875
-176.7578125,152.34375,-977.5390625,-87.890625
135.7421875,-1000.0,247.0703125,-37.59765625
202.1484375,-1000.0,999.51171875,-34.1796875
-78.125,209.47265625,187.01171875,-92.28515625
-330.56640625,999.51171875,-1000.0,-133.30078125
-217.28515625,141.6015625,-1000.0,-96.6796875
107.421875,-1000.0,68.359375,-48.33984375
203.125,-1000.0,999.51171875,-54.19921875
-45.41015625,19.53125,292.48046875,-110.83984375
-320.3125,999.51171875,-963.8671875,-152.83203125
-262.20703125,160.64453125,-1000.0,-126.953125
68.84765625,-1000.0,-136.71875,-58.59375
214.35546875,-1000.0,999.51171875,-28.80859375
17.08984375,-215.8203125,491.2109375,-65.4296875
-272.94921875,999.51171875,-849.609375,-99.609375
-285.15625,463.37890625,-1000.0,-91.30859375
36.1328125,-924.31640625,-212.40234375,-33.203125
219.23828125,-1000.0,999.51171875,0.0
33.203125,-39.0625,764.16015625,-45.41015625
-252.9296875,999.51171875,-568.359375,-107.421875
-302.24609375,592.7734375,-1000.0,-116.2109375
-2.44140625,-756.34765625,-219.7265625,-79.1015625
213.37890625,-1000.0,999.51171875,-51.7578125
74.21875,-191.40625,912.59765625,-72.265625
-227.05078125,999.51171875,-343.75,-114.74609375
-316.40625,974.609375,-1000.0,-111.328125
-32.71484375,-227.05078125,-283.203125,-53.22265625
211.9140625,-1000.0,967.28515625,-15.625
114.2578125,-382.8125,999.51171875,-37.109375
-195.3125,881.8359375,-103.02734375,-83.984375
-337.890625,999.51171875,-1000.0,-96.6796875
-78.125,204.58984375,-448.73046875,-54.19921875
218.26171875,-1000.0,863.76953125,-5.37109375
155.76171875,-517.578125,999.51171875,-17.08984375
-160.15625,864.74609375,45.41015625,-76.171875
-319.82421875,999.51171875,-1000.0,-89.84375
-101.5625,156.73828125,-694.3359375,-33.69140625
198.73046875,-1000.0,637.6953125,26.3671875
200.1953125,-520.01953125,999.51171875,12.20703125
-106.4453125,850.5859375,147.94921875,-54.6875
-310.05859375,999.51171875,-1000.0,-77.1484375
-143.5546875,183.10546875,-849.12109375,-34.1796875
170.8984375,-1000.0,461.9140625,26.85546875
215.8203125,-878.41796875,999.51171875,18.5546875
-90.33203125,450.68359375,147.94921875,-54.6875
-331.54296875,999.51171875,-1000.0,-88.37890625
-205.56640625,137.20703125,-1000.0,-51.7578125
120.60546875,-1000.0,103.02734375,6.34765625
218.75,-1000.0,999.51171875,14.16015625
-60.546875,10.25390625,210.44921875,-43.45703125
-312.98828125,999.51171875,-999.51171875,-85.9375
-220.21484375,248.046875,-1000.0,-53.7109375
106.93359375,-1000.0,-128.90625,13.18359375
250.0,-1000.0,999.51171875,29.78515625
21.97265625,174.31640625,422.36328125,-28.80859375
-265.13671875,999.51171875,-902.34375,-80.078125
-250.9765625,245.60546875,-1000.0,-61.5234375
62.98828125,-962.890625,-201.171875,-12.6953125
238.76953125,-1000.0,999.51171875,2.44140625
44.921875,-253.90625,588.37890625,-38.57421875
-258.30078125,999.51171875,-774.4140625,-79.1015625
-278.80859375,570.3125,-1000.0,-68.84765625
40.52734375,-817.87109375,-213.37890625,-12.20703125
240.234375,-1000.0,999.51171875,16.11328125
77.1484375,-183.59375,794.43359375,-24.4140625
-233.88671875,993.65234375,-527.83203125,-76.171875
-306.640625,999.51171875,-1000.0,-73.2421875
3.41796875,-86.9140625,-233.88671875,-20.5078125
238.28125,-1000.0,999.51171875,16.6015625
112.79296875,-364.74609375,966.30859375,-16.11328125
-197.265625,963.37890625,-238.28125,-75.68359375
-309.5703125,999.51171875,-1000.0,-77.63671875
-38.57421875,-197.75390625,-358.88671875,-23.4375
224.12109375,-1000.0,921.875,15.625
148.92578125,-403.80859375,999.51171875,-12.20703125
-175.78125,900.87890625,-22.4609375,-72.75390625
-331.0546875,999.51171875,-1000.0,-81.54296875
-93.75,1.46484375,-568.359375,-24.90234375
202.63671875,-1000.0,765.13671875,22.4609375
170.41015625,-453.125,999.51171875,0.0
-151.85546875,866.69921875,106.4453125,-60.05859375
-331.0546875,999.51171875,-1000.0,-74.21875
-125.0,186.5234375,-731.4453125,-34.66796875
178.22265625,-1000.0,607.91015625,6.34765625
188.96484375,-814.94140625,999.51171875,-8.30078125
-104.00390625,537.59765625,153.80859375,-66.89453125
-328.61328125,999.51171875,-1000.0,-90.33203125
-182.12890625,151.85546875,-979.4921875,-59.5703125
137.20703125,-1000.0,244.140625,-14.6484375
212.40234375,-1000.0,999.51171875,-8.7890625
-43.45703125,239.2578125,191.89453125,-51.26953125
-286.1328125,999.51171875,-1000.0,-85.9375
-208.984375,157.2265625,-1000.0,-64.94140625
105.46875,-1000.0,-36.1328125,-8.30078125
230.46875,-985.3515625,999.51171875,-4.39453125
-16.6015625,238.28125,272.94921875,-53.7109375
-303.7109375,999.51171875,-984.86328125,-285.64453125
-252.44140625,437.5,-1000.0,-534.1796875
69.82421875,-866.69921875,-131.34765625,-558.10546875
218.26171875,-1000.0,999.51171875,-540.0390625
21.484375,-168.9453125,509.765625,-528.3203125
-264.6484375,999.51171875,-839.35546875,-500.48828125
-269.53125,891.11328125,-1000.0,-462.890625
41.9921875,-393.5546875,-186.03515625,-418.9453125
222.65625,-1000.0,999.51171875,-393.5546875
53.7109375,-235.3515625,646.484375,-377.9296875
-233.3984375,999.51171875,-706.54296875,-340.33203125
-279.296875,570.3125,-1000.0,-308.59375
8.7890625,-815.4296875,-215.8203125,-301.26953125
227.05078125,-1000.0,999.51171875,-309.08203125
104.4921875,-245.1171875,926.7578125,-312.98828125
-208.984375,999.51171875,-318.359375,-294.43359375
-329.58984375,959.9609375,-1000.0,-262.6953125
-43.45703125,-304.19921875,-288.0859375,-170.8984375
220.703125,-1000.0,956.54296875,-48.828125
132.8125,-234.86328125,999.51171875,49.31640625
-170.41015625,999.51171875,-53.7109375,85.9375
-311.03515625,972.65625,-1000.0,88.37890625
-64.453125,-249.0234375,-444.82421875,182.6171875
216.30859375,-1000.0,870.1171875,290.52734375
164.0625,-388.18359375,999.51171875,297.8515625
-143.06640625,878.41796875,59.08203125,246.58203125
-319.3359375,999.51171875,-1000.0,226.5625
-101.07421875,198.2421875,-619.140625,275.390625
192.3828125,-1000.0,722.65625,319.3359375
167.48046875,-626.46484375,999.51171875,297.36328125
-115.72265625,759.765625,142.578125,232.91015625
-310.05859375,999.51171875,-1000.0,196.77734375
-149.90234375,211.9140625,-894.04296875,228.515625
160.15625,-1000.0,390.625,282.2265625
188.4765625,-836.42578125,999.51171875,274.90234375
-105.95703125,517.578125,151.3671875,206.0546875
-332.51953125,999.51171875,-1000.0,160.64453125
-202.1484375,157.71484375,-1000.0,178.7109375
115.72265625,-1000.0,158.203125,223.6328125
208.984375,-969.7265625,999.51171875,222.65625
-47.8515625,276.3671875,204.58984375,160.15625
-307.6171875,999.51171875,-1000.0,107.421875
-228.02734375,658.69140625,-1000.0,120.1171875
96.19140625,-643.5546875,15.625,177.734375
211.9140625,-1000.0,999.51171875,195.80078125
-8.7890625,-187.98828125,349.12109375,133.30078125
-280.76171875,999.51171875,-931.640625,78.125
-261.23046875,286.62109375,-1000.0,95.21484375
60.05859375,-991.69921875,-203.125,146.484375
230.95703125,954.1015625,999.51171875,163.0859375
43.9453125,999.51171875,589.84375,108.88671875
-264.16015625,-159.1796875,-773.92578125,46.38671875
-288.0859375,-1000.0,-1000.0,45.8984375
27.34375,-491.2109375,-208.0078125,99.609375
222.16796875,851.07421875,999.51171875,125.0
62.98828125,999.51171875,815.91796875,81.0546875
-238.28125,12.6953125,-500.0,16.11328125
-304.19921875,-1000.0,-1000.0,8.7890625
-1.953125,-511.71875,-243.1640625,75.68359375
230.46875,876.953125,999.51171875,114.74609375
104.98046875,999.51171875,909.66796875,79.58984375
-202.63671875,-99.12109375,-352.5390625,22.4609375
-314.94140625,-1000.0,-1000.0,7.32421875
-42.96875,-675.29296875,-327.1484375,46.875
216.796875,627.9296875,930.6640625,84.47265625
123.53515625,999.51171875,999.51171875,62.98828125
-166.50390625,329.1015625,-13.18359375,0.48828125
-325.1953125,-963.37890625,-1000.0,-29.296875
-110.83984375,-1000.0,-550.78125,8.7890625
187.01171875,127.9296875,788.57421875,58.59375
142.08984375,999.51171875,999.51171875,41.015625
-145.99609375,140.625,86.9140625,-17.08984375
-314.94140625,-1000.0,-1000.0,-33.203125
-120.1171875,-1000.0,-744.140625,6.34765625
187.5,-61.5234375,585.44921875,57.6171875
198.73046875,999.51171875,999.51171875,51.26953125
-96.6796875,278.3203125,152.34375,-9.765625
-321.2890625,-1000.0,-1000.0,-50.78125
-153.80859375,-1000.0,-901.85546875,-17.578125
155.76171875,121.09375,381.8359375,38.0859375
203.61328125,999.51171875,999.51171875,28.80859375
-87.890625,198.73046875,154.78515625,-38.57421875
-323.73046875,-986.328125,-1000.0,-72.75390625
-200.1953125,-1000.0,-1000.0,-37.109375
97.65625,-252.9296875,56.15234375,13.18359375
205.56640625,999.51171875,999.51171875,23.4375
-32.71484375,513.671875,246.09375,-21.484375
-296.38671875,-869.140625,-989.74609375,-66.89453125
-223.14453125,-1000.0,-1000.0,-44.921875
87.890625,-202.1484375,-116.69921875,2.9296875
223.6328125,999.51171875,999.51171875,18.06640625
10.7421875,956.54296875,465.8203125,-19.04296875
-279.78515625,-298.828125,-872.0703125,-73.2421875
-266.11328125,-1000.0,-1000.0,-68.359375
57.6171875,-185.546875,-193.84765625,-13.18359375
222.16796875,999.51171875,999.51171875,17.578125
41.50390625,983.88671875,636.23046875,-17.08984375
-251.953125,-199.70703125,-719.7265625,-67.87109375
-290.52734375,-1000.0,-1000.0,-65.4296875
14.6484375,-474.609375,-226.07421875,-8.30078125
231.4453125,830.56640625,999.51171875,31.25
76.66015625,999.51171875,859.375,-9.27734375
-232.91015625,198.2421875,-427.24609375,-72.265625
-315.91796875,-1000.0,-1000.0,-69.3359375
-27.83203125,-724.12109375,-285.15625,-4.39453125
228.515625,663.57421875,979.00390625,33.69140625
130.37109375,999.51171875,999.51171875,5.37109375
-202.63671875,145.5078125,-187.5,-43.45703125
-334.9609375,-1000.0,-1000.0,-63.4765625
-54.19921875,-605.46875,-390.13671875,-15.13671875
212.40234375,770.01953125,900.390625,31.73828125
146.97265625,999.51171875,999.51171875,1.953125
-150.87890625,196.77734375,31.73828125,-56.640625
-327.1484375,-1000.0,-1000.0,-68.359375
-98.14453125,-669.43359375,-556.640625,-27.83203125
187.01171875,719.7265625,782.2265625,18.06640625
153.3203125,999.51171875,999.51171875,6.34765625
-142.08984375,129.39453125,110.83984375,-56.15234375
-341.796875,-1000.0,-1000.0,-83.49609375
-161.62109375,-1000.0,-871.09375,-45.8984375
151.85546875,-187.01171875,417.48046875,2.44140625
195.80078125,999.51171875,999.51171875,-2.9296875
-77.63671875,343.75,145.99609375,-56.640625
-310.05859375,-958.0078125,-1000.0,-91.796875
-175.78125,-1000.0,-1000.0,-57.6171875
143.5546875,-237.79296875,175.29296875,12.20703125
213.8671875,999.51171875,999.51171875,21.97265625
-45.41015625,616.69921875,216.30859375,-39.0625
-311.5234375,-772.4609375,-1000.0,-82.51953125
-229.98046875,-1000.0,-1000.0,-56.15234375
102.05078125,-223.6328125,-57.12890625,3.41796875
221.6796875,999.51171875,999.51171875,15.625
-18.06640625,698.2421875,323.73046875,-34.66796875
-297.8515625,-679.6875,-957.03125,-85.44921875
-236.328125,-1000.0,-1000.0,-63.96484375
103.515625,-182.12890625,-168.9453125,4.39453125
237.79296875,999.51171875,999.51171875,23.92578125
26.85546875,999.51171875,555.17578125,-23.92578125
-253.41796875,-149.90234375,-800.29296875,-77.1484375
-266.6015625,-1000.0,-1000.0,-61.5234375
48.33984375,-264.16015625,-196.2890625,-0.9765625
239.74609375,966.796875,999.51171875,24.90234375
78.61328125,999.51171875,762.6953125,-12.20703125
-227.05078125,0.0,-566.89453125,-61.5234375
-279.296875,-1000.0,-1000.0,-65.91796875
29.296875,-478.515625,-217.7734375,-24.4140625
229.4921875,854.00390625,999.51171875,7.8125
104.4921875,999.51171875,962.40234375,-14.16015625
-193.84765625,162.109375,-255.37109375,-65.91796875
-312.98828125,-1000.0,-1000.0,-74.70703125
-17.578125,-221.6796875,-243.1640625,-24.4140625
232.421875,993.1640625,979.4921875,13.671875
121.58203125,999.51171875,999.51171875,-6.34765625
-175.29296875,163.0859375,-46.38671875,-65.91796875
-326.66015625,-1000.0,-1000.0,-86.42578125
-83.984375,-1000.0,-510.25390625,-30.2734375
195.80078125,96.19140625,811.5234375,19.53125
148.4375,999.51171875,999.51171875,-1.953125
-137.6953125,193.359375,122.0703125,-58.59375
-313.96484375,-1000.0,-1000.0,-79.1015625
-121.58203125,-1000.0,-710.9375,-38.0859375
172.36328125,51.7578125,632.32421875,8.7890625
189.94140625,999.51171875,999.51171875,5.37109375
-98.6328125,377.44140625,164.0625,-51.7578125
-315.91796875,-940.91796875,-1000.0,-89.35546875
-162.109375,-1000.0,-909.66796875,-50.29296875
154.78515625,-24.4140625,373.046875,14.6484375
215.33203125,999.51171875,999.51171875,17.08984375
-79.58984375,397.94921875,161.62109375,-50.78125
-325.1953125,-910.15625,-1000.0,-94.23828125
-205.56640625,-1000.0,-1000.0,-74.21875
107.421875,-237.3046875,47.8515625,-20.99609375
224.12109375,999.51171875,999.51171875,1.46484375
-29.78515625,685.05859375,257.32421875,-59.5703125
-317.87109375,-694.82421875,-986.81640625,-119.62890625
-235.3515625,-1000.0,-1000.0,-85.44921875
95.703125,-208.49609375,-107.421875,-15.13671875
227.5390625,999.51171875,999.51171875,14.6484375
13.18359375,833.0078125,404.296875,-23.4375
-274.4140625,-493.1640625,-910.15625,-79.58984375
-255.859375,-1000.0,-1000.0,-79.58984375
71.77734375,-208.984375,-203.61328125,-12.6953125
243.1640625,959.9609375,999.51171875,18.5546875
59.08203125,999.51171875,664.55078125,-35.15625
-244.62890625,87.40234375,-689.94140625,-84.9609375
-291.50390625,-1000.0,-1000.0,-74.21875
34.66796875,-201.66015625,-200.68359375,-12.20703125
233.88671875,999.51171875,999.51171875,18.5546875
74.70703125,999.51171875,844.7265625,-23.4375
-218.26171875,-11.23046875,-450.1953125,-75.68359375
-297.8515625,-1000.0,-1000.0,-80.078125
-11.71875,-678.22265625,-260.7421875,-24.4140625
228.02734375,682.6171875,991.69921875,21.484375
126.46484375,999.51171875,991.2109375,-9.27734375
-184.08203125,22.94921875,-202.1484375,-74.21875
-315.91796875,-1000.0,-1000.0,-82.03125
-50.78125,-782.71484375,-360.83984375,-28.80859375
214.84375,525.87890625,905.76171875,12.20703125
139.16015625,999.51171875,999.51171875,-18.5546875
-165.0390625,277.83203125,86.9140625,-79.1015625
-325.1953125,-996.09375,-1000.0,-91.796875
-110.3515625,-1000.0,-583.984375,-42.48046875
172.8515625,162.59765625,766.6015625,6.34765625
162.59765625,999.51171875,999.51171875,-2.44140625
-130.37109375,147.4609375,123.046875,-58.10546875
-327.1484375,-1000.0,-1000.0,-88.37890625
-150.390625,-1000.0,-784.66796875,-48.828125
164.55078125,55.17578125,541.9921875,12.6953125
200.68359375,999.51171875,999.51171875,14.16015625
-91.30859375,508.7890625,150.87890625,-50.78125
-317.3828125,-816.89453125,-1000.0,-87.890625
-183.59375,-1000.0,-994.140625,-54.6875
134.27734375,-213.8671875,206.0546875,9.27734375
225.09765625,999.51171875,999.51171875,27.83203125
-29.78515625,852.05078125,222.65625,-27.83203125
-300.78125,-483.88671875,-1000.0,-88.8671875
-221.19140625,-1000.0,-1000.0,-65.91796875
116.69921875,-142.578125,47.8515625,-0.48828125
216.30859375,999.51171875,999.51171875,6.34765625
-23.4375,882.8125,354.4921875,-50.78125
-288.0859375,-409.1796875,-937.98828125,-93.26171875
-256.8359375,-1000.0,-1000.0,-76.171875
76.66015625,-182.6171875,-111.328125,-22.4609375
231.4453125,999.51171875,999.51171875,-0.9765625
11.23046875,870.60546875,525.390625,-47.36328125
-276.85546875,-423.828125,-817.87109375,-94.23828125
-273.92578125,-1000.0,-1000.0,-79.58984375
46.38671875,-266.11328125,-199.70703125,-21.484375
222.65625,948.2421875,999.51171875,11.71875
58.10546875,999.51171875,795.41015625,-21.97265625
-235.83984375,26.85546875,-528.3203125,-83.49609375
-312.01171875,-1000.0,-1000.0,-88.37890625
0.48828125,-565.4296875,-215.8203125,-38.57421875
235.3515625,782.71484375,999.51171875,-4.39453125
90.33203125,999.51171875,965.8203125,-29.78515625
-218.75,194.3359375,-239.74609375,-86.42578125
-328.125,-1000.0,-1000.0,-104.4921875
-58.10546875,-716.796875,-315.4296875,-52.734375
201.66015625,664.0625,951.171875,-4.39453125
108.88671875,999.51171875,999.51171875,-27.34375
-186.03515625,166.015625,-68.84765625,-83.49609375
-315.4296875,-1000.0,-1000.0,-92.28515625
-83.0078125,-941.40625,-480.95703125,-42.96875
202.1484375,348.14453125,837.40234375,7.32421875
166.50390625,999.51171875,999.51171875,0.48828125
-150.87890625,136.71875,87.40234375,-57.12890625
-317.3828125,-1000.0,-1000.0,-85.44921875
-104.98046875,-1000.0,-702.1484375,-44.43359375
181.640625,-2.44140625,636.71875,13.18359375
172.36328125,999.51171875,999.51171875,9.765625
-115.72265625,214.35546875,149.4140625,-54.6875
-318.84765625,-1000.0,-1000.0,-89.84375
-175.29296875,-1000.0,-878.41796875,-56.15234375
150.390625,-25.390625,417.48046875,6.8359375
209.9609375,999.51171875,999.51171875,11.23046875
-85.9375,397.94921875,166.9921875,-55.17578125
-326.171875,-945.80078125,-1000.0,-99.12109375
-195.80078125,-1000.0,-1000.0,-64.94140625
125.9765625,20.5078125,175.29296875,-3.90625
209.9609375,999.51171875,999.51171875,5.859375
-50.29296875,463.37890625,230.95703125,-44.921875
-312.01171875,-865.234375,-987.79296875,-83.984375
-240.234375,-1000.0,-1000.0,-62.5
71.77734375,-224.609375,-113.76953125,-12.20703125
213.37890625,999.51171875,999.51171875,5.859375
-2.44140625,906.25,394.04296875,-45.8984375
-267.578125,-376.953125,-918.9453125,-88.8671875
-245.60546875,-1000.0,-1000.0,-69.3359375
49.8046875,-242.1875,-192.87109375,-11.71875
228.02734375,937.98828125,999.51171875,19.04296875
59.5703125,999.51171875,720.703125,-16.11328125
-242.67578125,204.58984375,-624.51171875,-71.2890625
-289.0625,-1000.0,-1000.0,-81.0546875
13.18359375,-615.234375,-216.796875,-29.296875
228.02734375,841.30859375,999.51171875,10.25390625
81.54296875,999.51171875,792.48046875,-22.4609375
-236.81640625,-205.078125,-527.83203125,-82.03125
-306.640625,-1000.0,-1000.0,-89.84375
-12.6953125,-736.328125,-269.04296875,-27.83203125
216.30859375,564.453125,984.86328125,13.671875
107.421875,999.51171875,996.09375,-5.37109375
-194.3359375,140.13671875,-194.82421875,-59.5703125
-308.10546875,-1000.0,-1000.0,-233.88671875
-63.4765625,-1000.0,-365.234375,-518.06640625
187.98828125,224.12109375,918.45703125,-517.578125
138.671875,999.51171875,999.51171875,-354.98046875
-174.8046875,124.51171875,-7.32421875,-675.78125
-335.9375,-1000.0,-1000.0,-923.828125
-116.69921875,-1000.0,-581.54296875,-934.08203125
166.50390625,17.08984375,755.859375,-937.5
162.59765625,999.51171875,999.51171875,-648.4375
-125.9765625,228.02734375,105.46875,-382.8125
-304.6875,-1000.0,-1000.0,-252.44140625
-119.140625,-1000.0,-820.3125,-89.84375
187.01171875,137.6953125,492.67578125,52.734375
207.03125,999.51171875,999.51171875,103.02734375
-79.1015625,275.390625,147.94921875,77.63671875
-304.6875,-978.515625,-1000.0,42.96875
-180.17578125,-1000.0,-964.84375,115.72265625
145.5078125,-48.33984375,267.578125,229.98046875
218.26171875,999.51171875,999.51171875,223.6328125
-60.546875,532.2265625,178.7109375,124.51171875
-317.3828125,-820.80078125,-1000.0,-13.18359375
-210.44921875,-1000.0,-1000.0,4.39453125
113.28125,-127.9296875,8.7890625,139.16015625
213.37890625,999.51171875,999.51171875,179.6875
-20.99609375,999.51171875,346.19140625,133.30078125
-292.48046875,-45.41015625,-940.4296875,88.37890625
-260.25390625,-1000.0,-1000.0,103.515625
63.96484375,-200.68359375,-151.85546875,149.4140625
215.8203125,999.51171875,999.51171875,161.62109375
11.71875,985.3515625,486.328125,123.046875
-270.01953125,-204.1015625,-857.421875,73.2421875
-262.20703125,-1000.0,-1000.0,81.54296875
50.78125,-387.20703125,-213.8671875,143.5546875
241.69921875,926.7578125,999.51171875,177.734375
70.3125,999.51171875,695.3125,123.046875
-235.3515625,-126.953125,-659.66796875,47.8515625
-273.4375,-1000.0,-1000.0,56.15234375
31.25,-178.22265625,-197.75390625,115.72265625
240.234375,998.53515625,999.51171875,155.76171875
88.37890625,999.51171875,886.23046875,114.2578125
-215.8203125,8.30078125,-375.9765625,45.41015625
-301.26953125,-1000.0,-1000.0,39.55078125
-16.6015625,-813.4765625,-316.89453125,95.703125
230.46875,492.1875,953.125,137.6953125
139.16015625,999.51171875,999.51171875,101.5625
-172.8515625,169.921875,-117.67578125,25.390625
-315.91796875,-1000.0,-1000.0,-5.859375
-67.3828125,-818.359375,-461.9140625,40.52734375
217.7734375,534.66796875,852.05078125,91.30859375
164.55078125,999.51171875,999.51171875,59.08203125
-166.9921875,158.69140625,63.96484375,-19.53125
-338.37890625,-1000.0,-1000.0,-47.36328125
-104.4921875,-973.14453125,-636.23046875,3.90625
196.2890625,291.9921875,706.0546875,47.36328125
179.19921875,999.51171875,999.51171875,27.34375
-126.953125,152.34375,139.16015625,-37.59765625
-333.49609375,-1000.0,-1000.0,-66.40625
-166.50390625,-1000.0,-848.14453125,-21.484375
153.3203125,84.47265625,456.54296875,35.64453125
187.5,999.51171875,999.51171875,36.1328125
-89.84375,866.69921875,175.29296875,-11.71875
-316.40625,-362.79296875,-1000.0,-42.96875
-205.56640625,-1000.0,-1000.0,0.0
120.60546875,-229.4921875,133.7890625,82.03125
214.84375,999.51171875,999.51171875,99.12109375
-39.55078125,480.95703125,218.75,39.0625
-295.41015625,-895.5078125,-1000.0,4.39453125
-214.84375,-1000.0,-1000.0,54.6875
105.95703125,-223.6328125,-48.828125,146.484375
227.05078125,999.51171875,999.51171875,178.22265625
-3.41796875,803.22265625,382.8125,85.44921875
-277.34375,-568.359375,-932.12890625,-5.859375
-243.65234375,-1000.0,-1000.0,-10.25390625
89.35546875,-69.3359375,-116.69921875,40.0390625
239.74609375,999.51171875,999.51171875,51.26953125
27.83203125,685.05859375,533.69140625,-18.06640625
-268.06640625,-638.18359375,-810.05859375,-98.6328125
-277.83203125,-1000.0,-1000.0,-101.5625
31.25,-404.78515625,-210.9375,-32.2265625
227.5390625,895.5078125,999.51171875,-2.44140625
81.0546875,999.51171875,786.62109375,-56.640625
-216.796875,-72.75390625,-537.59765625,-107.91015625
-286.1328125,-1000.0,-1000.0,-88.8671875
7.32421875,-372.0703125,-227.05078125,-15.13671875
243.65234375,899.4140625,999.51171875,47.8515625
124.51171875,999.51171875,985.3515625,25.87890625
-205.078125,175.29296875,-195.3125,-40.52734375
-334.47265625,-1000.0,-1000.0,-52.24609375
-64.94140625,-1000.0,-412.109375,10.25390625
202.63671875,215.8203125,895.5078125,70.3125
132.32421875,999.51171875,999.51171875,44.921875
-170.41015625,155.2734375,-33.203125,-28.3203125
-311.5234375,-1000.0,-1000.0,-46.875
-93.26171875,-1000.0,-575.68359375,11.23046875
178.7109375,194.3359375,754.8828125,71.77734375
162.109375,999.51171875,999.51171875,50.29296875
-125.0,401.85546875,118.65234375,-31.73828125
-328.125,-899.90234375,-1000.0,-72.265625
-158.69140625,-1000.0,-822.265625,-35.15625
164.55078125,-119.62890625,492.67578125,32.71484375
190.91796875,999.51171875,999.51171875,35.64453125
-112.3046875,242.67578125,137.20703125,-45.8984375
-326.66015625,-1000.0,-1000.0,-89.35546875
-165.52734375,-1000.0,-966.30859375,-44.921875
140.13671875,-83.0078125,268.5546875,20.99609375
193.84765625,999.51171875,999.51171875,20.99609375
-67.3828125,562.01171875,175.78125,-50.29296875
-309.08203125,-851.5625,-1000.0,-95.21484375
-207.03125,-1000.0,-1000.0,-54.19921875
111.328125,112.3046875,112.79296875,10.25390625
207.03125,999.51171875,999.51171875,12.6953125
-29.78515625,518.5546875,261.23046875,-52.24609375
-292.48046875,-803.7109375,-973.6328125,-101.07421875
-239.74609375,-1000.0,-1000.0,-79.58984375
84.47265625,-209.47265625,-148.92578125,-4.39453125
235.3515625,999.51171875,999.51171875,29.296875
19.04296875,878.41796875,446.77734375,-31.25
-257.32421875,-424.31640625,-885.7421875,-92.28515625
-250.9765625,-1000.0,-1000.0,-83.0078125
52.734375,-214.35546875,-209.9609375,-14.6484375
229.98046875,992.1875,999.51171875,26.85546875
61.5234375,999.51171875,693.84765625,-23.92578125
-240.72265625,-117.1875,-660.15625,-94.23828125
-293.9453125,-1000.0,-1000.0,-89.35546875
12.20703125,-496.09375,-225.09765625,-24.4140625
212.890625,830.078125,999.51171875,17.08984375
74.21875,999.51171875,875.48828125,-21.484375
-212.40234375,151.85546875,-403.3203125,-95.21484375
-309.5703125,-1000.0,-1000.0,-103.02734375
-26.3671875,-750.48828125,-299.8046875,-33.69140625
217.7734375,614.2578125,957.03125,18.06640625
118.1640625,999.51171875,999.51171875,-22.4609375
-175.78125,160.15625,-99.609375,-103.02734375
-323.2421875,-1000.0,-1000.0,-113.28125
-86.42578125,-1000.0,-448.73046875,-64.453125
185.05859375,233.88671875,863.76953125,-30.2734375
136.71875,999.51171875,999.51171875,-56.640625
-161.62109375,159.1796875,56.15234375,-110.83984375
-328.125,-1000.0,-1000.0,-118.1640625
-112.3046875,-970.21484375,-617.67578125,-67.87109375
175.29296875,266.11328125,725.5859375,-5.37109375
164.0625,999.51171875,999.51171875,-10.7421875
-115.72265625,507.32421875,160.64453125,-68.84765625
-338.37890625,-1000.0,-1000.0,-88.37890625
-151.85546875,-754.39453125,-748.53515625,-36.1328125
174.8046875,713.37890625,601.07421875,29.78515625
174.8046875,999.51171875,999.51171875,18.06640625
-111.81640625,132.32421875,144.04296875,-60.546875
-340.8203125,-991.2109375,-1000.0,-105.46875
-206.0546875,-1000.0,-1000.0,-72.265625
127.44140625,-258.7890625,136.23046875,-8.30078125
207.03125,999.51171875,999.51171875,-2.44140625
-54.19921875,668.45703125,214.84375,-68.359375
-302.24609375,-713.8671875,-1000.0,-114.74609375
-225.5859375,-1000.0,-1000.0,-82.51953125
96.6796875,-191.89453125,-65.4296875,-10.25390625
220.21484375,999.51171875,999.51171875,5.37109375
-4.8828125,973.14453125,413.57421875,-53.7109375
-288.57421875,-260.25390625,-903.3203125,-104.4921875
-270.99609375,-1000.0,-1000.0,-81.54296875
59.08203125,-261.23046875,-183.59375,-9.27734375
222.16796875,999.51171875,999.51171875,24.4140625
9.765625,835.9375,523.92578125,-33.203125
-274.90234375,-482.421875,-830.078125,-95.21484375
-278.3203125,-1000.0,-1000.0,-77.63671875
29.78515625,-480.46875,-222.65625,-11.71875
240.72265625,828.61328125,999.51171875,20.01953125
71.2890625,999.51171875,765.13671875,-24.4140625
-250.48828125,98.14453125,-567.87109375,-91.30859375
-304.6875,-1000.0,-1000.0,-97.16796875
-3.90625,-610.83984375,-240.234375,-29.78515625
222.65625,760.7421875,999.51171875,12.6953125
102.05078125,999.51171875,980.46875,-25.87890625
-205.56640625,177.24609375,-219.7265625,-87.40234375
-329.1015625,-1000.0,-1000.0,-96.6796875
-61.5234375,-710.9375,-327.63671875,-34.66796875
208.49609375,666.015625,939.94140625,16.6015625
129.39453125,999.51171875,999.51171875,-16.11328125
-175.29296875,196.77734375,-29.296875,-85.44921875
-322.265625,-1000.0,-1000.0,-102.5390625
-66.40625,-416.9921875,-421.38671875,-39.0625
211.42578125,915.52734375,884.27734375,25.87890625
155.2734375,999.51171875,999.51171875,10.25390625
-145.5078125,155.76171875,93.26171875,-62.5
-326.171875,-1000.0,-1000.0,-98.14453125
-124.0234375,-1000.0,-769.53125,-48.828125
186.03515625,-41.015625,553.7109375,9.27734375
200.68359375,999.51171875,999.51171875,2.9296875
-114.2578125,329.1015625,149.90234375,-64.94140625
-318.84765625,-951.171875,-1000.0,-108.88671875
-158.203125,-1000.0,-951.66015625,-57.12890625
149.90234375,-194.3359375,291.9921875,16.6015625
214.35546875,999.51171875,999.51171875,16.6015625
-65.91796875,584.47265625,173.33984375,-53.22265625
-307.12890625,-795.41015625,-1000.0,-92.7734375
-190.4296875,-1000.0,-1000.0,-54.6875
115.234375,-232.91015625,18.5546875,12.20703125
211.42578125,999.51171875,999.51171875,15.13671875
-41.015625,575.1953125,255.859375,-54.19921875
-307.6171875,-812.98828125,-990.72265625,-91.30859375
-236.328125,-1000.0,-1000.0,-60.05859375
91.796875,-178.22265625,-102.5390625,12.6953125
232.91015625,983.88671875,999.51171875,39.0625
5.859375,999.51171875,444.3359375,-27.34375
-273.4375,-17.08984375,-881.8359375,-91.796875
-273.4375,-1000.0,-1000.0,-95.21484375
36.62109375,-310.546875,-200.68359375,-31.73828125
222.65625,999.51171875,999.51171875,8.30078125
13.18359375,726.5625,594.7265625,-66.89453125
-287.109375,-637.6953125,-766.6015625,-155.76171875
-301.7578125,-1000.0,-1000.0,-149.4140625
-2.9296875,-461.9140625,-217.28515625,-101.07421875
208.0078125,844.23828125,999.51171875,-81.54296875
66.40625,999.51171875,871.58203125,-113.76953125
-228.515625,35.64453125,-416.015625,-172.36328125
-314.94140625,-1000.0,-1000.0,-176.7578125
-3.90625,-188.4765625,-217.28515625,-118.1640625
233.3984375,999.0234375,999.51171875,-79.58984375
102.5390625,999.51171875,989.74609375,-104.4921875
-194.82421875,86.42578125,-178.22265625,-156.25
-330.56640625,-1000.0,-1000.0,-169.43359375
-91.796875,-1000.0,-437.5,-125.9765625
176.7578125,164.55078125,861.328125,-79.1015625
136.71875,999.51171875,999.51171875,-88.8671875
-166.50390625,147.4609375,66.40625,-142.578125
-330.078125,-1000.0,-1000.0,-155.2734375
-114.2578125,-1000.0,-644.53125,-110.83984375
176.26953125,72.265625,697.75390625,-59.08203125
170.8984375,999.51171875,999.51171875,-58.59375
-123.046875,269.53125,151.3671875,-110.3515625
-312.5,-993.1640625,-1000.0,-135.7421875
-139.6484375,-1000.0,-849.12109375,-91.30859375
162.109375,3.90625,463.37890625,-27.83203125
182.12890625,999.51171875,999.51171875,-35.15625
-111.328125,216.796875,140.625,-99.609375
-324.21875,-990.234375,-1000.0,-135.25390625
-193.359375,-1000.0,-1000.0,-97.16796875
122.55859375,-228.02734375,138.671875,-37.109375
209.47265625,999.51171875,999.51171875,-25.87890625
-41.50390625,843.26171875,215.33203125,-70.80078125
-283.69140625,-482.421875,-1000.0,-114.2578125
-210.44921875,-1000.0,-1000.0,-93.26171875
120.1171875,-207.51953125,-51.7578125,-25.87890625
242.1875,999.51171875,999.51171875,-7.32421875
-17.578125,810.05859375,350.5859375,-61.03515625
-295.8984375,-532.2265625,-943.359375,-107.421875
-254.39453125,-1000.0,-1000.0,-100.5859375
74.70703125,-199.70703125,-164.55078125,-46.875
228.515625,999.51171875,999.51171875,-15.625
33.69140625,884.765625,525.87890625,-56.640625
-254.39453125,-419.43359375,-827.1484375,-99.12109375
-271.484375,-1000.0,-1000.0,-84.9609375
58.59375,-183.59375,-190.4296875,-29.78515625
246.09375,999.51171875,999.51171875,2.9296875
45.41015625,988.76953125,758.7890625,-35.15625
-253.41796875,-193.84765625,-571.2890625,-94.7265625
-281.25,-1000.0,-1000.0,-91.30859375
22.94921875,-421.875,-202.1484375,-31.25
233.88671875,861.328125,999.51171875,3.90625
113.28125,999.51171875,999.51171875,-24.4140625
-182.12890625,206.54296875,-165.0390625,-81.54296875
-303.22265625,-1000.0,-1000.0,-89.84375
-18.5546875,-294.43359375,-220.703125,-40.52734375
233.3984375,963.37890625,972.65625,-0.48828125
127.44140625,999.51171875,999.51171875,-21.97265625
-166.9921875,250.0,97.16796875,-81.0546875
-321.77734375,-1000.0,-1000.0,-98.6328125
-99.609375,-1000.0,-456.0546875,-45.41015625
179.19921875,74.21875,869.62890625,13.18359375
154.78515625,999.51171875,999.51171875,-3.90625
-136.71875,195.3125,151.85546875,-63.96484375
-329.58984375,-1000.0,-1000.0,-93.75
-122.55859375,-1000.0,-595.703125,-61.5234375
169.921875,84.9609375,757.32421875,-5.859375
172.8515625,999.51171875,999.51171875,-5.37109375
-100.09765625,420.8984375,191.89453125,-55.6640625
-319.3359375,-1000.0,-1000.0,-84.47265625
-148.4375,-799.31640625,-705.56640625,-50.78125
185.05859375,618.1640625,648.92578125,3.90625
200.1953125,999.51171875,999.51171875,7.32421875
-89.35546875,252.44140625,201.66015625,-47.36328125
-314.94140625,-966.30859375,-1000.0,-87.40234375
-187.98828125,-1000.0,-964.35546875,-58.10546875
144.04296875,-71.77734375,271.97265625,-0.9765625
224.12109375,999.51171875,999.51171875,13.18359375
-28.80859375,758.7890625,364.74609375,-32.2265625
-284.1796875,-613.28125,-959.9609375,-76.171875
-219.7265625,-1000.0,-1000.0,-65.4296875
119.62890625,80.078125,144.04296875,-7.32421875
236.81640625,999.51171875,999.51171875,8.7890625
2.9296875,870.60546875,570.80078125,-48.828125
-264.16015625,-364.2578125,-760.25390625,-95.21484375
-244.62890625,-1000.0,-1000.0,-79.58984375
64.453125,-191.40625,-60.05859375,-14.6484375
228.02734375,999.51171875,999.51171875,15.625
50.29296875,999.51171875,822.265625,-29.78515625
-245.60546875,-131.34765625,-469.23828125,-85.44921875
-268.06640625,-1000.0,-1000.0,-82.51953125
56.640625,-178.7109375,-93.26171875,-22.94921875
241.69921875,972.65625,999.51171875,10.25390625
102.5390625,999.51171875,999.51171875,-18.5546875
-188.96484375,230.95703125,-15.13671875,-64.94140625
-292.96875,-1000.0,-1000.0,-76.66015625
-9.765625,-578.61328125,-153.80859375,-36.62109375
214.35546875,808.10546875,998.53515625,3.90625
112.3046875,999.51171875,999.51171875,-20.01953125
-187.98828125,200.1953125,150.87890625,-74.21875
-312.01171875,-1000.0,-1000.0,-77.63671875
-30.2734375,-628.41796875,-181.15234375,-20.5078125
213.8671875,757.8125,999.51171875,24.4140625
148.4375,999.51171875,999.51171875,-2.9296875
-128.90625,222.65625,225.5859375,-68.84765625
-309.08203125,-1000.0,-1000.0,-88.37890625
-62.01171875,-384.27734375,-195.3125,-37.109375
218.26171875,921.875,996.58203125,11.71875
153.3203125,999.51171875,999.51171875,1.46484375
-126.953125,337.40234375,346.19140625,-50.78125
-326.66015625,-992.1875,-1000.0,-77.1484375
-130.37109375,-1000.0,-302.24609375,-34.1796875
195.3125,212.890625,968.75,21.484375
193.359375,999.51171875,999.51171875,9.27734375
-83.49609375,580.078125,534.1796875,-48.33984375
-322.75390625,-775.87890625,-1000.0,-93.26171875
-178.7109375,-1000.0,-486.328125,-61.5234375
163.57421875,14.16015625,907.71484375,4.39453125
197.75390625,999.51171875,999.51171875,1.46484375
-45.41015625,521.97265625,634.765625,-56.15234375
-300.78125,-815.4296875,-868.65234375,-98.6328125
-221.6796875,-1000.0,-775.390625,-64.94140625
117.67578125,-207.03125,690.4296875,22.94921875
208.984375,999.51171875,999.51171875,67.87109375
-2.44140625,903.80859375,798.33984375,24.90234375
-258.30078125,-391.11328125,-583.984375,-31.25
-236.328125,-1000.0,-998.53515625,-5.859375
96.19140625,-135.25390625,472.16796875,45.8984375
231.4453125,972.16796875,999.51171875,50.78125
25.390625,999.51171875,945.3125,0.9765625
-255.859375,230.95703125,-213.37890625,-66.40625
-285.15625,-1000.0,-1000.0,-46.875
38.0859375,-344.7265625,66.40625,32.71484375
220.703125,953.61328125,999.51171875,61.5234375
71.77734375,999.51171875,997.55859375,12.6953125
-213.37890625,174.31640625,-93.26171875,-50.78125
-297.8515625,-1000.0,-1000.0,-45.41015625
21.97265625,-311.03515625,-109.375,18.06640625
236.328125,958.49609375,999.51171875,56.15234375
93.75,999.51171875,999.51171875,10.7421875
-201.66015625,199.21875,4.8828125,-63.96484375
-316.89453125,-1000.0,-1000.0,-80.078125
-44.43359375,-701.66015625,-192.3828125,-24.4140625
202.1484375,669.921875,995.1171875,21.97265625
114.74609375,999.51171875,999.51171875,-10.25390625
-186.5234375,216.30859375,111.81640625,-76.66015625
-337.890625,-1000.0,-1000.0,-88.8671875
-86.42578125,-895.5078125,-350.09765625,-31.25
191.40625,432.12890625,933.59375,26.3671875
144.53125,999.51171875,999.51171875,22.4609375
-137.20703125,200.68359375,152.34375,-35.15625
-325.68359375,-1000.0,-1000.0,-60.546875
-140.13671875,-1000.0,-639.6484375,-16.11328125
183.59375,228.515625,719.23828125,40.0390625
185.05859375,999.51171875,999.51171875,22.94921875
-129.8828125,132.8125,137.20703125,-46.38671875
-332.51953125,-1000.0,-1000.0,-83.49609375
-180.6640625,-1000.0,-955.078125,-48.828125
136.71875,-175.29296875,286.62109375,15.625
193.84765625,999.51171875,999.51171875,9.27734375
-90.33203125,863.28125,144.53125,-61.5234375
-316.89453125,-437.98828125,-1000.0,-96.19140625
-208.984375,-1000.0,-1000.0,-58.59375
111.81640625,-190.91796875,-79.1015625,13.18359375
219.23828125,999.51171875,999.51171875,28.3203125
-33.203125,951.171875,168.45703125,-43.9453125
-294.43359375,-303.22265625,-1000.0,-88.8671875
-232.421875,-1000.0,-1000.0,-52.24609375
83.984375,-255.37109375,-245.1171875,18.06640625
237.79296875,999.51171875,999.51171875,37.109375
-12.6953125,721.19140625,199.21875,-31.73828125
-303.22265625,-649.4140625,-1000.0,-91.796875
-256.34765625,-1000.0,-1000.0,-83.0078125
31.73828125,-291.50390625,-321.2890625,-25.87890625
208.49609375,945.3125,999.51171875,4.39453125
29.296875,999.51171875,291.015625,-51.7578125
-270.99609375,-50.29296875,-983.88671875,-128.90625
-289.55078125,-1000.0,-1000.0,-131.8359375
9.27734375,-501.46484375,-488.76953125,-51.7578125
222.16796875,888.18359375,999.51171875,-1.953125
59.08203125,999.51171875,385.25390625,-41.50390625
-253.90625,-174.8046875,-970.703125,-87.40234375
-293.45703125,-1000.0,-1000.0,-70.80078125
-16.11328125,-592.28515625,-683.10546875,22.4609375
208.0078125,735.3515625,855.46875,66.40625
91.30859375,999.51171875,646.97265625,-15.625
-204.1015625,131.8359375,-833.49609375,-94.7265625
-302.24609375,-1000.0,-1000.0,-39.0625
-85.9375,-984.86328125,-876.46484375,-137.6953125
165.52734375,265.13671875,512.6953125,-387.6953125
134.27734375,999.51171875,943.359375,-451.66015625
-183.10546875,133.7890625,-556.640625,-447.75390625
-316.40625,-1000.0,-1000.0,-341.796875
-96.6796875,-1000.0,-1000.0,-173.33984375
168.9453125,-53.22265625,185.05859375,-79.58984375
177.24609375,999.51171875,999.51171875,-47.8515625
-129.8828125,143.5546875,-333.984375,-210.9375
-318.359375,-1000.0,-1000.0,-320.3125
-141.11328125,-1000.0,-1000.0,-323.2421875
140.13671875,-258.7890625,-29.78515625,-584.9609375
179.19921875,999.51171875,999.51171875,-753.41796875
-100.09765625,570.3125,-28.3203125,-821.2890625
-310.546875,-815.91796875,-1000.0,-729.4921875
-168.45703125,-1000.0,-1000.0,-435.546875
140.625,-237.3046875,-181.15234375,-186.03515625
229.98046875,999.51171875,999.51171875,-76.66015625
-35.15625,485.83984375,120.1171875,-57.12890625
-292.48046875,-893.06640625,-1000.0,-51.7578125
-199.70703125,-1000.0,-1000.0,-0.48828125
106.93359375,-228.515625,-222.16796875,78.61328125
223.6328125,999.51171875,999.51171875,116.69921875
-27.34375,723.14453125,180.6640625,75.68359375
-304.6875,-676.26953125,-1000.0,32.2265625
-235.3515625,-1000.0,-1000.0,69.3359375
83.49609375,-57.12890625,-236.328125,139.6484375
222.65625,999.51171875,999.51171875,163.0859375
-7.8125,755.859375,291.9921875,109.86328125
-304.19921875,-544.43359375,-981.4453125,53.22265625
-276.3671875,-1000.0,-1000.0,74.21875
49.8046875,-367.67578125,-280.76171875,139.16015625
237.79296875,913.0859375,999.51171875,166.9921875
55.17578125,999.51171875,556.640625,110.83984375
-250.48828125,-60.05859375,-804.6875,51.7578125
-293.9453125,-1000.0,-1000.0,61.03515625
4.8828125,-528.80859375,-323.2421875,125.48828125
230.46875,827.63671875,999.51171875,187.01171875
82.51953125,999.51171875,805.17578125,153.3203125
-229.00390625,44.43359375,-530.2734375,69.3359375
-306.640625,-1000.0,-1000.0,39.0625
-38.57421875,-764.16015625,-390.13671875,83.984375
208.984375,580.56640625,937.01171875,129.8828125
129.39453125,999.51171875,991.69921875,95.21484375
-193.359375,107.421875,-248.046875,9.27734375
-335.44921875,-1000.0,-1000.0,-21.484375
-77.1484375,-939.94140625,-537.59765625,27.34375
211.9140625,322.75390625,786.62109375,85.44921875
150.390625,999.51171875,999.51171875,61.03515625
-146.484375,241.2109375,18.06640625,-9.765625
-302.734375,-1000.0,-1000.0,-30.2734375
-107.421875,-1000.0,-691.89453125,4.8828125
180.17578125,144.04296875,657.71484375,50.29296875
173.33984375,999.51171875,999.51171875,42.48046875
-132.8125,140.625,105.46875,-22.4609375
-333.984375,-1000.0,-1000.0,-55.6640625
-158.69140625,-1000.0,-946.2890625,-17.08984375
161.62109375,-143.06640625,298.33984375,36.1328125
217.7734375,999.51171875,999.51171875,29.78515625
-91.796875,311.5234375,149.4140625,-38.0859375
-334.47265625,-1000.0,-1000.0,-84.47265625
-180.6640625,-1000.0,-1000.0,-47.8515625
149.90234375,179.19921875,185.05859375,10.25390625
220.21484375,999.51171875,999.51171875,2.9296875
-62.01171875,357.421875,189.94140625,-54.19921875
-319.82421875,-911.1328125,-1000.0,-95.703125
-215.8203125,-1000.0,-1000.0,-75.1953125
91.30859375,-236.81640625,-135.25390625,-16.6015625
211.9140625,999.51171875,999.51171875,0.9765625
-7.8125,822.265625,352.5390625,-50.78125
-287.59765625,-517.578125,-946.2890625,-104.98046875
-261.71875,-1000.0,-1000.0,-93.26171875
55.17578125,-196.2890625,-207.03125,-34.1796875
229.98046875,999.51171875,999.51171875,-3.90625
35.64453125,972.65625,562.98828125,-46.38671875
-259.765625,-263.18359375,-797.8515625,-97.16796875
-270.99609375,-1000.0,-1000.0,-87.890625
34.66796875,-192.87109375,-217.28515625,-29.78515625
220.703125,973.14453125,999.51171875,5.859375
64.94140625,999.51171875,761.71875,-33.69140625
-234.86328125,93.26171875,-563.96484375,-92.7734375
-302.24609375,-1000.0,-1000.0,-93.26171875
-13.671875,-719.23828125,-292.96875,-33.69140625
224.12109375,631.8359375,989.2578125,4.39453125
115.72265625,999.51171875,960.44921875,-16.6015625
-193.84765625,170.41015625,-270.01953125,-70.3125
-309.08203125,-1000.0,-1000.0,-84.47265625
-56.640625,-898.92578125,-407.71484375,-33.69140625
201.66015625,421.38671875,896.97265625,14.6484375
147.94921875,999.51171875,999.51171875,-5.859375
-163.57421875,173.33984375,-52.24609375,-67.3828125
-328.125,-1000.0,-1000.0,-85.9375
-84.47265625,-785.64453125,-547.36328125,-38.0859375
201.66015625,574.70703125,782.2265625,18.5546875
153.80859375,999.51171875,999.51171875,0.9765625
-145.01953125,156.73828125,99.12109375,-65.4296875
-329.58984375,-1000.0,-1000.0,-90.33203125
-124.51171875,-999.51171875,-769.04296875,-42.96875
188.4765625,248.53515625,559.08203125,13.18359375
191.40625,999.51171875,999.51171875,7.32421875
-107.91015625,124.51171875,133.7890625,-49.8046875
-320.3125,-1000.0,-1000.0,-79.1015625
-159.1796875,-1000.0,-984.375,-43.45703125
154.78515625,-225.09765625,228.02734375,13.671875
208.49609375,999.51171875,999.51171875,21.484375
-62.5,464.84375,175.29296875,-29.296875
-301.7578125,-903.3203125,-1000.0,-72.75390625
-203.125,-1000.0,-1000.0,-56.15234375
121.09375,-193.359375,55.17578125,7.8125
223.6328125,999.51171875,999.51171875,23.92578125
-31.73828125,640.13671875,287.109375,-37.59765625
-293.45703125,-731.4453125,-963.37890625,-83.984375
-228.02734375,-1000.0,-1000.0,-57.12890625
89.84375,-265.625,-177.734375,5.37109375
230.95703125,999.51171875,999.51171875,31.73828125
15.13671875,799.8046875,454.58984375,-16.11328125
-281.73828125,-546.38671875,-885.7421875,-81.54296875
-264.16015625,-1000.0,-1000.0,-73.2421875
50.29296875,-287.109375,-212.890625,-2.9296875
229.4921875,915.52734375,999.51171875,38.57421875
63.96484375,999.51171875,704.1015625,-4.8828125
-237.79296875,191.40625,-644.53125,-68.84765625
-285.15625,-1000.0,-1000.0,-59.08203125
9.765625,-711.9140625,-230.95703125,14.6484375
216.30859375,693.84765625,999.51171875,55.6640625
81.0546875,999.51171875,880.859375,11.71875
-216.796875,4.39453125,-395.01953125,-55.17578125
-292.48046875,-1000.0,-1000.0,-53.22265625
-13.18359375,-672.36328125,-304.19921875,17.08984375
220.703125,676.26953125,957.03125,58.59375
117.67578125,999.51171875,999.51171875,13.671875
-181.640625,179.19921875,-110.83984375,-54.19921875
-320.3125,-1000.0,-1000.0,-70.80078125
-51.7578125,-400.87890625,-370.60546875,-24.4140625
218.75,920.41015625,910.15625,19.53125
131.8359375,999.51171875,999.51171875,-15.13671875
-170.8984375,160.64453125,71.77734375,-81.0546875
-327.63671875,-1000.0,-1000.0,-94.23828125
-112.3046875,-1000.0,-684.5703125,-40.52734375
171.38671875,15.625,653.80859375,-24.4140625
162.59765625,999.51171875,999.51171875,-80.56640625
-133.7890625,225.09765625,138.671875,-116.2109375
-332.51953125,-994.62890625,-1000.0,-125.48828125
-156.25,-1000.0,-902.83203125,-150.87890625
156.73828125,-161.62109375,375.0,-112.79296875
210.9375,999.51171875,999.51171875,-45.41015625
-69.3359375,293.9453125,146.97265625,-95.703125
-303.7109375,-978.515625,-1000.0,-134.765625
-184.5703125,-1000.0,-1000.0,-78.61328125
128.90625,-247.0703125,91.30859375,-6.8359375
218.26171875,999.51171875,999.51171875,13.671875
-45.8984375,468.75,201.171875,-41.50390625
-297.8515625,-901.3671875,-1000.0,-73.73046875
-213.8671875,-1000.0,-1000.0,-30.76171875
87.40234375,-211.9140625,-117.1875,34.66796875
240.234375,999.51171875,999.51171875,54.6875
21.484375,897.4609375,377.44140625,-2.44140625
-270.99609375,-376.46484375,-931.640625,-54.6875
-237.3046875,-1000.0,-1000.0,-27.34375
70.3125,-335.44921875,-207.51953125,44.921875
247.0703125,999.51171875,999.51171875,70.80078125
52.734375,904.296875,537.109375,7.32421875
-267.578125,-411.62109375,-820.80078125,-64.453125
-283.69140625,-1000.0,-1000.0,-64.94140625
36.62109375,-354.00390625,-215.8203125,17.08984375
229.4921875,889.6484375,999.51171875,20.99609375
84.47265625,999.51171875,785.64453125,-187.98828125
-219.7265625,174.31640625,-540.52734375,-365.234375
-305.17578125,-1000.0,-1000.0,-353.02734375
15.13671875,-228.02734375,-217.28515625,-336.42578125
234.375,999.51171875,999.51171875,-441.89453125
84.9609375,995.1171875,922.36328125,-550.78125
-217.28515625,-227.5390625,-316.89453125,-633.7890625
-331.0546875,-1000.0,-1000.0,-651.85546875
-71.2890625,-1000.0,-415.0390625,-588.8671875
194.82421875,92.28515625,886.71875,-531.73828125
135.25390625,999.51171875,999.51171875,-541.9921875
-170.41015625,164.0625,-49.31640625,-580.56640625
-325.1953125,-1000.0,-1000.0,-551.7578125
-83.984375,-958.984375,-555.17578125,-497.0703125
199.21875,298.33984375,769.53125,-604.4921875
159.1796875,999.51171875,999.51171875,-776.85546875
-143.06640625,268.5546875,128.90625,-822.75390625
-331.54296875,-967.28515625,-1000.0,-782.2265625
-138.671875,-1000.0,-811.5234375,-609.86328125
179.6875,-78.125,507.8125,-445.3125
203.125,999.51171875,999.51171875,-496.09375
-100.5859375,237.79296875,143.5546875,-482.91015625
-316.40625,-992.1875,-1000.0,-508.7890625
-156.73828125,-1000.0,-988.76953125,-526.85546875
158.203125,-244.140625,222.65625,-305.17578125
214.84375,999.51171875,999.51171875,-124.51171875
-56.640625,452.1484375,165.0390625,-131.8359375
-300.78125,-909.1796875,-1000.0,-212.40234375
-207.03125,-1000.0,-1000.0,-284.66796875
114.74609375,-215.33203125,-10.25390625,-325.68359375
237.79296875,999.51171875,999.51171875,-322.265625
0.0,890.13671875,342.7734375,-385.25390625
-288.57421875,-409.1796875,-943.84765625,-389.6484375
-246.09375,-1000.0,-1000.0,-232.91015625
80.56640625,-207.51953125,-154.296875,-95.703125
240.234375,997.0703125,999.51171875,-62.98828125
40.0390625,999.51171875,508.30078125,-99.12109375
-241.69921875,-145.5078125,-845.21484375,-119.140625
-248.046875,-1000.0,-1000.0,-76.171875
78.125,-169.921875,-162.109375,-6.34765625
257.8125,999.51171875,999.51171875,17.578125
51.26953125,995.60546875,741.2109375,-85.44921875
-255.859375,-169.43359375,-590.8203125,-293.45703125
-291.015625,-1000.0,-1000.0,-352.5390625
29.78515625,-413.57421875,-188.4765625,-159.66796875
244.140625,877.9296875,999.51171875,-5.37109375
103.02734375,999.51171875,958.49609375,-32.71484375
-206.54296875,109.86328125,-252.44140625,-105.46875
-314.453125,-1000.0,-1000.0,-163.57421875
-39.55078125,-858.88671875,-237.3046875,-229.4921875
210.44921875,456.54296875,972.16796875,-288.57421875
120.1171875,999.51171875,999.51171875,-338.8671875
-187.5,151.85546875,18.5546875,-372.0703125
-326.171875,-1000.0,-1000.0,-353.515625
-81.0546875,-1000.0,-413.57421875,-303.7109375
207.51953125,204.58984375,892.578125,-273.4375
160.15625,999.51171875,999.51171875,-287.59765625
-149.4140625,159.66796875,124.0234375,-311.03515625
-317.3828125,-1000.0,-1000.0,-292.48046875
-112.79296875,-1000.0,-640.13671875,-227.05078125
182.6171875,-13.671875,712.890625,-194.82421875
182.6171875,999.51171875,999.51171875,-222.65625
-117.67578125,287.59765625,166.9921875,-249.0234375
-315.91796875,-973.6328125,-1000.0,-242.1875
-138.18359375,-1000.0,-826.171875,-198.2421875
152.34375,-153.80859375,495.1171875,-158.69140625
187.98828125,999.51171875,999.51171875,-166.50390625
-75.68359375,379.39453125,172.36328125,-189.94140625
-315.4296875,-937.5,-1000.0,-183.59375
-185.05859375,-1000.0,-981.93359375,-135.7421875
141.6015625,-227.05078125,231.93359375,-87.890625
213.8671875,999.51171875,999.51171875,-90.33203125
-35.15625,690.4296875,273.4375,-133.7890625
-284.66796875,-690.4296875,-983.3984375,-153.3203125
-224.609375,-1000.0,-1000.0,-125.48828125
96.19140625,-178.7109375,4.39453125,-71.2890625
240.234375,999.51171875,999.51171875,-47.36328125
3.90625,781.73828125,436.5234375,-83.0078125
-291.50390625,-556.15234375,-880.859375,-100.09765625
-262.6953125,-1000.0,-1000.0,-59.08203125
62.5,-232.91015625,-157.71484375,-9.765625
228.02734375,999.51171875,999.51171875,-14.6484375
30.2734375,957.51953125,625.0,-68.84765625
-263.671875,-282.2265625,-728.02734375,-104.98046875
-276.3671875,-1000.0,-1000.0,-83.0078125
36.62109375,-411.1328125,-195.80078125,-21.484375
229.4921875,867.1875,999.51171875,-16.6015625
80.56640625,999.51171875,876.46484375,-69.82421875
-222.65625,166.50390625,-400.87890625,-106.93359375
-309.08203125,-1000.0,-1000.0,-91.796875
-6.34765625,-558.10546875,-233.3984375,-47.8515625
222.65625,844.7265625,999.51171875,-32.71484375
89.84375,999.51171875,959.9609375,-68.84765625
-209.9609375,20.01953125,-256.8359375,-108.3984375
-313.96484375,-1000.0,-1000.0,-82.03125
-49.8046875,-749.51171875,-333.984375,-16.11328125
215.8203125,584.9609375,933.59375,13.18359375
152.83203125,999.51171875,999.51171875,-17.578125
-166.50390625,154.78515625,-29.296875,-64.94140625
-312.98828125,-1000.0,-1000.0,-67.87109375
-85.44921875,-1000.0,-550.78125,-20.5078125
175.29296875,240.72265625,780.76171875,-0.48828125
161.62109375,999.51171875,999.51171875,-38.0859375
-141.6015625,158.203125,95.703125,-79.1015625
-341.30859375,-1000.0,-1000.0,-81.0546875
-137.20703125,-979.98046875,-744.140625,-36.1328125
175.78125,255.37109375,587.890625,6.8359375
180.17578125,999.51171875,999.51171875,-19.53125
-124.0234375,375.9765625,149.4140625,-67.3828125
-336.9140625,-974.12109375,-1000.0,-76.171875
-177.24609375,-1000.0,-961.9140625,-36.1328125
139.6484375,231.93359375,287.109375,0.0
184.08203125,999.51171875,999.51171875,-21.484375
-95.21484375,283.203125,143.5546875,-69.82421875
-315.4296875,-943.359375,-1000.0,-69.82421875
-209.9609375,-1000.0,-1000.0,-27.83203125
107.421875,-241.2109375,-76.66015625,2.9296875
234.375,999.51171875,999.51171875,-13.18359375
-33.69140625,736.328125,250.48828125,-70.80078125
-319.82421875,-636.71875,-994.140625,-86.42578125
-247.55859375,-1000.0,-1000.0,-52.734375
77.1484375,-141.11328125,-167.48046875,-17.578125
214.35546875,979.98046875,999.51171875,-15.13671875
5.859375,999.51171875,440.91796875,-61.03515625
-288.57421875,92.28515625,-889.6484375,-92.28515625
-298.828125,-1000.0,-1000.0,-69.3359375
30.2734375,-525.390625,-246.58203125,-23.92578125
225.09765625,884.27734375,999.51171875,-20.99609375
47.8515625,999.51171875,568.359375,-59.5703125
-251.953125,-131.34765625,-793.9453125,-80.56640625
-287.59765625,-1000.0,-1000.0,-62.98828125
11.23046875,-457.03125,-289.55078125,-14.16015625
214.35546875,863.76953125,999.51171875,2.9296875
60.05859375,999.51171875,770.5078125,-45.41015625
-238.28125,94.23828125,-566.89453125,-85.44921875
-322.265625,-1000.0,-1000.0,-60.546875
-35.15625,-468.75,-412.59765625,-10.7421875
210.9375,871.58203125,956.54296875,9.27734375
108.88671875,999.51171875,916.015625,-23.92578125
-191.89453125,151.3671875,-399.90234375,-58.10546875
-311.03515625,-1000.0,-1000.0,-43.45703125
-73.2421875,-1000.0,-686.5234375,2.9296875
195.3125,152.34375,655.76171875,27.83203125
154.78515625,999.51171875,999.51171875,-9.27734375
-154.78515625,174.31640625,-151.85546875,-62.01171875
-322.265625,-1000.0,-1000.0,-56.15234375
-103.515625,-892.08984375,-831.0546875,-5.37109375
168.9453125,429.19921875,464.35546875,19.53125
152.34375,999.51171875,999.51171875,-20.99609375
-141.11328125,151.3671875,-43.45703125,-69.3359375
-328.61328125,-1000.0,-1000.0,-62.98828125
-151.85546875,-1000.0,-971.6796875,-26.85546875
171.875,196.2890625,213.8671875,7.32421875
200.1953125,999.51171875,999.51171875,-15.13671875
-120.60546875,224.609375,92.28515625,-78.61328125
-336.9140625,-971.6796875,-1000.0,-89.35546875
-200.68359375,-1000.0,-1000.0,-52.24609375
125.48828125,-203.61328125,-34.66796875,-13.18359375
225.09765625,999.51171875,999.51171875,-23.92578125
-43.9453125,976.5625,173.828125,-73.73046875
-306.640625,-247.0703125,-1000.0,-88.37890625
-220.21484375,-1000.0,-1000.0,-55.17578125
103.02734375,-257.32421875,-180.17578125,-10.7421875
214.35546875,999.51171875,999.51171875,-12.6953125
-36.62109375,609.375,262.20703125,-63.4765625
-305.17578125,-785.64453125,-993.1640625,-77.63671875
-251.953125,-1000.0,-1000.0,-33.69140625
74.21875,-212.890625,-227.05078125,10.25390625
239.74609375,999.51171875,999.51171875,12.6953125
27.34375,985.83984375,478.515625,-39.0625
-264.16015625,-248.53515625,-873.53515625,-72.75390625
-251.953125,-1000.0,-1000.0,-44.43359375
76.66015625,-177.24609375,-222.65625,-0.48828125
240.72265625,999.51171875,999.51171875,8.7890625
69.3359375,999.51171875,678.7109375,-32.2265625
-219.23828125,-149.4140625,-670.8984375,-65.91796875
-289.55078125,-1000.0,-1000.0,-41.9921875
12.20703125,-567.87109375,-285.15625,3.90625
245.1171875,779.78515625,999.51171875,11.71875
109.375,999.51171875,902.34375,-38.0859375
-198.73046875,26.3671875,-375.9765625,-77.1484375
-279.78515625,-1000.0,-1000.0,-53.7109375
-17.08984375,-708.984375,-378.90625,0.9765625
224.12109375,637.6953125,918.45703125,15.625
140.13671875,999.51171875,999.51171875,-23.92578125
-164.55078125,148.4375,-101.5625,-63.4765625
-307.12890625,-1000.0,-1000.0,-56.15234375
-90.8203125,-971.19140625,-556.15234375,-16.11328125
194.82421875,293.45703125,772.4609375,0.48828125
174.8046875,999.51171875,999.51171875,-31.25
-130.37109375,138.18359375,69.82421875,-64.453125
-316.89453125,-1000.0,-1000.0,-59.08203125
-134.27734375,-1000.0,-794.43359375,-32.2265625
166.50390625,3.90625,518.5546875,-4.39453125
186.03515625,999.51171875,999.51171875,-23.4375
-104.4921875,562.5,144.53125,-63.96484375
-315.4296875,-778.3203125,-1000.0,-68.359375
-174.31640625,-1000.0,-984.86328125,-35.64453125
130.859375,-216.796875,232.91015625,6.34765625
206.54296875,999.51171875,999.51171875,-6.34765625
-77.1484375,419.43359375,163.0859375,-60.546875
-319.82421875,-928.7109375,-1000.0,-78.61328125
-202.1484375,-1000.0,-1000.0,-46.875
105.95703125,-227.05078125,43.9453125,-3.90625
209.47265625,999.51171875,999.51171875,-12.6953125
-42.96875,759.27734375,275.87890625,-62.5
-295.41015625,-629.39453125,-983.88671875,-69.82421875
-227.05078125,-1000.0,-1000.0,-32.2265625
85.9375,-43.9453125,-74.70703125,2.44140625
213.8671875,999.51171875,999.51171875,-9.27734375
15.13671875,897.4609375,457.03125,-52.734375
-270.99609375,-341.796875,-871.09375,-68.84765625
-269.04296875,-1000.0,-1000.0,-48.828125
55.6640625,-239.2578125,-204.58984375,-7.8125
230.46875,997.55859375,999.51171875,-9.27734375
61.03515625,999.51171875,660.64453125,-59.5703125
-245.60546875,-178.7109375,-694.82421875,-87.40234375
-286.62109375,-1000.0,-1000.0,-61.5234375
26.3671875,-572.265625,-227.5390625,-13.18359375
222.16796875,779.78515625,999.51171875,-12.6953125
66.89453125,999.51171875,854.98046875,-58.59375
-230.46875,-6.8359375,-438.4765625,-91.796875
-308.59375,-1000.0,-1000.0,-75.1953125
-33.203125,-809.5703125,-303.7109375,-28.3203125
227.05078125,498.53515625,967.28515625,-9.27734375
139.16015625,999.51171875,999.51171875,-43.45703125
