TP9,AF7,AF8,TP10
-139.16015625,339.35546875,161.62109375,-33.203125
-530.76171875,-955.078125,-1000.0,-25.390625
-298.33984375,-1000.0,-910.15625,-28.3203125
289.55078125,45.8984375,373.046875,-33.69140625
393.5546875,999.51171875,999.51171875,-36.62109375
-55.17578125,726.07421875,218.75,-33.203125
-496.09375,-628.41796875,-1000.0,-27.34375
-365.72265625,-1000.0,-1000.0,-33.203125
228.515625,23.92578125,124.0234375,-39.55078125
414.55078125,999.51171875,999.51171875,-50.29296875
-5.37109375,520.99609375,307.6171875,-48.828125
-480.46875,-817.3828125,-958.49609375,-42.48046875
-418.9453125,-1000.0,-1000.0,-43.9453125
166.9921875,-216.30859375,-84.9609375,-49.8046875
426.7578125,999.51171875,999.51171875,-61.5234375
60.05859375,793.9453125,511.23046875,-49.31640625
-432.6171875,-561.03515625,-833.984375,-35.15625
-460.44921875,-1000.0,-1000.0,-35.64453125
118.65234375,-143.5546875,-156.25,-40.0390625
446.77734375,999.51171875,999.51171875,-41.015625
139.16015625,999.51171875,757.32421875,-36.1328125
-369.140625,-166.50390625,-572.265625,-35.64453125
-499.51171875,-1000.0,-1000.0,-31.25
39.0625,-179.19921875,-188.4765625,-45.8984375
428.22265625,999.51171875,999.51171875,-59.08203125
174.31640625,999.51171875,924.8046875,-52.734375
-333.984375,-51.7578125,-320.3125,-45.8984375
-526.3671875,-1000.0,-1000.0,-36.1328125
-25.390625,-387.6953125,-233.3984375,-31.25
445.3125,892.578125,972.16796875,-57.12890625
258.30078125,999.51171875,999.51171875,-93.75
-268.06640625,204.1015625,-3.41796875,-80.56640625
-536.62109375,-1000.0,-1000.0,-52.24609375
-123.046875,-744.140625,-399.4140625,-54.6875
391.6015625,633.30078125,902.83203125,-67.87109375
307.12890625,999.51171875,999.51171875,-55.17578125
-200.68359375,189.94140625,105.95703125,-32.71484375
-524.90234375,-1000.0,-1000.0,-29.78515625
-169.921875,-679.19921875,-541.9921875,-32.2265625
381.34765625,697.265625,807.12890625,-41.50390625
345.21484375,999.51171875,999.51171875,-46.875
-158.69140625,242.67578125,173.828125,-42.48046875
-526.85546875,-985.3515625,-1000.0,-32.71484375
-279.78515625,-1000.0,-852.05078125,-36.1328125
292.96875,28.80859375,469.7265625,-46.875
381.34765625,999.51171875,999.51171875,-46.875
-98.14453125,174.8046875,166.50390625,-39.55078125
-513.671875,-1000.0,-1000.0,-34.1796875
-317.87109375,-1000.0,-991.2109375,-39.55078125
264.6484375,-70.3125,225.09765625,-41.9921875
420.41015625,999.51171875,999.51171875,-41.015625
-14.6484375,535.64453125,281.73828125,-38.57421875
-479.98046875,-885.7421875,-993.65234375,-34.1796875
-374.51171875,-1000.0,-1000.0,-32.2265625
219.7265625,194.82421875,89.84375,-41.50390625
428.22265625,999.51171875,999.51171875,-49.8046875
44.921875,897.4609375,438.4765625,-43.45703125
-441.40625,-299.31640625,-864.74609375,-42.48046875
-457.03125,-1000.0,-1000.0,-45.41015625
125.9765625,-201.66015625,-177.734375,-41.015625
445.3125,999.51171875,999.51171875,-38.57421875
103.515625,875.9765625,628.90625,-42.48046875
-410.15625,-426.7578125,-728.515625,-36.1328125
-489.74609375,-1000.0,-1000.0,-31.25
59.5703125,-231.4453125,-201.66015625,-42.96875
444.3359375,975.09765625,999.51171875,-48.828125
172.36328125,999.51171875,872.0703125,-46.875
-351.07421875,-57.6171875,-415.0390625,-41.9921875
-510.7421875,-1000.0,-1000.0,-31.25
-1.46484375,-377.44140625,-214.35546875,-33.69140625
430.17578125,916.50390625,999.51171875,-42.96875
225.5859375,999.51171875,996.09375,-42.96875
-298.828125,61.03515625,-173.828125,-43.45703125
-548.828125,-1000.0,-1000.0,-48.33984375
-90.33203125,-509.765625,-323.2421875,-54.19921875
408.203125,827.1484375,923.828125,-65.91796875
267.578125,999.51171875,999.51171875,-64.94140625
-235.3515625,346.19140625,121.09375,-72.75390625
-545.8984375,-1000.0,-1000.0,-112.3046875
-185.546875,-909.66796875,-535.15625,-93.75
355.95703125,459.47265625,819.3359375,-72.265625
297.36328125,999.51171875,999.51171875,-89.84375
-217.28515625,157.71484375,154.296875,-87.40234375
-556.640625,-1000.0,-1000.0,-60.546875
-241.2109375,-973.6328125,-727.5390625,-46.38671875
330.078125,284.66796875,627.9296875,-59.5703125
362.79296875,999.51171875,999.51171875,-64.453125
-126.953125,239.2578125,170.8984375,-58.59375
-535.64453125,-1000.0,-1000.0,-60.546875
-303.7109375,-902.83203125,-887.20703125,-61.5234375
295.8984375,403.80859375,407.71484375,-51.26953125
404.78515625,999.51171875,999.51171875,-44.43359375
-44.921875,451.171875,230.95703125,-39.55078125
-493.65234375,-853.515625,-1000.0,-29.78515625
-376.46484375,-1000.0,-1000.0,-33.69140625
212.40234375,-187.01171875,47.8515625,-51.26953125
422.8515625,999.51171875,999.51171875,-59.08203125
8.30078125,552.734375,354.00390625,-51.26953125
-482.421875,-825.1953125,-935.546875,-43.45703125
-428.22265625,-1000.0,-1000.0,-37.59765625
164.55078125,-209.47265625,-126.953125,-42.96875
441.89453125,999.51171875,999.51171875,-53.7109375
94.23828125,877.44140625,589.35546875,-52.24609375
-414.0625,-429.6875,-761.71875,-37.59765625
-479.4921875,-1000.0,-1000.0,-32.2265625
88.37890625,-226.5625,-203.125,-41.50390625
442.87109375,999.51171875,999.51171875,-51.7578125
146.97265625,975.09765625,781.25,-52.734375
-369.62890625,-269.53125,-550.29296875,-46.875
-513.18359375,-1000.0,-1000.0,-42.96875
19.04296875,-237.79296875,-191.40625,-45.41015625
436.5234375,941.89453125,999.51171875,-53.7109375
204.1015625,999.51171875,973.14453125,-46.38671875
-301.7578125,223.6328125,-213.37890625,-38.57421875
-536.62109375,-1000.0,-1000.0,-44.921875
-74.70703125,-625.9765625,-285.64453125,-42.48046875
417.48046875,766.6015625,954.58984375,-38.57421875
254.8828125,999.51171875,999.51171875,-50.29296875
-269.53125,178.7109375,13.18359375,-54.6875
-560.05859375,-1000.0,-1000.0,-43.9453125
-155.2734375,-746.58203125,-453.125,-39.55078125
384.27734375,627.44140625,868.65234375,-48.33984375
318.359375,999.51171875,999.51171875,-45.8984375
-196.2890625,196.2890625,140.625,-33.203125
-553.7109375,-1000.0,-1000.0,-37.109375
-206.54296875,-467.28515625,-581.0546875,-45.41015625
360.3515625,871.58203125,776.3671875,-41.50390625
346.19140625,999.51171875,999.51171875,-38.57421875
-129.39453125,403.3203125,177.734375,-40.52734375
-528.80859375,-927.24609375,-1000.0,-35.15625
-292.48046875,-1000.0,-888.671875,-31.25
295.8984375,75.1953125,412.109375,-43.9453125
389.16015625,999.51171875,999.51171875,-56.15234375
-68.359375,410.15625,190.4296875,-50.29296875
-501.46484375,-911.62109375,-1000.0,-41.9921875
-352.05078125,-1000.0,-1000.0,-46.38671875
234.86328125,-85.44921875,129.8828125,-50.29296875
421.38671875,999.51171875,999.51171875,-50.29296875
-1.46484375,510.7421875,298.33984375,-46.38671875
-479.4921875,-845.21484375,-963.37890625,-39.55078125
-413.0859375,-1000.0,-1000.0,-39.55078125
168.45703125,-205.56640625,-85.9375,-46.875
420.41015625,999.51171875,999.51171875,-52.734375
60.05859375,868.1640625,541.50390625,-48.828125
-435.546875,-447.75390625,-806.640625,-40.52734375
-471.6796875,-1000.0,-1000.0,-41.015625
106.93359375,-157.2265625,-190.91796875,-46.38671875
442.87109375,970.21484375,999.51171875,-44.43359375
138.671875,999.51171875,723.6328125,-39.55078125
-349.609375,172.8515625,-622.0703125,-35.64453125
-480.46875,-1000.0,-1000.0,-27.34375
33.203125,-404.78515625,-198.2421875,-31.25
427.734375,946.77734375,999.51171875,-41.50390625
175.29296875,999.51171875,906.25,-46.38671875
-340.8203125,-38.0859375,-351.07421875,-45.41015625
-541.50390625,-1000.0,-1000.0,-46.38671875
-55.6640625,-495.1171875,-252.44140625,-57.6171875
408.69140625,837.40234375,974.609375,-64.453125
226.5625,999.51171875,999.51171875,-61.5234375
-288.57421875,181.15234375,-72.75390625,-54.6875
-551.26953125,-1000.0,-1000.0,-45.41015625
-95.703125,-208.984375,-308.59375,-44.43359375
415.52734375,998.046875,942.87109375,-43.9453125
271.484375,999.51171875,999.51171875,-50.29296875
-239.74609375,202.1484375,88.37890625,-49.31640625
-553.22265625,-1000.0,-1000.0,-39.0625
-208.984375,-935.05859375,-606.4453125,-50.29296875
336.9140625,358.3984375,744.62890625,-62.98828125
326.66015625,999.51171875,999.51171875,-60.546875
-170.8984375,169.43359375,156.25,-50.29296875
-540.52734375,-1000.0,-1000.0,-45.41015625
-269.04296875,-1000.0,-826.171875,-44.921875
312.98828125,161.62109375,499.0234375,-42.48046875
376.953125,999.51171875,999.51171875,-47.36328125
-87.40234375,591.30859375,180.6640625,-36.1328125
-496.09375,-762.20703125,-1000.0,-15.13671875
-331.0546875,-1000.0,-992.1875,-37.109375
240.234375,-22.94921875,232.421875,-60.05859375
405.2734375,999.51171875,999.51171875,-52.24609375
-28.3203125,407.71484375,231.93359375,-58.10546875
-499.0234375,-914.0625,-998.53515625,-63.4765625
-392.08984375,-1000.0,-1000.0,-56.15234375
205.56640625,-158.203125,-7.8125,-57.6171875
432.12890625,999.51171875,999.51171875,-64.94140625
37.59765625,856.93359375,421.875,-71.2890625
-454.58984375,-444.82421875,-892.08984375,-70.3125
-448.73046875,-1000.0,-1000.0,-60.546875
135.7421875,-199.21875,-162.109375,-56.640625
443.84765625,999.51171875,999.51171875,-61.03515625
116.69921875,889.6484375,627.44140625,-52.734375
-397.94921875,-413.57421875,-729.00390625,-41.015625
-480.46875,-1000.0,-1000.0,-38.0859375
95.21484375,-170.8984375,-188.4765625,-35.64453125
460.44921875,992.67578125,999.51171875,-38.57421875
177.734375,999.51171875,879.8828125,-38.57421875
-323.73046875,-41.015625,-404.78515625,-27.34375
-490.234375,-1000.0,-1000.0,-22.94921875
35.64453125,-185.546875,-184.5703125,-28.3203125
462.890625,999.51171875,999.51171875,-31.73828125
227.05078125,999.51171875,985.83984375,-33.69140625
-287.59765625,1.953125,-183.59375,-41.50390625
-528.80859375,-1000.0,-1000.0,-42.48046875
-76.66015625,-533.69140625,-307.12890625,-40.0390625
430.17578125,811.5234375,939.453125,-43.45703125
291.015625,999.51171875,999.51171875,-45.41015625
-239.74609375,176.26953125,57.6171875,-41.015625
-544.43359375,-1000.0,-1000.0,-32.2265625
-155.2734375,-756.34765625,-493.1640625,-36.62109375
388.671875,607.91015625,838.8671875,-48.33984375
332.03125,999.51171875,999.51171875,-47.36328125
-173.33984375,208.0078125,175.78125,-42.96875
-537.59765625,-1000.0,-1000.0,-36.62109375
-247.55859375,-984.86328125,-717.28515625,-39.55078125
321.2890625,282.71484375,642.08984375,-52.24609375
352.5390625,999.51171875,999.51171875,-55.6640625
-130.859375,225.09765625,166.9921875,-48.33984375
-525.87890625,-1000.0,-1000.0,-32.71484375
-305.17578125,-1000.0,-925.78125,-29.296875
274.90234375,140.13671875,352.05078125,-47.8515625
392.08984375,999.51171875,999.51171875,-54.19921875
-61.5234375,361.81640625,204.1015625,-47.8515625
-503.41796875,-913.57421875,-1000.0,-47.8515625
-368.65234375,-1000.0,-1000.0,-46.38671875
208.0078125,-228.02734375,39.55078125,-49.8046875
416.9921875,999.51171875,999.51171875,-59.08203125
12.20703125,548.828125,334.47265625,-59.08203125
-470.703125,-835.44921875,-945.3125,-52.24609375
-419.921875,-1000.0,-1000.0,-48.33984375
159.66796875,-189.453125,-130.37109375,-52.24609375
440.91796875,999.51171875,999.51171875,-50.29296875
107.91015625,999.51171875,615.234375,-43.9453125
-393.06640625,-164.0625,-740.234375,-37.59765625
-456.54296875,-1000.0,-1000.0,-25.87890625
115.72265625,-187.01171875,-176.7578125,-32.71484375
452.63671875,999.51171875,999.51171875,-49.31640625
141.11328125,999.51171875,794.43359375,-49.31640625
-379.39453125,-157.2265625,-524.90234375,-49.8046875
-516.11328125,-1000.0,-1000.0,-50.78125
35.15625,-169.921875,-185.546875,-52.734375
430.6640625,988.28125,999.51171875,-62.5
179.19921875,999.51171875,985.83984375,-58.59375
-312.5,97.65625,-197.75390625,-40.52734375
-531.25,-1000.0,-1000.0,-26.85546875
-66.40625,-480.46875,-247.0703125,-32.71484375
412.109375,861.328125,963.37890625,-44.43359375
251.953125,999.51171875,999.51171875,-42.48046875
-253.41796875,208.984375,65.4296875,-29.78515625
-541.015625,-1000.0,-1000.0,-22.94921875
-123.53515625,-436.03515625,-366.2109375,-29.296875
410.15625,906.25,922.36328125,-39.0625
295.8984375,999.51171875,999.51171875,-45.41015625
-210.44921875,188.4765625,147.4609375,-39.0625
-543.45703125,-1000.0,-1000.0,-35.64453125
-223.14453125,-898.4375,-623.53515625,-38.57421875
338.8671875,419.921875,738.28125,-48.828125
335.44921875,999.51171875,999.51171875,-55.6640625
-160.15625,163.57421875,172.8515625,-43.9453125
-516.6015625,-1000.0,-1000.0,-24.4140625
-256.34765625,-1000.0,-825.68359375,-21.484375
309.08203125,190.91796875,499.0234375,-34.66796875
401.85546875,999.51171875,999.51171875,-42.96875
-68.84765625,363.76953125,191.89453125,-49.8046875
-501.46484375,-944.82421875,-1000.0,-43.9453125
-320.80078125,-1000.0,-1000.0,-39.0625
262.20703125,28.80859375,205.078125,-42.96875
422.36328125,999.51171875,999.51171875,-39.55078125
2.44140625,466.796875,283.203125,-33.69140625
-472.65625,-879.39453125,-972.65625,-32.2265625
-404.296875,-1000.0,-1000.0,-38.0859375
191.89453125,-111.328125,-38.0859375,-37.59765625
442.3828125,999.51171875,999.51171875,-41.015625
49.8046875,590.8203125,452.1484375,-51.26953125
-445.3125,-774.4140625,-871.58203125,-42.96875
-451.171875,-1000.0,-1000.0,-37.59765625
110.3515625,-180.6640625,-182.12890625,-54.19921875
417.48046875,992.1875,999.51171875,-71.77734375
114.2578125,999.51171875,745.60546875,-69.82421875
-382.32421875,-87.40234375,-593.26171875,-57.12890625
-496.58203125,-1000.0,-1000.0,-44.43359375
58.10546875,-179.19921875,-179.19921875,-43.45703125
445.80078125,975.5859375,999.51171875,-44.43359375
187.98828125,999.51171875,987.79296875,-49.31640625
-317.87109375,231.4453125,-199.21875,-52.734375
-533.69140625,-1000.0,-1000.0,-42.96875
-37.109375,-434.5703125,-217.28515625,-38.57421875
430.17578125,919.43359375,997.55859375,-48.33984375
234.375,999.51171875,999.51171875,-50.29296875
-280.76171875,109.375,-79.1015625,-44.43359375
-545.41015625,-1000.0,-1000.0,-44.43359375
-109.375,-592.28515625,-336.42578125,-42.96875
410.64453125,777.34375,925.78125,-41.9921875
289.0625,999.51171875,999.51171875,-47.8515625
-232.91015625,196.2890625,115.72265625,-55.17578125
-545.41015625,-1000.0,-1000.0,-49.8046875
-156.73828125,-295.41015625,-433.59375,-43.9453125
372.55859375,968.75,890.625,-48.33984375
308.10546875,999.51171875,999.51171875,-43.45703125
-182.6171875,179.19921875,168.9453125,-39.55078125
-550.29296875,-1000.0,-1000.0,-41.9921875
-264.16015625,-1000.0,-792.48046875,-37.109375
326.171875,141.11328125,548.828125,-35.64453125
395.01953125,999.51171875,999.51171875,-41.015625
-93.26171875,285.15625,172.36328125,-46.875
-523.92578125,-1000.0,-1000.0,-47.36328125
-328.61328125,-1000.0,-953.125,-44.921875
264.16015625,215.33203125,304.6875,-48.828125
399.90234375,999.51171875,999.51171875,-50.29296875
-49.31640625,395.99609375,236.81640625,-43.9453125
-498.046875,-888.671875,-995.1171875,-39.0625
-389.6484375,-1000.0,-1000.0,-40.52734375
193.359375,-203.61328125,6.8359375,-49.31640625
413.57421875,999.51171875,999.51171875,-56.640625
30.76171875,836.42578125,426.7578125,-53.22265625
-452.63671875,-490.234375,-890.13671875,-42.48046875
-452.1484375,-1000.0,-1000.0,-42.96875
129.39453125,-178.22265625,-141.11328125,-48.828125
431.15234375,999.51171875,999.51171875,-48.828125
107.421875,999.51171875,685.05859375,-42.96875
-395.5078125,-131.34765625,-660.15625,-38.0859375
-485.83984375,-1000.0,-1000.0,-36.62109375
64.453125,-268.06640625,-195.3125,-42.48046875
435.546875,944.3359375,999.51171875,-41.9921875
168.45703125,999.51171875,871.09375,-41.015625
-342.7734375,169.921875,-414.55078125,-43.9453125
-519.53125,-1000.0,-1000.0,-42.48046875
-4.39453125,-351.5625,-199.70703125,-57.12890625
429.6875,945.80078125,999.51171875,-65.4296875
209.47265625,999.51171875,999.51171875,-58.59375
-302.734375,165.0390625,-153.80859375,-47.8515625
-535.64453125,-1000.0,-1000.0,-38.57421875
-74.70703125,-510.7421875,-294.43359375,-41.9921875
409.1796875,857.421875,952.1484375,-55.17578125
258.30078125,999.51171875,999.51171875,-70.3125
-248.53515625,179.19921875,28.3203125,-70.80078125
-536.62109375,-1000.0,-1000.0,-68.359375
-150.390625,-752.9296875,-471.6796875,-77.1484375
375.0,602.5390625,850.09765625,-85.9375
310.05859375,999.51171875,999.51171875,-84.9609375
-186.03515625,295.8984375,176.26953125,-79.1015625
-533.69140625,-1000.0,-1000.0,-69.3359375
-233.88671875,-984.86328125,-708.984375,-71.77734375
328.61328125,315.91796875,652.83203125,-83.984375
368.65234375,999.51171875,999.51171875,-88.37890625
-125.9765625,208.984375,166.9921875,-90.33203125
-535.64453125,-1000.0,-1000.0,-86.9140625
-305.17578125,-1000.0,-928.7109375,-86.42578125
280.76171875,-1.953125,343.75,-86.9140625
396.97265625,999.51171875,999.51171875,-84.9609375
-52.24609375,456.54296875,214.35546875,-84.47265625
-487.3046875,-885.25390625,-1000.0,-73.73046875
-352.5390625,-1000.0,-1000.0,-75.1953125
230.46875,-92.7734375,102.05078125,-88.8671875
412.109375,999.51171875,999.51171875,-97.65625
12.6953125,974.609375,386.23046875,-96.19140625
-453.125,-212.40234375,-915.52734375,-86.42578125
-429.19921875,-1000.0,-1000.0,-80.56640625
151.85546875,-209.9609375,-108.88671875,-84.9609375
427.734375,999.51171875,999.51171875,-88.8671875
64.453125,845.703125,547.36328125,-89.84375
-437.5,-481.93359375,-799.8046875,-86.9140625
-480.46875,-1000.0,-1000.0,-83.49609375
93.26171875,-172.36328125,-187.01171875,-87.40234375
430.6640625,993.1640625,999.51171875,-94.23828125
131.8359375,999.51171875,793.9453125,-100.09765625
-367.67578125,-59.08203125,-527.83203125,-85.9375
-508.30078125,-1000.0,-1000.0,-71.77734375
31.73828125,-182.12890625,-185.05859375,-77.63671875
442.3828125,980.46875,999.51171875,-80.56640625
209.47265625,999.51171875,987.3046875,-79.1015625
-293.9453125,197.265625,-191.89453125,-67.87109375
-523.4375,-1000.0,-1000.0,-64.94140625
-54.6875,-572.265625,-275.87890625,-81.54296875
426.7578125,818.359375,970.21484375,-81.0546875
250.48828125,999.51171875,999.51171875,-77.1484375
-270.99609375,144.04296875,-54.6875,-81.54296875
-544.43359375,-1000.0,-1000.0,-79.1015625
-130.859375,-602.5390625,-408.203125,-78.61328125
398.92578125,776.85546875,892.08984375,-83.984375
310.546875,999.51171875,999.51171875,-76.66015625
-201.171875,168.45703125,110.83984375,-59.5703125
-539.0625,-1000.0,-1000.0,-59.08203125
-209.9609375,-958.984375,-645.5078125,-62.5
351.07421875,321.77734375,710.44921875,-67.3828125
355.46875,999.51171875,999.51171875,-74.21875
-150.390625,144.53125,166.015625,-74.21875
-532.2265625,-1000.0,-1000.0,-67.87109375
-268.06640625,-1000.0,-858.88671875,-64.94140625
307.12890625,97.16796875,453.61328125,-71.77734375
375.0,999.51171875,999.51171875,-84.47265625
-91.796875,578.61328125,192.3828125,-95.21484375
-512.6953125,-781.25,-1000.0,-84.47265625
-348.6328125,-1000.0,-1000.0,-76.66015625
247.0703125,-6.34765625,194.82421875,-80.56640625
430.6640625,999.51171875,999.51171875,-68.84765625
18.5546875,625.0,286.62109375,-61.03515625
-458.0078125,-715.8203125,-972.16796875,-63.4765625
-395.99609375,-1000.0,-1000.0,-63.96484375
188.96484375,-192.87109375,-35.64453125,-67.3828125
437.01171875,999.51171875,999.51171875,-73.2421875
59.5703125,816.89453125,470.21484375,-86.9140625
-436.5234375,-527.34375,-863.76953125,-89.35546875
-439.94140625,-1000.0,-1000.0,-78.125
133.30078125,-161.62109375,-147.94921875,-73.73046875
425.78125,999.51171875,999.51171875,-82.51953125
104.00390625,797.36328125,630.37109375,-83.0078125
-402.34375,-521.97265625,-718.26171875,-82.51953125
-512.20703125,-1000.0,-1000.0,-87.890625
41.50390625,-288.0859375,-206.54296875,-80.078125
439.453125,955.56640625,999.51171875,-76.171875
173.33984375,999.51171875,863.28125,-77.1484375
-349.609375,-97.65625,-427.734375,-73.2421875
-527.34375,-1000.0,-1000.0,-69.3359375
-6.34765625,-257.8125,-212.40234375,-60.546875
450.68359375,955.078125,995.60546875,-60.05859375
234.375,999.51171875,999.51171875,-73.73046875
-294.43359375,147.4609375,-113.28125,-79.1015625
-534.66796875,-1000.0,-1000.0,-67.3828125
-102.05078125,-622.55859375,-374.51171875,-65.4296875
389.16015625,753.90625,908.69140625,-77.63671875
267.08984375,999.51171875,999.51171875,-84.9609375
-247.0703125,175.78125,78.61328125,-84.47265625
-546.875,-1000.0,-1000.0,-69.3359375
-183.59375,-880.37109375,-566.89453125,-65.4296875
350.09765625,423.828125,782.2265625,-75.1953125
322.265625,999.51171875,999.51171875,-72.75390625
-160.64453125,369.140625,153.3203125,-63.96484375
-528.3203125,-990.72265625,-1000.0,-57.12890625
-253.41796875,-996.58203125,-784.1796875,-58.59375
325.68359375,319.82421875,559.5703125,-67.3828125
374.51171875,999.51171875,999.51171875,-68.84765625
-102.05078125,262.20703125,158.69140625,-60.546875
-504.8828125,-982.91015625,-1000.0,-51.7578125
-311.5234375,-1000.0,-976.07421875,-56.640625
266.6015625,5.37109375,258.30078125,-70.80078125
409.66796875,999.51171875,999.51171875,-66.89453125
-27.83203125,511.23046875,226.5625,-58.59375
-483.88671875,-883.30078125,-1000.0,-54.19921875
-366.69921875,-1000.0,-1000.0,-45.8984375
233.88671875,121.09375,67.87109375,-48.828125
438.4765625,999.51171875,999.51171875,-49.8046875
39.0625,680.6640625,362.3046875,-50.29296875
-441.40625,-632.8125,-928.7109375,-48.33984375
-417.48046875,-1000.0,-1000.0,-44.43359375
179.6875,-167.48046875,-128.41796875,-44.921875
454.1015625,999.51171875,999.51171875,-59.5703125
101.07421875,920.8984375,587.890625,-67.87109375
-393.06640625,-352.5390625,-761.71875,-57.6171875
-469.23828125,-1000.0,-1000.0,-54.6875
90.8203125,-182.6171875,-203.125,-58.10546875
449.21875,999.51171875,999.51171875,-62.5
151.3671875,999.51171875,801.7578125,-60.05859375
-365.72265625,-179.6875,-520.01953125,-47.8515625
-527.34375,-1000.0,-1000.0,-53.7109375
-9.765625,-294.921875,-199.21875,-65.4296875
422.36328125,930.17578125,999.51171875,-64.453125
201.171875,999.51171875,998.53515625,-66.89453125
-309.5703125,159.1796875,-173.33984375,-60.546875
-539.0625,-1000.0,-1000.0,-54.19921875
-57.12890625,-267.08984375,-254.8828125,-54.19921875
424.31640625,968.75,960.9375,-57.6171875
245.60546875,999.51171875,999.51171875,-70.80078125
-248.53515625,253.90625,77.1484375,-61.5234375
-541.015625,-1000.0,-1000.0,-51.7578125
-171.875,-869.62890625,-496.09375,-64.94140625
367.1875,471.6796875,843.26171875,-69.82421875
316.40625,999.51171875,999.51171875,-62.5
-185.546875,205.56640625,148.4375,-60.05859375
-540.52734375,-1000.0,-1000.0,-54.6875
-240.234375,-1000.0,-714.35546875,-50.29296875
331.54296875,217.7734375,642.08984375,-59.08203125
361.328125,999.51171875,999.51171875,-71.77734375
-126.46484375,230.46875,171.38671875,-69.3359375
-524.90234375,-1000.0,-1000.0,-64.453125
-280.2734375,-871.58203125,-844.23828125,-59.5703125
314.453125,466.796875,476.07421875,-47.36328125
396.97265625,999.51171875,999.51171875,-47.36328125
-79.58984375,195.80078125,179.6875,-57.6171875
-511.71875,-973.14453125,-1000.0,-54.19921875
-353.02734375,-1000.0,-1000.0,-46.38671875
230.46875,-236.81640625,81.0546875,-55.17578125
419.921875,999.51171875,999.51171875,-68.359375
15.13671875,629.8828125,327.63671875,-63.96484375
-454.1015625,-756.34765625,-949.21875,-51.26953125
-396.97265625,-1000.0,-1000.0,-51.26953125
181.15234375,-202.63671875,-104.4921875,-60.546875
438.96484375,999.51171875,999.51171875,-65.4296875
66.89453125,865.234375,532.2265625,-69.82421875
-441.40625,-452.63671875,-812.98828125,-64.94140625
-463.37890625,-1000.0,-1000.0,-47.8515625
121.09375,-178.7109375,-190.4296875,-44.921875
449.70703125,999.51171875,999.51171875,-57.12890625
146.484375,999.51171875,757.32421875,-56.640625
-351.5625,-146.97265625,-579.1015625,-49.31640625
-487.79296875,-1000.0,-1000.0,-45.8984375
34.66796875,-248.046875,-188.4765625,-52.24609375
438.4765625,946.77734375,999.51171875,-62.5
199.70703125,999.51171875,968.26171875,-65.4296875
-305.17578125,215.8203125,-233.88671875,-62.98828125
-521.484375,-1000.0,-1000.0,-60.546875
-48.33984375,-464.35546875,-239.74609375,-65.91796875
408.203125,893.5546875,978.515625,-77.63671875
223.14453125,999.51171875,999.51171875,-81.54296875
-281.25,165.52734375,-28.3203125,-71.77734375
-534.1796875,-1000.0,-1000.0,-53.22265625
-117.67578125,-777.34375,-399.4140625,-49.31640625
386.71875,583.984375,896.484375,-60.546875
295.41015625,999.51171875,999.51171875,-58.10546875
-208.984375,186.5234375,135.25390625,-53.22265625
-550.78125,-1000.0,-1000.0,-58.59375
-203.61328125,-707.03125,-543.45703125,-59.5703125
363.76953125,671.875,810.546875,-61.03515625
337.890625,999.51171875,999.51171875,-57.12890625
-161.62109375,185.546875,180.17578125,-52.24609375
-529.78515625,-1000.0,-1000.0,-51.7578125
-259.765625,-1000.0,-801.7578125,-48.828125
318.84765625,171.875,536.62109375,-49.31640625
393.5546875,999.51171875,999.51171875,-51.7578125
-81.54296875,358.3984375,185.546875,-53.22265625
-503.41796875,-937.98828125,-1000.0,-46.38671875
-326.171875,-1000.0,-992.67578125,-42.96875
257.32421875,-35.15625,227.5390625,-50.78125
419.921875,999.51171875,999.51171875,-58.10546875
-6.8359375,576.66015625,302.24609375,-52.734375
-482.421875,-795.8984375,-977.05078125,-48.33984375
-397.4609375,-1000.0,-1000.0,-51.7578125
199.21875,-72.265625,46.875,-59.08203125
424.8046875,999.51171875,999.51171875,-60.546875
41.50390625,638.18359375,431.640625,-55.17578125
-442.87109375,-711.9140625,-878.90625,-49.8046875
-446.2890625,-1000.0,-1000.0,-41.9921875
141.11328125,-175.78125,-154.296875,-41.9921875
458.49609375,987.79296875,999.51171875,-44.43359375
128.90625,999.51171875,701.171875,-41.015625
-370.1171875,-44.921875,-643.06640625,-33.203125
-465.8203125,-1000.0,-1000.0,-26.3671875
75.1953125,-206.0546875,-193.84765625,-32.71484375
438.96484375,999.51171875,999.51171875,-56.15234375
165.52734375,999.51171875,872.55859375,-62.98828125
-344.23828125,-147.94921875,-412.59765625,-52.734375
-519.04296875,-1000.0,-1000.0,-46.38671875
-10.7421875,-382.8125,-208.49609375,-49.31640625
437.01171875,890.13671875,997.0703125,-51.7578125
227.05078125,999.51171875,999.51171875,-56.15234375
-294.43359375,171.38671875,-111.81640625,-62.01171875
-549.31640625,-1000.0,-1000.0,-58.10546875
-84.9609375,-300.29296875,-277.34375,-49.31640625
412.59765625,961.9140625,954.1015625,-54.19921875
263.18359375,999.51171875,999.51171875,-54.6875
-234.86328125,225.09765625,94.23828125,-39.55078125
-550.29296875,-1000.0,-1000.0,-41.9921875
-174.31640625,-463.37890625,-455.56640625,-54.19921875
372.0703125,891.11328125,872.55859375,-55.6640625
309.5703125,999.51171875,999.51171875,-55.6640625
-185.546875,165.52734375,159.1796875,-54.6875
-536.62109375,-1000.0,-1000.0,-40.0390625
-247.0703125,-1000.0,-765.13671875,-37.59765625
326.171875,144.04296875,582.03125,-44.43359375
379.8828125,999.51171875,999.51171875,-45.41015625
-113.28125,230.95703125,160.15625,-44.921875
-527.34375,-991.69921875,-1000.0,-42.48046875
-315.4296875,-1000.0,-967.28515625,-41.9921875
274.4140625,-81.54296875,272.94921875,-43.9453125
408.203125,999.51171875,999.51171875,-50.29296875
-53.7109375,484.86328125,227.05078125,-52.24609375
-497.0703125,-868.1640625,-1000.0,-42.96875
-374.51171875,-1000.0,-1000.0,-48.828125
207.03125,-209.9609375,15.625,-59.5703125
428.22265625,999.51171875,999.51171875,-59.08203125
22.94921875,592.7734375,341.30859375,-63.4765625
-457.03125,-790.0390625,-940.91796875,-53.7109375
-419.921875,-1000.0,-1000.0,-39.55078125
163.0859375,-199.21875,-153.80859375,-42.96875
449.21875,999.51171875,999.51171875,-50.29296875
106.4453125,944.3359375,579.1015625,-44.43359375
-395.99609375,-321.2890625,-774.4140625,-35.15625
-467.28515625,-1000.0,-1000.0,-30.76171875
99.12109375,-166.9921875,-191.40625,-41.015625
457.51953125,986.81640625,999.51171875,-46.875
171.875,999.51171875,837.40234375,-45.8984375
-342.7734375,33.69140625,-469.23828125,-45.8984375
-511.71875,-1000.0,-1000.0,-39.55078125
33.203125,-193.84765625,-189.453125,-35.15625
457.03125,999.51171875,999.51171875,-37.109375
209.9609375,999.51171875,956.0546875,-42.48046875
-309.08203125,6.34765625,-251.46484375,-38.0859375
-538.57421875,-1000.0,-1000.0,-30.76171875
-61.5234375,-522.4609375,-291.50390625,-29.296875
424.31640625,820.3125,950.1953125,-34.66796875
266.6015625,999.51171875,999.51171875,-35.15625
-242.1875,194.82421875,8.30078125,-30.2734375
-543.9453125,-1000.0,-1000.0,-38.0859375
-142.08984375,-639.16015625,-424.8046875,-50.29296875
395.01953125,732.91015625,881.34765625,-52.24609375
317.3828125,999.51171875,999.51171875,-53.7109375
-177.734375,355.95703125,172.8515625,-58.59375
-526.85546875,-951.66015625,-1000.0,-48.33984375
-227.5390625,-1000.0,-713.37890625,-38.57421875
329.58984375,127.44140625,646.97265625,-50.78125
349.12109375,999.51171875,999.51171875,-54.6875
-144.53125,209.47265625,167.48046875,-51.26953125
-525.87890625,-1000.0,-1000.0,-51.7578125
-287.109375,-1000.0,-855.46875,-47.36328125
295.41015625,234.86328125,459.9609375,-49.8046875
388.18359375,999.51171875,999.51171875,-56.15234375
-87.40234375,309.5703125,182.12890625,-58.59375
-505.37109375,-939.453125,-1000.0,-46.38671875
-344.23828125,-1000.0,-1000.0,-39.0625
231.4453125,-172.36328125,107.91015625,-48.33984375
417.96875,999.51171875,999.51171875,-53.22265625
-2.9296875,471.19140625,286.62109375,-54.6875
-483.3984375,-890.625,-971.19140625,-56.15234375
-407.71484375,-1000.0,-1000.0,-56.640625
175.29296875,-196.77734375,-76.66015625,-57.12890625
427.24609375,999.51171875,999.51171875,-61.03515625
74.70703125,871.09375,505.37109375,-67.3828125
-427.24609375,-443.359375,-837.890625,-53.7109375
-463.8671875,-1000.0,-1000.0,-41.9921875
108.88671875,-159.1796875,-157.71484375,-51.26953125
423.828125,999.51171875,999.51171875,-59.08203125
106.4453125,961.9140625,708.49609375,-63.96484375
-396.484375,-261.23046875,-633.7890625,-58.59375
-519.53125,-1000.0,-1000.0,-51.7578125
18.06640625,-292.48046875,-200.68359375,-56.640625
435.546875,972.16796875,999.51171875,-58.10546875
181.15234375,999.51171875,889.16015625,-60.05859375
-350.5859375,-146.97265625,-381.8359375,-59.5703125
-535.15625,-1000.0,-1000.0,-55.6640625
-32.71484375,-344.7265625,-229.98046875,-61.5234375
428.7109375,904.78515625,971.6796875,-61.03515625
250.9765625,999.51171875,999.51171875,-53.7109375
-259.765625,212.40234375,-3.90625,-46.38671875
-537.109375,-1000.0,-1000.0,-39.0625
-117.1875,-676.7578125,-395.99609375,-45.41015625
394.04296875,713.37890625,904.296875,-58.10546875
283.203125,999.51171875,999.51171875,-65.4296875
-226.07421875,180.6640625,105.95703125,-62.01171875
-543.9453125,-1000.0,-1000.0,-55.6640625
-186.5234375,-819.3359375,-602.5390625,-50.78125
369.140625,534.1796875,755.859375,-51.7578125
336.9140625,999.51171875,999.51171875,-53.7109375
-173.828125,132.8125,148.4375,-55.17578125
-530.76171875,-1000.0,-1000.0,-51.26953125
-265.625,-1000.0,-876.953125,-45.8984375
292.96875,-67.87109375,425.78125,-50.78125
375.48828125,999.51171875,999.51171875,-58.59375
-96.6796875,310.546875,163.0859375,-64.453125
-518.06640625,-982.421875,-1000.0,-58.10546875
-332.03125,-1000.0,-1000.0,-51.26953125
249.0234375,-51.26953125,197.75390625,-54.6875
399.90234375,999.51171875,999.51171875,-55.6640625
-24.4140625,563.96484375,253.41796875,-48.828125
-478.02734375,-839.35546875,-998.53515625,-36.62109375
-383.30078125,-1000.0,-1000.0,-34.66796875
208.984375,99.609375,37.109375,-44.921875
434.08203125,999.51171875,999.51171875,-50.78125
48.828125,719.7265625,422.36328125,-45.8984375
-433.10546875,-582.51953125,-884.27734375,-32.71484375
-434.08203125,-1000.0,-1000.0,-25.390625
144.04296875,-183.59375,-183.59375,-21.97265625
453.125,999.51171875,999.51171875,-25.390625
133.7890625,999.51171875,641.6015625,-28.3203125
-368.1640625,-193.84765625,-715.33203125,-19.53125
-470.21484375,-1000.0,-1000.0,-16.11328125
81.0546875,-218.75,-195.3125,-34.1796875
457.03125,955.078125,999.51171875,-42.48046875
200.1953125,999.51171875,911.1328125,-41.9921875
-302.734375,201.171875,-351.5625,-33.203125
-493.1640625,-1000.0,-1000.0,-23.4375
30.76171875,-211.42578125,-193.84765625,-28.3203125
460.9375,999.51171875,999.51171875,-33.69140625
218.75,999.51171875,989.2578125,-40.52734375
-287.59765625,73.73046875,-178.22265625,-34.66796875
-525.390625,-1000.0,-1000.0,-26.85546875
-69.82421875,-570.80078125,-325.1953125,-27.34375
441.89453125,787.109375,929.6875,-31.25
306.640625,999.51171875,999.51171875,-37.109375
-204.58984375,188.96484375,70.3125,-33.69140625
-506.8359375,-1000.0,-1000.0,-26.85546875
-132.8125,-779.296875,-511.71875,-25.87890625
397.4609375,589.84375,829.1015625,-28.80859375
336.42578125,999.51171875,999.51171875,-36.1328125
-165.0390625,170.41015625,158.203125,-35.64453125
-521.484375,-1000.0,-1000.0,-31.73828125
-226.5625,-887.20703125,-685.05859375,-36.1328125
334.9609375,428.22265625,674.8046875,-47.8515625
365.72265625,999.51171875,999.51171875,-50.78125
-111.328125,222.16796875,169.921875,-41.50390625
-515.625,-1000.0,-1000.0,-30.76171875
-293.9453125,-1000.0,-915.0390625,-28.80859375
301.7578125,186.03515625,369.62890625,-33.69140625
411.62109375,999.51171875,999.51171875,-45.41015625
-46.38671875,352.05078125,210.9375,-46.875
-494.140625,-918.45703125,-1000.0,-40.0390625
-357.421875,-1000.0,-1000.0,-35.15625
231.4453125,-194.3359375,55.6640625,-35.64453125
423.33984375,999.51171875,999.51171875,-47.36328125
31.25,608.88671875,345.703125,-39.0625
-435.546875,-771.484375,-940.91796875,-20.01953125
-405.76171875,-1000.0,-1000.0,-23.4375
165.0390625,-189.94140625,-111.328125,-36.1328125
432.6171875,999.51171875,999.51171875,-41.015625
93.26171875,994.140625,614.74609375,-41.9921875
-394.53125,-213.8671875,-734.86328125,-33.69140625
-458.49609375,-1000.0,-1000.0,-22.4609375
108.88671875,-183.59375,-190.4296875,-24.4140625
453.125,988.76953125,999.51171875,-28.80859375
151.3671875,999.51171875,851.5625,-33.69140625
-340.8203125,22.4609375,-450.68359375,-24.90234375
-487.3046875,-1000.0,-1000.0,-13.18359375
36.1328125,-262.20703125,-190.91796875,-16.11328125
461.42578125,989.74609375,999.51171875,-22.4609375
218.75,999.51171875,954.1015625,-30.76171875
-308.59375,-45.41015625,-268.5546875,-33.203125
-525.390625,-1000.0,-1000.0,-20.99609375
-23.92578125,-174.31640625,-210.44921875,-18.5546875
437.5,987.3046875,984.86328125,-31.73828125
240.234375,999.51171875,999.51171875,-43.45703125
-260.7421875,172.8515625,-3.41796875,-39.55078125
-532.2265625,-1000.0,-1000.0,-22.94921875
-126.953125,-687.01171875,-407.2265625,-23.92578125
402.83203125,688.96484375,893.06640625,-33.203125
314.94140625,999.51171875,999.51171875,-42.48046875
-189.94140625,177.24609375,144.04296875,-44.43359375
-530.2734375,-1000.0,-1000.0,-34.66796875
-213.37890625,-852.5390625,-633.30078125,-28.3203125
355.95703125,489.2578125,729.4921875,-34.66796875
353.02734375,999.51171875,999.51171875,-46.38671875
-158.203125,136.23046875,161.1328125,-53.22265625
-535.15625,-1000.0,-1000.0,-47.8515625
-292.96875,-1000.0,-899.90234375,-43.9453125
274.4140625,-5.37109375,395.01953125,-46.875
382.8125,999.51171875,999.51171875,-45.41015625
-83.0078125,263.18359375,164.0625,-39.0625
-511.23046875,-991.69921875,-1000.0,-27.83203125
-334.9609375,-1000.0,-1000.0,-20.99609375
246.58203125,-48.828125,114.2578125,-29.78515625
407.71484375,999.51171875,999.51171875,-42.48046875
-10.25390625,887.20703125,312.5,-45.8984375
-487.3046875,-363.28125,-952.63671875,-47.36328125
-443.84765625,-1000.0,-1000.0,-47.36328125
153.3203125,-208.984375,-114.74609375,-51.26953125
418.9453125,999.51171875,999.51171875,-53.22265625
51.7578125,803.22265625,417.48046875,-48.828125
-438.96484375,-540.0390625,-902.34375,-51.26953125
-463.8671875,-1000.0,-1000.0,-53.22265625
109.86328125,-203.125,-216.30859375,-50.78125
436.5234375,999.51171875,999.51171875,-50.29296875
121.58203125,862.79296875,611.328125,-53.22265625
-391.6015625,-452.63671875,-753.41796875,-49.31640625
-492.67578125,-1000.0,-1000.0,-41.50390625
48.33984375,-209.47265625,-207.03125,-48.33984375
430.6640625,980.95703125,999.51171875,-57.12890625
172.36328125,999.51171875,865.234375,-59.5703125
-351.07421875,-50.78125,-420.41015625,-57.6171875
-542.96875,-1000.0,-1000.0,-57.12890625
-44.921875,-388.18359375,-250.0,-63.96484375
419.43359375,892.578125,980.95703125,-52.734375
234.86328125,999.51171875,999.51171875,-44.921875
-278.3203125,211.42578125,-109.375,-47.8515625
-546.875,-1000.0,-1000.0,-48.33984375
-126.953125,-650.87890625,-408.203125,-48.828125
400.390625,741.2109375,893.06640625,-47.8515625
294.921875,999.51171875,999.51171875,-56.640625
-221.6796875,174.31640625,77.63671875,-66.89453125
-534.1796875,-1000.0,-1000.0,-59.08203125
-183.59375,-894.53125,-611.328125,-52.24609375
371.09375,428.22265625,743.65234375,-51.26953125
352.05078125,999.51171875,999.51171875,-52.24609375
-153.3203125,147.94921875,148.92578125,-56.640625
-518.06640625,-1000.0,-1000.0,-58.59375
-244.62890625,-1000.0,-812.98828125,-48.828125
316.40625,155.2734375,515.13671875,-49.31640625
382.32421875,999.51171875,999.51171875,-49.8046875
-72.75390625,587.890625,172.36328125,-40.0390625
-489.74609375,-758.7890625,-1000.0,-37.59765625
-317.87109375,-1000.0,-999.51171875,-35.64453125
267.578125,-65.91796875,213.8671875,-35.64453125
406.25,999.51171875,999.51171875,-45.8984375
-29.78515625,468.26171875,240.72265625,-52.24609375
-476.5625,-879.8828125,-994.62890625,-39.0625
-371.58203125,-1000.0,-1000.0,-22.4609375
211.42578125,-199.21875,-15.13671875,-28.80859375
437.5,999.51171875,999.51171875,-38.57421875
63.96484375,844.23828125,428.7109375,-36.62109375
-430.6640625,-514.16015625,-898.92578125,-43.45703125
-422.8515625,-1000.0,-1000.0,-38.57421875
162.59765625,5.37109375,-91.30859375,-30.76171875
443.359375,999.51171875,999.51171875,-39.55078125
116.2109375,965.8203125,643.5546875,-42.96875
-389.6484375,-204.1015625,-695.3125,-40.0390625
-483.88671875,-1000.0,-1000.0,-39.55078125
80.078125,-234.375,-202.63671875,-40.0390625
450.68359375,999.51171875,999.51171875,-37.59765625
177.734375,990.72265625,821.77734375,-37.109375
-334.9609375,-213.37890625,-492.1875,-41.50390625
-504.8828125,-1000.0,-1000.0,-36.62109375
11.71875,-388.671875,-208.984375,-21.484375
448.2421875,893.5546875,999.51171875,-27.83203125
231.4453125,999.51171875,999.51171875,-43.45703125
-290.0390625,93.75,-161.1328125,-47.8515625
-531.25,-1000.0,-1000.0,-45.8984375
-83.49609375,-532.71484375,-308.59375,-40.0390625
413.0859375,830.078125,940.4296875,-42.48046875
286.1328125,999.51171875,999.51171875,-47.36328125
-228.02734375,187.98828125,52.734375,-46.875
-528.3203125,-1000.0,-1000.0,-40.52734375
-141.6015625,-741.2109375,-484.375,-34.1796875
389.6484375,607.91015625,845.21484375,-35.64453125
323.2421875,999.51171875,999.51171875,-42.96875
-155.76171875,442.87109375,163.57421875,-45.8984375
-520.5078125,-908.69140625,-1000.0,-42.96875
-250.0,-1000.0,-750.9765625,-41.50390625
317.87109375,154.296875,602.05078125,-48.828125
359.375,999.51171875,999.51171875,-53.22265625
-123.53515625,163.57421875,161.1328125,-54.6875
-529.296875,-1000.0,-1000.0,-57.12890625
-298.33984375,-1000.0,-925.78125,-47.8515625
293.45703125,71.77734375,347.65625,-36.1328125
407.2265625,999.51171875,999.51171875,-44.921875
-45.41015625,482.91015625,215.8203125,-55.17578125
-496.09375,-913.0859375,-1000.0,-51.7578125
-353.02734375,-1000.0,-1000.0,-40.0390625
239.2578125,193.359375,164.55078125,-40.52734375
415.52734375,999.51171875,999.51171875,-45.8984375
25.87890625,761.71875,362.79296875,-41.9921875
-453.61328125,-510.25390625,-919.43359375,-41.9921875
-436.5234375,-1000.0,-1000.0,-40.52734375
150.390625,-205.078125,-141.6015625,-38.0859375
421.875,999.51171875,999.51171875,-48.828125
62.5,839.35546875,535.15625,-58.59375
-433.10546875,-491.2109375,-815.91796875,-56.15234375
-477.5390625,-1000.0,-1000.0,-48.828125
95.703125,-157.2265625,-176.26953125,-42.48046875
429.19921875,968.75,999.51171875,-45.8984375
145.99609375,999.51171875,849.12109375,-59.5703125
-358.3984375,171.875,-449.21875,-63.4765625
-518.06640625,-1000.0,-1000.0,-54.6875
23.4375,-271.484375,-191.40625,-45.8984375
427.24609375,999.51171875,999.51171875,-50.29296875
178.7109375,999.51171875,942.3828125,-60.05859375
-328.61328125,-32.71484375,-283.69140625,-54.19921875
-538.57421875,-1000.0,-1000.0,-45.41015625
-59.5703125,-534.66796875,-257.8125,-46.875
406.25,801.26953125,961.42578125,-59.5703125
238.28125,999.51171875,999.51171875,-70.3125
-255.859375,209.9609375,20.01953125,-72.265625
-539.55078125,-1000.0,-1000.0,-62.01171875
-125.48828125,-593.75,-389.16015625,-43.45703125
404.296875,801.7578125,910.15625,-41.015625
291.9921875,999.51171875,999.51171875,-54.6875
-221.19140625,152.83203125,111.328125,-66.89453125
-552.24609375,-1000.0,-1000.0,-66.89453125
-224.12109375,-979.4921875,-639.6484375,-61.03515625
335.9375,269.53125,715.33203125,-57.12890625
333.0078125,999.51171875,999.51171875,-54.19921875
-157.71484375,249.0234375,173.828125,-62.5
-538.0859375,-1000.0,-1000.0,-60.05859375
-272.94921875,-860.83984375,-788.0859375,-46.38671875
314.94140625,475.09765625,554.19921875,-44.43359375
376.46484375,999.51171875,999.51171875,-49.8046875
-92.7734375,380.859375,192.3828125,-53.7109375
-523.4375,-979.98046875,-1000.0,-55.17578125
-354.00390625,-1000.0,-962.890625,-53.22265625
242.1875,296.875,286.62109375,-52.24609375
387.20703125,999.51171875,999.51171875,-55.17578125
-41.015625,426.7578125,271.97265625,-57.12890625
-499.0234375,-866.69921875,-970.703125,-52.24609375
-422.36328125,-1000.0,-1000.0,-47.8515625
173.33984375,-211.9140625,-54.19921875,-46.875
425.29296875,999.51171875,999.51171875,-47.36328125
63.96484375,858.3984375,491.2109375,-51.26953125
-424.31640625,-461.9140625,-845.703125,-41.9921875
-451.171875,-1000.0,-1000.0,-31.25
122.0703125,-181.640625,-170.8984375,-31.73828125
431.15234375,999.51171875,999.51171875,-40.52734375
117.67578125,999.51171875,706.54296875,-45.41015625
-378.41796875,-183.59375,-639.16015625,-41.015625
-492.67578125,-1000.0,-1000.0,-34.66796875
60.546875,-160.15625,-185.05859375,-33.69140625
433.59375,974.609375,999.51171875,-42.48046875
177.24609375,999.51171875,948.73046875,-48.33984375
-307.6171875,233.3984375,-271.97265625,-49.8046875
-520.5078125,-1000.0,-1000.0,-46.875
-36.62109375,-484.86328125,-226.07421875,-39.55078125
426.26953125,884.27734375,992.1875,-41.015625
236.81640625,999.51171875,999.51171875,-43.45703125
-272.4609375,169.43359375,-86.9140625,-41.9921875
-521.484375,-1000.0,-1000.0,-36.1328125
-74.70703125,-446.77734375,-312.01171875,-24.4140625
413.0859375,894.53125,937.98828125,-34.1796875
267.08984375,999.51171875,999.51171875,-52.734375
-240.234375,213.8671875,108.3984375,-52.734375
-554.19921875,-1000.0,-1000.0,-47.36328125
-183.59375,-559.5703125,-469.23828125,-39.0625
382.8125,832.51953125,865.72265625,-31.73828125
339.35546875,999.51171875,999.51171875,-45.41015625
-168.45703125,157.2265625,165.52734375,-53.7109375
-528.3203125,-1000.0,-1000.0,-46.38671875
-245.60546875,-1000.0,-765.625,-48.828125
326.66015625,127.9296875,581.0546875,-45.8984375
372.0703125,999.51171875,999.51171875,-57.6171875
-107.91015625,273.4375,173.33984375,-69.82421875
-505.859375,-991.69921875,-1000.0,-55.6640625
-312.01171875,-1000.0,-949.70703125,-48.33984375
270.5078125,35.64453125,303.22265625,-51.7578125
417.96875,999.51171875,999.51171875,-52.734375
-7.8125,619.62890625,292.96875,-56.15234375
-478.02734375,-738.28125,-988.28125,-61.5234375
-376.46484375,-1000.0,-1000.0,-53.22265625
223.6328125,-59.5703125,107.91015625,-42.96875
427.24609375,999.51171875,999.51171875,-48.828125
32.2265625,611.81640625,391.11328125,-60.546875
-435.546875,-745.60546875,-909.66796875,-57.12890625
-405.76171875,-1000.0,-1000.0,-45.41015625
170.41015625,-163.57421875,-108.88671875,-40.52734375
440.91796875,999.51171875,999.51171875,-43.9453125
96.19140625,958.0078125,629.39453125,-55.6640625
-395.01953125,-270.01953125,-715.33203125,-62.98828125
-477.05078125,-1000.0,-1000.0,-60.05859375
83.49609375,-208.984375,-189.453125,-51.7578125
448.2421875,999.0234375,999.51171875,-49.31640625
172.36328125,999.51171875,861.328125,-48.828125
-334.47265625,-112.3046875,-432.6171875,-45.8984375
-491.69921875,-1000.0,-1000.0,-31.73828125
30.2734375,-321.2890625,-188.96484375,-28.80859375
439.453125,936.5234375,999.51171875,-43.45703125
208.49609375,999.51171875,999.51171875,-56.15234375
-294.921875,55.6640625,-162.109375,-53.22265625
-524.4140625,-1000.0,-1000.0,-33.203125
-36.62109375,-183.10546875,-212.40234375,-26.3671875
438.4765625,990.72265625,977.5390625,-33.69140625
256.8359375,999.51171875,999.51171875,-45.8984375
-248.53515625,213.37890625,83.49609375,-55.6640625
-545.8984375,-1000.0,-1000.0,-46.38671875
-154.78515625,-800.78125,-459.47265625,-40.52734375
380.859375,560.546875,870.1171875,-45.8984375
312.5,999.51171875,999.51171875,-58.59375
-201.66015625,158.69140625,161.62109375,-66.89453125
-553.22265625,-1000.0,-1000.0,-61.5234375
-238.28125,-974.12109375,-667.96875,-54.19921875
331.54296875,286.1328125,695.3125,-53.22265625
352.05078125,999.51171875,999.51171875,-59.08203125
-146.97265625,201.66015625,172.8515625,-65.91796875
-544.921875,-1000.0,-1000.0,-62.01171875
-298.828125,-1000.0,-893.5546875,-42.96875
290.0390625,46.38671875,401.85546875,-40.0390625
393.06640625,999.51171875,999.51171875,-55.17578125
-58.10546875,406.73828125,208.984375,-61.03515625
-507.32421875,-903.80859375,-1000.0,-59.08203125
-379.8828125,-1000.0,-1000.0,-54.6875
212.890625,-156.25,104.4921875,-53.7109375
402.34375,999.51171875,999.51171875,-64.94140625
2.9296875,752.9296875,347.65625,-71.77734375
-461.9140625,-593.26171875,-942.87109375,-61.5234375
-412.59765625,-1000.0,-1000.0,-48.33984375
179.19921875,-180.17578125,-64.453125,-47.36328125
434.5703125,999.51171875,999.51171875,-57.12890625
74.70703125,954.58984375,566.89453125,-63.4765625
-417.96875,-299.31640625,-776.3671875,-59.5703125
-475.5859375,-1000.0,-1000.0,-57.12890625
100.09765625,-167.96875,-153.3203125,-53.7109375
437.98828125,988.28125,999.51171875,-53.7109375
137.6953125,999.51171875,831.0546875,-60.546875
-364.74609375,27.83203125,-471.19140625,-52.24609375
-506.8359375,-1000.0,-1000.0,-33.69140625
44.921875,-179.6875,-177.24609375,-31.73828125
444.3359375,989.2578125,999.51171875,-46.875
189.94140625,999.51171875,978.02734375,-54.6875
-317.3828125,211.9140625,-208.0078125,-54.19921875
-534.66796875,-1000.0,-1000.0,-44.921875
-52.734375,-592.7734375,-242.67578125,-31.25
423.33984375,795.41015625,973.6328125,-30.2734375
255.859375,999.51171875,999.51171875,-36.62109375
-259.765625,177.734375,3.90625,-37.59765625
-541.9921875,-1000.0,-1000.0,-36.1328125
-123.53515625,-767.578125,-406.73828125,-25.390625
393.5546875,599.609375,893.06640625,-28.80859375
290.0390625,999.51171875,999.51171875,-48.828125
-212.890625,170.41015625,157.71484375,-52.734375
-546.875,-1000.0,-1000.0,-44.921875
-218.26171875,-973.6328125,-625.48828125,-36.1328125
343.75,267.08984375,738.76953125,-42.96875
346.19140625,999.51171875,999.51171875,-44.921875
-135.7421875,439.453125,180.17578125,-41.50390625
-527.34375,-939.453125,-1000.0,-37.109375
-278.3203125,-1000.0,-801.7578125,-29.78515625
307.6171875,243.65234375,539.0625,-35.64453125
378.41796875,999.51171875,999.51171875,-39.55078125
-91.30859375,227.05078125,172.36328125,-39.0625
-506.34765625,-986.81640625,-1000.0,-38.57421875
-329.1015625,-1000.0,-1000.0,-35.64453125
255.859375,-89.84375,202.63671875,-22.94921875
423.33984375,999.51171875,999.51171875,-24.90234375
-11.71875,505.859375,279.296875,-44.921875
-495.1171875,-850.5859375,-976.5625,-50.78125
-414.55078125,-1000.0,-1000.0,-41.015625
180.6640625,-180.17578125,-22.94921875,-37.59765625
428.7109375,999.51171875,999.51171875,-32.71484375
59.5703125,903.3203125,492.67578125,-31.25
-448.73046875,-386.23046875,-847.16796875,-43.45703125
-473.6328125,-1000.0,-1000.0,-43.45703125
126.46484375,-168.9453125,-130.859375,-35.15625
432.6171875,999.51171875,999.51171875,-38.0859375
91.30859375,924.8046875,672.36328125,-45.41015625
-412.109375,-346.6796875,-669.921875,-47.36328125
-510.25390625,-1000.0,-1000.0,-44.921875
50.29296875,-167.48046875,-187.5,-40.52734375
429.19921875,987.79296875,999.51171875,-39.55078125
155.76171875,999.51171875,900.390625,-44.921875
-351.5625,27.83203125,-363.76953125,-50.78125
-531.73828125,-1000.0,-1000.0,-44.921875
-16.11328125,-328.125,-199.21875,-35.15625
434.5703125,927.734375,985.3515625,-37.109375
226.07421875,999.51171875,999.51171875,-40.52734375
-279.78515625,237.3046875,-11.71875,-38.0859375
-541.015625,-1000.0,-1000.0,-26.3671875
-115.234375,-763.671875,-361.328125,-22.4609375
392.578125,617.1875,924.31640625,-28.3203125
271.484375,999.51171875,999.51171875,-42.96875
-241.69921875,175.78125,85.44921875,-49.31640625
-545.41015625,-1000.0,-1000.0,-37.59765625
-170.8984375,-839.84375,-523.4375,-32.71484375
368.65234375,505.37109375,821.77734375,-38.0859375
322.75390625,999.51171875,999.51171875,-46.38671875
-179.19921875,164.0625,159.66796875,-46.875
-534.66796875,-1000.0,-1000.0,-35.15625
-233.88671875,-928.22265625,-724.609375,-25.87890625
321.2890625,358.88671875,629.39453125,-30.2734375
358.88671875,999.51171875,999.51171875,-42.48046875
-117.1875,231.93359375,162.59765625,-41.50390625
-526.85546875,-997.0703125,-1000.0,-35.64453125
-316.40625,-1000.0,-960.9375,-32.71484375
268.5546875,26.3671875,289.0625,-27.83203125
406.25,999.51171875,999.51171875,-35.15625
-38.57421875,375.9765625,213.37890625,-44.921875
-487.3046875,-950.1953125,-1000.0,-29.78515625
-366.2109375,-1000.0,-1000.0,-14.6484375
220.21484375,15.625,56.640625,-27.34375
419.43359375,999.51171875,999.51171875,-36.62109375
9.27734375,537.59765625,343.75,-42.96875
-462.40234375,-799.31640625,-936.03515625,-42.48046875
-420.41015625,-1000.0,-1000.0,-28.3203125
169.43359375,-198.2421875,-147.94921875,-26.85546875
465.8203125,999.51171875,999.51171875,-23.92578125
126.46484375,961.42578125,599.609375,-25.390625
-414.0625,-285.15625,-753.90625,-58.59375
-526.85546875,-1000.0,-1000.0,-82.03125
38.57421875,-198.2421875,-199.21875,-76.171875
390.13671875,962.890625,999.51171875,-83.984375
104.98046875,999.51171875,840.33203125,-97.16796875
-394.53125,162.109375,-465.33203125,-88.37890625
-554.6875,-1000.0,-1000.0,-78.125
-35.15625,-342.28515625,-197.75390625,-81.0546875
392.578125,959.47265625,999.51171875,-89.35546875
163.57421875,999.51171875,968.26171875,-95.21484375
-346.19140625,71.2890625,-229.98046875,-87.890625
-549.31640625,-1000.0,-1000.0,-67.3828125
-65.4296875,-462.40234375,-281.25,-52.734375
417.96875,875.0,961.9140625,-59.5703125
244.62890625,999.51171875,999.51171875,-71.77734375
-274.90234375,159.66796875,-27.83203125,-74.21875
-556.640625,-1000.0,-1000.0,-59.5703125
-153.3203125,-648.4375,-428.22265625,-49.31640625
371.58203125,734.375,880.859375,-58.10546875
285.15625,999.51171875,999.51171875,-63.4765625
-208.49609375,185.05859375,135.7421875,-56.15234375
-538.57421875,-1000.0,-1000.0,-43.45703125
-224.12109375,-783.203125,-647.4609375,-39.0625
340.33203125,569.82421875,713.37890625,-45.8984375
346.6796875,999.51171875,999.51171875,-55.17578125
-136.23046875,272.94921875,168.45703125,-51.26953125
-529.296875,-988.76953125,-1000.0,-39.55078125
-304.6875,-1000.0,-898.92578125,-36.1328125
280.2734375,110.3515625,395.5078125,-42.48046875
389.6484375,999.51171875,999.51171875,-49.8046875
-67.87109375,377.44140625,195.80078125,-47.36328125
-512.6953125,-915.0390625,-1000.0,-40.52734375
-364.2578125,-1000.0,-1000.0,-38.57421875
223.14453125,-170.8984375,118.1640625,-46.38671875
396.484375,999.51171875,999.51171875,-54.6875
-20.01953125,541.9921875,297.8515625,-59.5703125
-485.83984375,-830.078125,-962.890625,-52.734375
-423.33984375,-1000.0,-1000.0,-44.921875
171.875,-167.48046875,-90.8203125,-46.875
422.36328125,971.19140625,999.51171875,-55.17578125
84.47265625,999.51171875,618.1640625,-61.5234375
-402.34375,86.42578125,-736.328125,-58.59375
-468.26171875,-1000.0,-1000.0,-47.36328125
125.9765625,-167.48046875,-144.53125,-39.0625
456.0546875,999.51171875,999.51171875,-31.25
145.01953125,954.58984375,721.19140625,-24.4140625
-372.55859375,-261.71875,-617.1875,-41.50390625
-520.01953125,-1000.0,-1000.0,-51.26953125
18.06640625,-273.92578125,-191.89453125,-45.8984375
419.43359375,929.19921875,999.51171875,-54.6875
176.26953125,999.51171875,946.77734375,-59.5703125
-325.1953125,205.56640625,-273.4375,-52.24609375
-525.87890625,-1000.0,-1000.0,-39.0625
-48.33984375,-506.8359375,-238.28125,-41.015625
416.015625,869.62890625,980.95703125,-53.22265625
203.125,999.51171875,999.51171875,-55.6640625
-335.44921875,158.69140625,-50.78125,-46.38671875
-572.75390625,-1000.0,-1000.0,-39.0625
-135.25390625,-571.77734375,-347.16796875,-39.0625
382.32421875,806.15234375,921.38671875,-44.921875
273.4375,999.51171875,999.51171875,-54.19921875
-227.05078125,188.96484375,125.0,-46.875
-541.015625,-1000.0,-1000.0,-40.0390625
-186.5234375,-793.45703125,-563.4765625,-44.43359375
372.55859375,567.87109375,791.9921875,-41.50390625
354.00390625,999.51171875,999.51171875,-44.921875
-148.4375,194.3359375,168.9453125,-44.43359375
-529.78515625,-1000.0,-1000.0,-42.96875
-258.7890625,-1000.0,-794.43359375,-40.52734375
325.68359375,226.07421875,546.38671875,-45.41015625
381.34765625,999.51171875,999.51171875,-65.4296875
-103.515625,273.4375,171.875,-68.359375
-512.20703125,-979.4921875,-1000.0,-57.6171875
-323.2421875,-1000.0,-982.91015625,-47.8515625
253.41796875,15.625,241.2109375,-51.7578125
404.296875,999.51171875,999.51171875,-53.22265625
-13.18359375,786.62109375,284.66796875,-49.31640625
-475.09765625,-506.34765625,-972.16796875,-44.43359375
-391.6015625,-1000.0,-1000.0,-31.73828125
203.125,-201.171875,-21.484375,-33.203125
428.7109375,999.51171875,999.51171875,-49.8046875
44.43359375,750.0,429.6875,-57.12890625
-444.82421875,-613.28125,-887.20703125,-46.875
-450.68359375,-1000.0,-1000.0,-36.1328125
132.8125,-201.66015625,-175.29296875,-36.62109375
437.01171875,999.51171875,999.51171875,-51.26953125
101.5625,879.39453125,639.6484375,-60.546875
-400.390625,-431.640625,-719.7265625,-51.7578125
-482.421875,-1000.0,-1000.0,-42.48046875
84.9609375,-177.24609375,-186.03515625,-42.48046875
448.73046875,999.51171875,999.51171875,-41.015625
162.109375,999.51171875,854.00390625,-42.96875
-351.5625,-174.8046875,-441.40625,-48.828125
-520.5078125,-1000.0,-1000.0,-41.50390625
9.27734375,-241.2109375,-193.359375,-39.0625
443.359375,950.1953125,999.51171875,-46.875
218.75,999.51171875,999.51171875,-53.22265625
-273.4375,191.89453125,-104.4921875,-38.57421875
-515.625,-1000.0,-1000.0,-25.390625
-92.7734375,-620.1171875,-322.75390625,-35.64453125
411.1328125,769.04296875,937.5,-43.45703125
286.62109375,999.51171875,999.51171875,-40.52734375
-231.93359375,165.52734375,64.94140625,-34.1796875
-530.2734375,-1000.0,-1000.0,-35.64453125
-157.2265625,-836.42578125,-496.58203125,-30.2734375
372.0703125,505.859375,838.8671875,-26.85546875
325.68359375,999.51171875,999.51171875,-37.109375
-167.96875,144.53125,160.64453125,-44.921875
-526.3671875,-1000.0,-1000.0,-45.41015625
-239.74609375,-1000.0,-757.32421875,-35.15625
323.2421875,98.14453125,589.84375,-36.62109375
376.46484375,999.51171875,999.51171875,-37.59765625
-80.56640625,554.6875,178.22265625,-30.2734375
-494.62890625,-795.41015625,-1000.0,-31.25
-311.5234375,-1000.0,-966.796875,-32.2265625
273.4375,-71.2890625,286.62109375,-34.1796875
404.296875,999.51171875,999.51171875,-40.0390625
-54.6875,266.6015625,191.40625,-42.48046875
-501.953125,-987.3046875,-1000.0,-43.9453125
-370.60546875,-1000.0,-1000.0,-51.26953125
215.8203125,-180.6640625,42.96875,-52.24609375
427.734375,999.51171875,999.51171875,-52.734375
29.78515625,728.02734375,357.421875,-52.734375
-452.1484375,-670.8984375,-941.89453125,-49.8046875
-422.8515625,-1000.0,-1000.0,-51.7578125
166.50390625,26.85546875,-69.82421875,-46.875
430.6640625,999.51171875,999.51171875,-45.8984375
62.98828125,771.97265625,544.921875,-53.22265625
-407.2265625,-525.87890625,-793.9453125,-41.015625
-448.73046875,-1000.0,-1000.0,-27.83203125
104.98046875,-166.9921875,-179.6875,-28.3203125
453.125,982.421875,999.51171875,-34.66796875
153.80859375,999.51171875,811.5234375,-44.921875
-354.4921875,30.2734375,-499.0234375,-47.36328125
-513.18359375,-1000.0,-1000.0,-39.55078125
24.4140625,-284.66796875,-187.5,-35.15625
449.21875,969.23828125,999.51171875,-38.57421875
207.51953125,999.51171875,971.6796875,-48.33984375
-309.08203125,49.8046875,-223.14453125,-51.26953125
-539.55078125,-1000.0,-1000.0,-44.921875
-70.3125,-474.609375,-263.671875,-41.9921875
421.875,859.86328125,964.84375,-35.64453125
260.25390625,999.51171875,999.51171875,-42.48046875
-255.37109375,197.75390625,5.859375,-57.6171875
-534.66796875,-1000.0,-1000.0,-45.8984375
-127.44140625,-642.08984375,-412.59765625,-24.4140625
392.578125,725.09765625,889.16015625,-38.57421875
292.48046875,999.51171875,999.51171875,-63.4765625
-188.96484375,437.5,166.9921875,-58.59375
-528.3203125,-943.84765625,-1000.0,-45.41015625
-223.14453125,-1000.0,-652.34375,-20.5078125
342.28515625,298.828125,713.8671875,-30.2734375
332.51953125,999.51171875,999.51171875,-78.61328125
-168.9453125,172.36328125,169.921875,-89.84375
-555.17578125,-1000.0,-1000.0,-80.56640625
-297.8515625,-862.3046875,-818.359375,-78.61328125
275.390625,448.2421875,511.71875,-84.47265625
334.9609375,999.51171875,999.51171875,-103.515625
-140.13671875,369.140625,191.40625,-131.8359375
-578.125,-957.51953125,-1000.0,-135.25390625
-422.36328125,-1000.0,-988.28125,-128.90625
166.50390625,189.94140625,235.3515625,-138.671875
335.9375,999.51171875,999.51171875,-147.4609375
-75.1953125,777.34375,327.1484375,-152.34375
-546.875,-491.2109375,-943.84765625,-151.85546875
-493.65234375,-1000.0,-1000.0,-143.5546875
100.5859375,-206.0546875,-63.4765625,-136.23046875
354.4921875,999.51171875,999.51171875,-134.765625
-23.4375,704.1015625,459.47265625,-134.27734375
-510.7421875,-670.41015625,-868.1640625,-134.27734375
-522.94921875,-1000.0,-1000.0,-125.0
54.6875,-188.96484375,-185.546875,-117.1875
375.9765625,999.51171875,999.51171875,-127.44140625
68.359375,979.98046875,713.37890625,-133.30078125
-436.5234375,-247.55859375,-634.27734375,-121.58203125
-541.015625,-1000.0,-1000.0,-99.12109375
25.390625,-191.40625,-191.40625,-80.56640625
416.9921875,969.23828125,999.51171875,-77.63671875
169.43359375,999.51171875,945.80078125,-73.2421875
-336.42578125,141.11328125,-288.0859375,-68.84765625
-551.7578125,-1000.0,-1000.0,-63.4765625
-45.41015625,-288.0859375,-209.47265625,-52.734375
434.08203125,958.984375,984.375,-50.29296875
242.67578125,999.51171875,999.51171875,-46.875
-261.23046875,243.65234375,-6.8359375,-41.9921875
-531.73828125,-1000.0,-1000.0,-38.57421875
-109.375,-663.0859375,-374.51171875,-30.2734375
410.64453125,738.28125,919.921875,-26.85546875
290.52734375,999.51171875,999.51171875,-35.64453125
-223.6328125,154.296875,79.1015625,-43.9453125
-523.92578125,-1000.0,-1000.0,-31.25
-168.9453125,-888.18359375,-571.2890625,-19.04296875
373.046875,426.26953125,777.34375,-24.90234375
348.14453125,999.51171875,999.51171875,-38.0859375
-153.80859375,214.84375,176.7578125,-48.33984375
-518.5546875,-1000.0,-1000.0,-37.109375
-233.3984375,-727.5390625,-734.86328125,-21.484375
328.61328125,639.6484375,620.1171875,-27.34375
375.48828125,999.51171875,999.51171875,-36.1328125
-92.7734375,318.359375,174.31640625,-32.2265625
-506.34765625,-941.40625,-1000.0,-18.5546875
-317.3828125,-1000.0,-986.328125,-18.06640625
268.06640625,-53.22265625,242.67578125,-26.85546875
416.50390625,999.51171875,999.51171875,-37.109375
-32.2265625,416.9921875,231.4453125,-47.8515625
-501.46484375,-908.203125,-996.09375,-45.41015625
-408.69140625,-1000.0,-1000.0,-42.48046875
179.6875,-161.62109375,-19.04296875,-45.41015625
403.80859375,999.51171875,999.51171875,-62.98828125
4.39453125,954.58984375,466.30859375,-86.42578125
-499.51171875,-288.0859375,-863.28125,-96.19140625
-506.34765625,-1000.0,-1000.0,-94.7265625
68.84765625,-202.63671875,-158.203125,-104.00390625
357.421875,999.51171875,999.51171875,-120.60546875
19.53125,876.953125,611.81640625,-135.7421875
-480.95703125,-433.10546875,-744.62890625,-136.71875
-569.82421875,-1000.0,-1000.0,-131.34765625
-16.11328125,-166.9921875,-201.171875,-139.6484375
360.3515625,961.9140625,999.51171875,-141.6015625
68.359375,999.51171875,853.515625,-149.90234375
-433.59375,224.609375,-438.4765625,-148.4375
-593.75,-1000.0,-1000.0,-123.046875
-77.63671875,-482.421875,-215.33203125,-102.5390625
385.25390625,896.97265625,999.51171875,-92.28515625
193.359375,999.51171875,999.51171875,-92.28515625
-306.640625,71.77734375,-166.9921875,-86.42578125
-534.1796875,-1000.0,-1000.0,-65.91796875
-68.84765625,-589.35546875,-324.70703125,-47.36328125
440.4296875,772.94921875,936.5234375,-35.15625
307.6171875,999.51171875,999.51171875,-31.73828125
-206.54296875,198.73046875,33.203125,-27.83203125
-498.046875,-1000.0,-1000.0,-12.6953125
-94.23828125,-345.21484375,-418.9453125,-3.41796875
437.01171875,948.2421875,891.6015625,-3.41796875
351.07421875,999.51171875,999.51171875,-13.18359375
-149.4140625,203.61328125,148.92578125,-14.16015625
-482.91015625,-1000.0,-1000.0,-6.8359375
-170.8984375,-820.80078125,-694.3359375,9.765625
407.71484375,521.484375,665.0390625,21.97265625
440.91796875,999.51171875,999.51171875,20.01953125
-47.36328125,233.3984375,166.50390625,19.53125
-456.0546875,-992.1875,-1000.0,18.06640625
-245.60546875,-1000.0,-932.6171875,21.97265625
330.078125,27.83203125,336.9140625,20.01953125
450.1953125,999.51171875,999.51171875,14.6484375
9.27734375,499.51171875,221.6796875,8.30078125
-427.24609375,-837.40234375,-1000.0,12.6953125
-296.875,-1000.0,-1000.0,26.85546875
290.52734375,-190.91796875,64.453125,33.69140625
493.1640625,999.51171875,999.51171875,27.34375
83.984375,737.3046875,361.81640625,8.7890625
-395.5078125,-638.18359375,-936.03515625,16.11328125
-354.00390625,-1000.0,-1000.0,29.78515625
239.2578125,-122.55859375,-86.9140625,19.53125
500.0,999.51171875,999.51171875,12.6953125
133.30078125,824.21875,545.41015625,8.30078125
-382.8125,-489.2578125,-797.36328125,6.8359375
-492.1875,-1000.0,-1000.0,7.8125
59.08203125,-180.6640625,-187.01171875,8.7890625
437.5,992.1875,999.51171875,3.90625
152.83203125,999.51171875,809.5703125,-4.39453125
-359.375,-65.4296875,-509.27734375,-14.6484375
-500.9765625,-1000.0,-1000.0,-11.71875
28.3203125,-304.19921875,-192.87109375,-1.953125
451.171875,984.86328125,999.51171875,-1.953125
-61.5234375,999.51171875,938.96484375,-10.7421875
-822.265625,-173.828125,-299.8046875,-10.25390625
-1000.0,-1000.0,-1000.0,-0.9765625
-643.5546875,-163.57421875,-211.42578125,-2.9296875
-31.25,979.4921875,984.86328125,-16.11328125
-50.29296875,999.51171875,999.51171875,-27.34375
-463.8671875,183.59375,-20.99609375,-25.87890625
-664.55078125,-1000.0,-1000.0,-25.390625
-206.54296875,-658.69140625,-402.34375,-26.3671875
366.2109375,724.12109375,895.5078125,-22.4609375
312.5,999.51171875,999.51171875,-30.2734375
-175.78125,172.8515625,130.37109375,-24.4140625
-485.3515625,-1000.0,-1000.0,-9.27734375
-146.97265625,-894.04296875,-624.51171875,-13.671875
410.15625,406.25,732.91015625,-33.69140625
416.015625,999.51171875,999.51171875,-50.29296875
-68.84765625,328.125,179.19921875,-49.31640625
-448.2421875,-969.23828125,-1000.0,-38.57421875
-196.77734375,-1000.0,-849.609375,-32.71484375
377.9296875,125.48828125,470.21484375,-37.59765625
468.75,999.51171875,999.51171875,-45.41015625
6.8359375,272.4609375,171.38671875,-50.78125
-420.8984375,-973.6328125,-1000.0,-43.9453125
-252.9296875,-1000.0,-1000.0,-35.15625
342.28515625,-93.75,152.83203125,-31.73828125
515.625,999.51171875,999.51171875,-36.1328125
82.51953125,656.25,272.4609375,-48.828125
-387.20703125,-694.3359375,-978.515625,-44.921875
-314.94140625,-1000.0,-1000.0,-26.85546875
270.5078125,-200.68359375,-49.8046875,-24.4140625
511.71875,999.51171875,999.51171875,-38.57421875
129.8828125,775.87890625,451.66015625,-42.48046875
-366.2109375,-577.1484375,-872.55859375,-43.45703125
-375.0,-1000.0,-1000.0,-35.15625
201.66015625,-203.125,-175.29296875,-27.34375
519.53125,999.51171875,999.51171875,-34.1796875
195.80078125,862.79296875,667.96875,-42.96875
-322.265625,-458.0078125,-684.5703125,-43.9453125
-419.43359375,-1000.0,-1000.0,-29.78515625
142.578125,-164.0625,-184.08203125,-28.3203125
512.6953125,994.62890625,999.51171875,-41.50390625
234.86328125,999.51171875,907.2265625,-49.31640625
-273.92578125,-39.0625,-349.609375,-45.41015625
-462.40234375,-1000.0,-1000.0,-38.57421875
39.0625,-369.62890625,-208.0078125,-34.66796875
493.65234375,909.1796875,992.1875,-33.69140625
286.62109375,999.51171875,999.51171875,-58.10546875
-239.74609375,162.59765625,-71.2890625,-71.77734375
-500.0,-1000.0,-1000.0,-59.08203125
-54.19921875,-525.390625,-321.2890625,-48.33984375
459.47265625,846.6796875,930.17578125,-48.828125
326.171875,999.51171875,999.51171875,-54.6875
-187.98828125,174.31640625,137.6953125,-59.5703125
-504.8828125,-1000.0,-1000.0,-52.734375
-143.5546875,-950.68359375,-573.73046875,-34.1796875
412.109375,335.9375,785.64453125,-29.296875
368.1640625,999.51171875,999.51171875,-47.8515625
-145.99609375,162.109375,165.52734375,-61.03515625
-503.41796875,-1000.0,-1000.0,-52.24609375
-218.75,-947.265625,-747.55859375,-38.0859375
355.95703125,325.68359375,605.46875,-34.1796875
404.296875,999.51171875,999.51171875,-34.1796875
-87.890625,273.4375,174.8046875,-44.921875
-503.90625,-1000.0,-1000.0,-55.17578125
-289.0625,-996.09375,-914.55078125,-46.38671875
309.08203125,270.01953125,363.76953125,-33.69140625
432.12890625,999.51171875,999.51171875,-49.31640625
-29.296875,346.19140625,221.6796875,-69.82421875
-473.6328125,-915.0390625,-1000.0,-55.17578125
-345.703125,-1000.0,-1000.0,-33.69140625
227.5390625,-203.61328125,12.6953125,-43.45703125
458.49609375,999.51171875,999.51171875,-54.6875
74.70703125,794.921875,422.36328125,-55.6640625
-433.10546875,-553.22265625,-899.4140625,-62.5
-412.109375,-1000.0,-1000.0,-53.7109375
185.05859375,-140.625,-105.46875,-42.96875
473.14453125,999.51171875,999.51171875,-43.45703125
127.9296875,999.51171875,634.27734375,-47.8515625
-380.859375,-177.734375,-708.0078125,-47.36328125
-463.37890625,-1000.0,-1000.0,-38.0859375
106.93359375,-176.26953125,-188.96484375,-28.80859375
471.6796875,999.51171875,999.51171875,-36.62109375
188.4765625,999.51171875,863.28125,-49.8046875
-325.1953125,-17.578125,-428.22265625,-50.78125
-496.58203125,-1000.0,-1000.0,-39.55078125
26.85546875,-289.55078125,-188.4765625,-36.62109375
463.8671875,941.89453125,999.51171875,-39.55078125
239.2578125,999.51171875,999.51171875,-46.875
-277.83203125,214.35546875,-104.98046875,-52.24609375
-515.625,-1000.0,-1000.0,-37.59765625
-60.05859375,-613.76953125,-309.5703125,-34.66796875
429.19921875,763.671875,942.3828125,-44.43359375
276.3671875,999.51171875,999.51171875,-52.24609375
-228.515625,290.52734375,72.75390625,-51.26953125
-521.97265625,-1000.0,-1000.0,-35.15625
-156.73828125,-935.546875,-494.62890625,-29.78515625
381.8359375,395.01953125,840.8203125,-33.203125
334.47265625,999.51171875,999.51171875,-43.9453125
-167.96875,204.58984375,164.55078125,-52.24609375
-513.671875,-1000.0,-1000.0,-36.62109375
-218.75,-1000.0,-685.546875,-23.4375
330.078125,248.53515625,675.78125,-34.66796875
362.79296875,999.51171875,999.51171875,-47.36328125
-118.1640625,224.609375,169.43359375,-50.78125
-518.5546875,-1000.0,-1000.0,-53.22265625
-281.73828125,-1000.0,-881.8359375,-42.96875
305.17578125,123.53515625,414.0625,-31.73828125
406.25,999.51171875,999.51171875,-33.69140625
-44.921875,641.6015625,246.09375,-45.41015625
-488.76953125,-735.3515625,-1000.0,-41.015625
-346.19140625,-1000.0,-1000.0,-22.94921875
258.30078125,107.421875,161.1328125,-15.13671875
434.08203125,999.51171875,999.51171875,-29.78515625
0.0,488.28125,315.91796875,-50.78125
-469.7265625,-833.984375,-948.2421875,-44.921875
-412.109375,-1000.0,-1000.0,-35.15625
175.78125,-217.28515625,-108.88671875,-31.25
445.80078125,999.51171875,999.51171875,-36.62109375
77.1484375,822.265625,516.6015625,-49.8046875
-423.828125,-515.625,-826.171875,-42.48046875
-462.890625,-1000.0,-1000.0,-35.15625
103.515625,-161.62109375,-188.4765625,-32.71484375
441.89453125,960.9375,999.51171875,-36.62109375
154.78515625,999.51171875,844.23828125,-53.7109375
-353.02734375,229.98046875,-458.49609375,-59.5703125
-512.6953125,-1000.0,-1000.0,-48.33984375
19.04296875,-371.09375,-190.91796875,-31.25
440.91796875,958.49609375,999.51171875,-27.83203125
202.63671875,999.51171875,948.73046875,-40.0390625
-311.03515625,49.31640625,-274.90234375,-44.43359375
-530.76171875,-1000.0,-1000.0,-37.109375
-42.96875,-431.640625,-251.953125,-25.87890625
440.91796875,886.71875,972.65625,-28.80859375
251.46484375,999.51171875,999.51171875,-45.8984375
-274.4140625,190.91796875,-39.55078125,-51.7578125
-535.64453125,-1000.0,-1000.0,-33.203125
-104.98046875,-328.125,-346.6796875,-22.94921875
404.296875,952.63671875,923.828125,-34.1796875
302.24609375,999.51171875,999.51171875,-39.0625
-199.21875,187.5,116.2109375,-38.0859375
-534.1796875,-1000.0,-1000.0,-42.96875
-212.890625,-975.09765625,-628.90625,-44.43359375
338.37890625,293.45703125,729.00390625,-38.57421875
340.33203125,999.51171875,999.51171875,-41.50390625
-165.52734375,158.203125,156.25,-47.8515625
-528.3203125,-1000.0,-1000.0,-37.109375
-258.30078125,-980.46875,-821.77734375,-27.34375
317.87109375,270.99609375,506.8359375,-30.76171875
396.97265625,999.51171875,999.51171875,-36.1328125
-91.796875,212.890625,167.48046875,-45.41015625
-518.06640625,-986.328125,-1000.0,-46.38671875
-329.58984375,-1000.0,-1000.0,-30.76171875
253.41796875,-118.1640625,163.57421875,-30.76171875
415.0390625,999.51171875,999.51171875,-41.50390625
-12.6953125,567.87109375,278.80859375,-48.828125
-477.5390625,-794.921875,-975.09765625,-45.41015625
-396.97265625,-1000.0,-1000.0,-31.73828125
182.6171875,-175.29296875,-48.828125,-27.83203125
430.6640625,999.51171875,999.51171875,-36.1328125
67.87109375,999.51171875,509.27734375,-49.8046875
-423.828125,-123.046875,-827.1484375,-47.8515625
-448.73046875,-1000.0,-1000.0,-39.55078125
127.9296875,-201.66015625,-184.08203125,-36.1328125
453.61328125,999.51171875,999.51171875,-42.48046875
131.34765625,945.3125,663.57421875,-52.734375
-389.6484375,-304.6875,-689.94140625,-46.875
-494.140625,-1000.0,-1000.0,-38.57421875
51.7578125,-266.6015625,-202.1484375,-35.64453125
436.5234375,972.16796875,999.51171875,-40.52734375
164.0625,999.51171875,872.0703125,-53.7109375
-345.703125,-104.4921875,-414.55078125,-51.7578125
-518.06640625,-1000.0,-1000.0,-41.015625
-7.8125,-242.67578125,-206.54296875,-36.1328125
438.96484375,961.9140625,999.51171875,-36.62109375
224.609375,999.51171875,999.51171875,-47.36328125
-304.6875,137.6953125,-146.484375,-67.87109375
-562.01171875,-1000.0,-1000.0,-73.2421875
-111.81640625,-523.92578125,-327.63671875,-54.19921875
383.30078125,842.28515625,930.17578125,-63.4765625
229.4921875,999.51171875,999.51171875,-99.609375
-307.6171875,191.40625,74.70703125,-116.2109375
-622.55859375,-1000.0,-1000.0,-118.65234375
-256.8359375,-796.875,-544.43359375,-110.3515625
281.73828125,568.84765625,804.19921875,-123.53515625
213.37890625,999.51171875,999.51171875,-165.52734375
-320.3125,153.3203125,155.76171875,-188.96484375
-698.2421875,-1000.0,-1000.0,-199.21875
-421.38671875,-1000.0,-736.81640625,-199.21875
147.4609375,214.84375,614.74609375,-206.0546875
180.6640625,999.51171875,999.51171875,-239.2578125
-315.91796875,243.1640625,171.38671875,-263.671875
-721.19140625,-981.4453125,-1000.0,-259.765625
-513.18359375,-1000.0,-961.9140625,-242.67578125
55.17578125,-65.91796875,281.73828125,-246.09375
195.3125,999.51171875,999.51171875,-252.44140625
-217.28515625,799.31640625,264.6484375,-246.09375
-654.296875,-534.1796875,-989.2578125,-229.98046875
-540.52734375,-1000.0,-1000.0,-206.54296875
58.59375,-51.7578125,39.55078125,-194.3359375
282.2265625,999.51171875,999.51171875,-188.96484375
-108.3984375,677.734375,362.79296875,-185.05859375
-584.47265625,-673.828125,-930.6640625,-176.26953125
-530.76171875,-1000.0,-1000.0,-140.625
85.9375,-150.390625,-133.30078125,-106.93359375
373.046875,999.51171875,999.51171875,-102.5390625
46.38671875,937.98828125,580.078125,-101.07421875
-416.015625,-318.84765625,-772.4609375,-80.078125
-479.98046875,-1000.0,-1000.0,-67.87109375
77.1484375,-173.828125,-193.359375,-56.640625
439.453125,999.51171875,999.51171875,-41.015625
160.64453125,999.51171875,789.0625,-42.48046875
-339.35546875,-104.00390625,-535.15625,-26.85546875
-486.81640625,-1000.0,-1000.0,-2.9296875
58.10546875,-168.9453125,-185.05859375,0.9765625
484.86328125,983.88671875,999.51171875,1.953125
246.58203125,999.51171875,988.76953125,-0.48828125
-252.44140625,177.24609375,-185.05859375,0.9765625
-481.4453125,-1000.0,-1000.0,21.484375
-5.37109375,-484.86328125,-273.92578125,55.17578125
500.48828125,876.953125,959.9609375,50.78125
337.40234375,999.51171875,999.51171875,31.73828125
-184.08203125,150.390625,22.4609375,30.2734375
-473.6328125,-1000.0,-1000.0,29.78515625
-79.58984375,-733.88671875,-427.734375,37.59765625
462.890625,633.7890625,885.7421875,41.50390625
391.11328125,999.51171875,999.51171875,26.85546875
-137.6953125,186.5234375,148.92578125,9.765625
-485.83984375,-1000.0,-1000.0,4.8828125
-147.4609375,-717.7734375,-610.3515625,20.01953125
424.31640625,643.06640625,751.46484375,31.25
407.2265625,999.51171875,999.51171875,9.27734375
-76.66015625,609.375,169.43359375,-11.71875
-455.078125,-711.9140625,-1000.0,3.90625
-253.90625,-1000.0,-916.50390625,17.08984375
329.58984375,-82.03125,364.2578125,23.92578125
448.2421875,999.51171875,999.51171875,17.08984375
-14.16015625,389.6484375,202.63671875,-10.25390625
-451.171875,-935.546875,-1000.0,-9.765625
-311.03515625,-1000.0,-1000.0,5.859375
275.390625,-160.64453125,122.55859375,9.765625
466.30859375,999.51171875,999.51171875,0.0
40.0390625,504.8828125,312.98828125,-24.90234375
-431.15234375,-902.34375,-967.28515625,-24.90234375
-349.609375,-1000.0,-1000.0,0.48828125
236.81640625,15.13671875,-15.625,4.39453125
479.00390625,999.51171875,999.51171875,-13.671875
94.23828125,580.078125,472.65625,-34.66796875
-409.1796875,-761.23046875,-851.5625,-41.50390625
-427.24609375,-1000.0,-1000.0,-28.3203125
150.390625,-183.59375,-186.03515625,-6.8359375
478.02734375,998.046875,999.51171875,-3.90625
176.7578125,999.51171875,764.16015625,-24.4140625
-337.40234375,-121.09375,-567.3828125,-32.2265625
-486.81640625,-1000.0,-1000.0,-20.99609375
59.5703125,-257.8125,-191.89453125,-9.765625
479.4921875,964.84375,999.51171875,-10.7421875
228.02734375,999.51171875,949.21875,-29.78515625
-294.921875,52.24609375,-274.90234375,-38.0859375
-502.44140625,-1000.0,-1000.0,-28.80859375
-17.08984375,-445.80078125,-232.91015625,-23.4375
443.84765625,877.9296875,980.46875,-31.25
257.32421875,999.51171875,999.51171875,-42.96875
-260.7421875,186.03515625,-35.64453125,-51.26953125
-530.2734375,-1000.0,-1000.0,-43.9453125
-109.86328125,-661.1328125,-378.90625,-20.5078125
398.4375,710.9375,902.34375,-20.5078125
307.12890625,999.51171875,999.51171875,-38.57421875
-186.5234375,308.59375,160.64453125,-49.31640625
-531.25,-1000.0,-1000.0,-44.43359375
-202.1484375,-945.80078125,-608.3984375,-24.4140625
367.67578125,389.6484375,757.8125,-13.18359375
366.69921875,999.51171875,999.51171875,-20.99609375
-140.13671875,169.921875,169.43359375,-36.62109375
-515.625,-1000.0,-1000.0,-36.1328125
-255.37109375,-1000.0,-836.42578125,-14.16015625
311.5234375,43.45703125,488.76953125,-7.32421875
388.671875,999.51171875,999.51171875,-35.64453125
-100.5859375,211.9140625,166.9921875,-59.08203125
-527.34375,-1000.0,-1000.0,-57.6171875
-323.73046875,-1000.0,-978.02734375,-30.2734375
271.484375,154.78515625,255.859375,-14.6484375
427.734375,999.51171875,999.51171875,-25.390625
-26.85546875,303.22265625,222.16796875,-48.828125
-500.9765625,-937.98828125,-992.67578125,-59.5703125
-395.5078125,-1000.0,-1000.0,-41.9921875
189.453125,-218.26171875,-65.4296875,-29.296875
434.5703125,999.51171875,999.51171875,-34.66796875
61.5234375,930.17578125,434.08203125,-50.29296875
-430.6640625,-340.8203125,-888.671875,-54.19921875
-445.3125,-1000.0,-1000.0,-37.59765625
139.16015625,-188.4765625,-161.62109375,-24.90234375
462.890625,999.51171875,999.51171875,-29.78515625
121.09375,975.5859375,671.875,-50.29296875
-393.5546875,-251.46484375,-677.24609375,-60.546875
-481.4453125,-1000.0,-1000.0,-41.015625
75.68359375,-219.23828125,-195.80078125,-18.5546875
452.63671875,953.61328125,999.51171875,-27.83203125
179.6875,999.51171875,885.25390625,-46.38671875
-331.54296875,196.2890625,-387.20703125,-48.33984375
-516.11328125,-1000.0,-1000.0,-42.96875
-16.11328125,-410.64453125,-210.9375,-26.85546875
439.453125,914.0625,998.53515625,-21.484375
237.3046875,999.51171875,999.51171875,-39.0625
-270.99609375,212.40234375,-113.76953125,-50.29296875
-521.484375,-1000.0,-1000.0,-46.38671875
-91.796875,-646.97265625,-327.1484375,-28.80859375
415.52734375,751.46484375,938.4765625,-24.4140625
272.4609375,999.51171875,999.51171875,-49.8046875
-258.30078125,155.2734375,42.96875,-66.40625
-545.8984375,-1000.0,-1000.0,-52.734375
-148.92578125,-613.76953125,-479.4921875,-26.3671875
388.671875,769.04296875,851.5625,-26.3671875
322.75390625,999.51171875,999.51171875,-50.29296875
-189.94140625,200.1953125,150.390625,-66.40625
-534.66796875,-1000.0,-1000.0,-60.05859375
-195.80078125,-401.3671875,-623.046875,-35.64453125
366.2109375,907.71484375,738.28125,-24.4140625
357.91015625,999.51171875,999.51171875,-47.8515625
-131.34765625,359.375,169.921875,-73.73046875
-534.66796875,-934.5703125,-1000.0,-69.82421875
-324.21875,-1000.0,-964.84375,-47.8515625
255.859375,-45.41015625,280.76171875,-36.62109375
392.08984375,999.51171875,999.51171875,-50.78125
-45.8984375,471.19140625,221.6796875,-63.4765625
-492.67578125,-872.55859375,-1000.0,-59.5703125
-371.58203125,-1000.0,-1000.0,-42.96875
209.47265625,-216.796875,23.92578125,-27.34375
428.7109375,999.51171875,999.51171875,-30.76171875
28.80859375,617.67578125,352.5390625,-55.6640625
-459.9609375,-770.01953125,-937.01171875,-62.5
-425.29296875,-1000.0,-1000.0,-37.109375
156.25,-195.3125,-139.16015625,-21.484375
441.40625,999.51171875,999.51171875,-29.296875
95.21484375,964.35546875,597.65625,-50.78125
-419.921875,-286.1328125,-757.32421875,-62.01171875
-480.95703125,-1000.0,-1000.0,-45.8984375
86.42578125,-159.1796875,-183.10546875,-36.62109375
431.15234375,975.5859375,999.51171875,-44.921875
155.76171875,999.51171875,826.171875,-56.15234375
-344.7265625,172.8515625,-481.4453125,-60.05859375
-508.30078125,-1000.0,-1000.0,-46.38671875
16.11328125,-385.25390625,-203.125,-22.4609375
440.4296875,987.3046875,999.51171875,-22.94921875
206.0546875,999.51171875,930.6640625,-41.50390625
-312.98828125,-200.68359375,-308.10546875,-62.5
-523.92578125,-1000.0,-1000.0,-58.59375
-45.8984375,-444.3359375,-270.99609375,-34.1796875
445.3125,851.5625,956.54296875,-26.85546875
278.3203125,999.51171875,999.51171875,-54.19921875
-255.37109375,201.171875,5.37109375,-81.0546875
-541.50390625,-1000.0,-1000.0,-61.5234375
-123.53515625,-418.45703125,-384.765625,-30.2734375
399.4140625,914.0625,906.73828125,-31.73828125
302.24609375,999.51171875,999.51171875,-48.828125
-194.82421875,170.41015625,138.18359375,-56.640625
-525.87890625,-1000.0,-1000.0,-52.734375
-207.51953125,-1000.0,-690.91796875,-41.9921875
347.65625,161.1328125,664.55078125,-37.59765625
358.88671875,999.51171875,999.51171875,-42.48046875
-131.8359375,239.2578125,163.57421875,-55.6640625
-510.7421875,-1000.0,-1000.0,-46.875
-274.4140625,-1000.0,-901.3671875,-13.671875
296.38671875,72.265625,388.18359375,-3.41796875
400.390625,999.51171875,999.51171875,-25.390625
-34.66796875,728.02734375,220.703125,-41.9921875
-482.421875,-577.63671875,-1000.0,-45.41015625
-367.1875,-1000.0,-1000.0,-42.48046875
224.12109375,-191.40625,117.67578125,-36.62109375
406.73828125,999.51171875,999.51171875,-48.828125
1.953125,610.3515625,306.15234375,-59.5703125
-459.9609375,-774.90234375,-960.44921875,-57.12890625
-406.73828125,-1000.0,-1000.0,-41.50390625
186.5234375,-195.80078125,-83.49609375,-23.92578125
444.82421875,999.51171875,999.51171875,-32.71484375
77.1484375,917.48046875,520.99609375,-56.15234375
-416.50390625,-361.328125,-822.265625,-61.03515625
-454.1015625,-1000.0,-1000.0,-39.0625
115.234375,-203.61328125,-182.12890625,-18.06640625
451.171875,999.51171875,999.51171875,-23.92578125
136.23046875,861.328125,690.91796875,-46.875
-387.6953125,-453.125,-660.15625,-54.19921875
-504.8828125,-1000.0,-1000.0,-39.55078125
49.8046875,-214.84375,-194.82421875,-20.5078125
442.87109375,969.7265625,999.51171875,-27.83203125
181.15234375,999.51171875,922.36328125,-55.17578125
-329.58984375,3.90625,-328.61328125,-62.01171875
-515.625,-1000.0,-1000.0,-47.8515625
-12.6953125,-224.12109375,-216.796875,-26.85546875
434.08203125,986.81640625,997.0703125,-28.80859375
235.83984375,999.51171875,999.51171875,-50.29296875
-268.5546875,71.77734375,-107.91015625,-56.640625
-517.578125,-1000.0,-1000.0,-41.9921875
-100.5859375,-664.0625,-386.71875,-36.1328125
404.296875,698.73046875,905.2734375,-39.55078125
297.8515625,999.51171875,999.51171875,-40.0390625
-205.078125,159.66796875,68.359375,-35.15625
-512.6953125,-1000.0,-1000.0,-20.01953125
-156.25,-735.3515625,-542.48046875,6.34765625
403.80859375,631.8359375,801.26953125,22.94921875
390.13671875,999.51171875,999.51171875,9.27734375
-103.02734375,189.94140625,176.26953125,-19.04296875
-474.12109375,-1000.0,-1000.0,-12.20703125
-206.0546875,-1000.0,-799.8046875,22.4609375
360.83984375,145.5078125,536.62109375,30.76171875
423.33984375,999.51171875,999.51171875,13.671875
-48.828125,444.82421875,182.12890625,-14.16015625
-469.7265625,-900.390625,-1000.0,-21.97265625
-291.50390625,-1000.0,-992.1875,0.9765625
291.015625,31.73828125,233.3984375,14.6484375
431.640625,999.51171875,999.51171875,-6.34765625
-3.90625,683.10546875,255.37109375,-28.80859375
-449.70703125,-639.16015625,-981.93359375,-23.92578125
-354.4921875,-1000.0,-1000.0,-8.7890625
215.33203125,-227.05078125,-43.45703125,-2.44140625
436.03515625,999.51171875,999.51171875,-12.6953125
61.5234375,598.14453125,395.01953125,-33.69140625
-418.9453125,-793.45703125,-918.45703125,-37.109375
-400.87890625,-1000.0,-1000.0,-12.6953125
175.29296875,-201.66015625,-151.85546875,7.32421875
463.37890625,999.51171875,999.51171875,3.90625
126.46484375,923.33984375,641.6015625,-25.390625
-371.09375,-355.46875,-710.44921875,-35.64453125
-453.61328125,-1000.0,-1000.0,-10.25390625
109.86328125,-174.8046875,-185.546875,2.44140625
464.84375,999.51171875,999.51171875,-9.27734375
166.50390625,999.51171875,869.140625,-39.0625
-344.23828125,-75.1953125,-417.48046875,-60.05859375
-511.71875,-1000.0,-1000.0,-36.1328125
4.8828125,-286.1328125,-199.70703125,-1.46484375
429.19921875,947.265625,999.51171875,-3.41796875
210.44921875,999.51171875,999.51171875,-33.203125
-286.62109375,125.48828125,-154.296875,-48.828125
-525.87890625,-1000.0,-1000.0,-33.69140625
-81.54296875,-615.72265625,-311.03515625,-3.41796875
415.52734375,750.0,931.15234375,-1.46484375
276.3671875,999.51171875,999.51171875,-31.73828125
-224.609375,236.328125,119.140625,-51.7578125
-533.69140625,-1000.0,-1000.0,-39.0625
-168.9453125,-790.52734375,-471.19140625,-14.16015625
376.46484375,589.84375,863.76953125,-8.30078125
324.21875,999.51171875,999.51171875,-33.203125
-181.640625,145.5078125,164.0625,-60.546875
-529.296875,-1000.0,-1000.0,-47.8515625
-236.81640625,-1000.0,-751.46484375,-14.16015625
319.82421875,104.00390625,600.09765625,-3.90625
365.234375,999.51171875,999.51171875,-26.85546875
-114.2578125,265.13671875,166.015625,-54.6875
-502.9296875,-1000.0,-1000.0,-52.24609375
-275.87890625,-1000.0,-906.73828125,-24.90234375
299.31640625,133.30078125,379.39453125,-8.30078125
400.390625,999.51171875,999.51171875,-22.4609375
-50.78125,339.35546875,204.1015625,-47.8515625
-475.09765625,-932.6171875,-1000.0,-58.10546875
-348.6328125,-1000.0,-1000.0,-39.0625
229.00390625,-174.8046875,69.3359375,-14.16015625
427.24609375,999.51171875,999.51171875,-30.76171875
11.71875,487.3046875,318.359375,-66.40625
-456.54296875,-886.71875,-953.125,-63.4765625
-409.1796875,-1000.0,-1000.0,-28.80859375
174.8046875,-166.9921875,-117.1875,-6.8359375
441.89453125,999.51171875,999.51171875,-20.01953125
63.96484375,788.57421875,536.62109375,-51.7578125
-424.8046875,-547.8515625,-808.10546875,-64.453125
-456.0546875,-1000.0,-1000.0,-37.109375
98.14453125,-175.29296875,-193.359375,-15.625
424.31640625,996.58203125,999.51171875,-39.0625
126.953125,999.51171875,808.10546875,-76.66015625
-368.65234375,-86.42578125,-509.27734375,-82.03125
-508.30078125,-1000.0,-1000.0,-58.10546875
0.48828125,-304.19921875,-182.6171875,-43.9453125
411.1328125,927.734375,999.51171875,-49.8046875
192.87109375,999.51171875,999.51171875,-70.3125
-318.84765625,222.65625,-140.13671875,-80.56640625
-540.52734375,-1000.0,-1000.0,-55.6640625
-60.546875,-497.55859375,-261.71875,-26.3671875
415.52734375,873.046875,971.19140625,-34.66796875
255.859375,999.51171875,999.51171875,-57.6171875
-259.765625,195.80078125,6.34765625,-71.2890625
-547.36328125,-1000.0,-1000.0,-60.05859375
-144.53125,-683.10546875,-421.875,-32.2265625
380.37109375,704.1015625,889.16015625,-20.99609375
292.48046875,999.51171875,999.51171875,-42.96875
-215.33203125,194.82421875,131.34765625,-69.3359375
-541.9921875,-1000.0,-1000.0,-63.4765625
-203.125,-624.51171875,-602.05078125,-31.25
359.375,757.32421875,755.37109375,-17.578125
354.00390625,999.51171875,999.51171875,-39.55078125
-152.34375,201.66015625,166.015625,-75.1953125
-534.66796875,-1000.0,-1000.0,-66.89453125
-286.1328125,-1000.0,-889.16015625,-30.76171875
280.76171875,20.99609375,410.64453125,-18.06640625
368.1640625,999.51171875,999.51171875,-44.921875
-104.98046875,316.40625,180.17578125,-82.51953125
-520.5078125,-1000.0,-1000.0,-81.0546875
-344.7265625,-1000.0,-1000.0,-46.38671875
248.53515625,138.671875,210.9375,-22.4609375
415.52734375,999.51171875,999.51171875,-39.55078125
-26.85546875,446.77734375,280.2734375,-68.359375
-499.0234375,-864.74609375,-968.26171875,-83.0078125
-418.45703125,-1000.0,-1000.0,-69.3359375
169.921875,-222.16796875,-69.3359375,-52.24609375
420.41015625,999.51171875,999.51171875,-65.91796875
38.57421875,658.69140625,457.03125,-88.8671875
-458.0078125,-723.14453125,-873.046875,-86.9140625
-466.796875,-1000.0,-1000.0,-60.05859375
116.69921875,-167.48046875,-156.25,-42.48046875
440.4296875,973.6328125,999.51171875,-42.48046875
126.953125,999.51171875,795.41015625,-62.98828125
-375.48828125,69.82421875,-519.53125,-76.66015625
-505.37109375,-1000.0,-1000.0,-56.15234375
41.015625,-189.453125,-187.01171875,-34.66796875
438.4765625,990.234375,999.51171875,-33.203125
180.17578125,999.51171875,936.5234375,-44.921875
-317.3828125,214.84375,-297.36328125,-61.5234375
-506.34765625,-1000.0,-1000.0,-54.19921875
-14.6484375,-445.3125,-232.91015625,-29.78515625
443.84765625,918.9453125,994.140625,-27.34375
242.67578125,999.51171875,999.51171875,-55.17578125
-274.90234375,54.6875,-124.0234375,-67.3828125
-520.5078125,-1000.0,-1000.0,-52.734375
-91.30859375,-505.37109375,-344.23828125,-29.296875
410.64453125,842.7734375,922.8515625,-25.390625
294.921875,999.51171875,999.51171875,-46.875
-215.33203125,179.19921875,84.47265625,-61.03515625
-532.71484375,-1000.0,-1000.0,-56.15234375
-183.59375,-871.09375,-575.1953125,-29.78515625
374.51171875,433.59375,773.4375,-17.08984375
350.09765625,999.51171875,999.51171875,-36.1328125
-150.87890625,409.66796875,176.26953125,-56.15234375
-528.3203125,-981.93359375,-1000.0,-50.29296875
-267.578125,-977.05078125,-779.296875,-31.73828125
329.58984375,376.46484375,570.80078125,-20.5078125
388.671875,999.51171875,999.51171875,-29.296875
-108.88671875,182.6171875,160.64453125,-53.7109375
-516.6015625,-999.0234375,-1000.0,-57.6171875
-331.54296875,-1000.0,-1000.0,-42.96875
255.37109375,-91.30859375,208.49609375,-31.25
418.9453125,999.51171875,999.51171875,-42.48046875
-28.3203125,543.45703125,265.13671875,-70.3125
-496.09375,-831.54296875,-992.1875,-66.89453125
-389.6484375,-1000.0,-1000.0,-38.57421875
217.7734375,-41.015625,34.1796875,-30.2734375
433.59375,999.51171875,999.51171875,-41.015625
38.0859375,999.51171875,482.91015625,-63.4765625
-433.59375,103.515625,-841.30859375,-65.4296875
-454.1015625,-1000.0,-1000.0,-44.921875
108.3984375,-230.46875,-178.7109375,-29.78515625
434.08203125,999.51171875,999.51171875,-40.52734375
93.75,927.24609375,610.83984375,-68.359375
-421.38671875,-342.7734375,-750.0,-72.75390625
-485.83984375,-1000.0,-1000.0,-52.734375
82.03125,-177.734375,-200.1953125,-32.2265625
465.33203125,999.51171875,999.51171875,-27.83203125
167.96875,999.51171875,824.70703125,-54.6875
-369.62890625,-108.88671875,-484.86328125,-71.2890625
-515.13671875,-1000.0,-1000.0,-58.10546875
4.8828125,-249.0234375,-197.265625,-40.0390625
439.94140625,951.171875,999.51171875,-41.015625
232.91015625,999.51171875,999.51171875,-60.546875
-297.36328125,202.63671875,-124.51171875,-75.1953125
-549.8046875,-1000.0,-1000.0,-75.68359375
-97.65625,-552.734375,-325.1953125,-55.6640625
412.59765625,831.54296875,936.03515625,-44.921875
276.3671875,999.51171875,999.51171875,-62.01171875
-255.37109375,200.1953125,53.22265625,-70.3125
-545.8984375,-1000.0,-1000.0,-52.24609375
-169.43359375,-662.109375,-477.5390625,-41.50390625
389.16015625,730.46875,853.02734375,-40.52734375
337.890625,999.51171875,999.51171875,-52.24609375
-220.703125,161.62109375,151.85546875,-67.87109375
-568.359375,-1000.0,-1000.0,-61.5234375
-256.8359375,-987.79296875,-718.75,-50.29296875
320.3125,264.6484375,635.25390625,-42.48046875
386.23046875,999.51171875,999.51171875,-44.921875
-140.13671875,181.15234375,165.0390625,-60.546875
-561.5234375,-1000.0,-1000.0,-53.7109375
-324.70703125,-1000.0,-939.453125,-27.83203125
280.2734375,18.06640625,320.80078125,-13.18359375
427.734375,999.51171875,999.51171875,-20.99609375
-33.69140625,750.48828125,241.69921875,-37.59765625
-498.046875,-555.6640625,-999.51171875,-39.0625
-389.16015625,-1000.0,-1000.0,-27.83203125
211.42578125,-198.2421875,47.36328125,-19.04296875
459.47265625,999.51171875,999.51171875,-32.2265625
21.484375,555.17578125,335.44921875,-52.734375
-495.1171875,-828.125,-945.80078125,-47.36328125
-437.98828125,-1000.0,-1000.0,-33.69140625
160.64453125,-220.21484375,-125.0,-22.4609375
466.796875,999.51171875,999.51171875,-29.78515625
84.47265625,745.1171875,524.4140625,-55.6640625
-452.63671875,-626.953125,-826.66015625,-57.12890625
-484.375,-1000.0,-1000.0,-39.0625
100.5859375,-153.3203125,-175.78125,-26.85546875
466.796875,999.51171875,999.51171875,-28.80859375
153.3203125,999.51171875,777.83203125,-48.33984375
-392.578125,-122.55859375,-545.8984375,-43.9453125
-528.80859375,-1000.0,-1000.0,-23.4375
15.625,-235.83984375,-191.89453125,-18.5546875
459.47265625,977.5390625,999.51171875,-19.53125
212.890625,999.51171875,943.84765625,-37.109375
-346.19140625,22.94921875,-280.2734375,-48.828125
-543.45703125,-1000.0,-1000.0,-36.1328125
-57.12890625,-430.6640625,-254.8828125,-17.08984375
448.73046875,881.34765625,963.37890625,-6.8359375
294.43359375,999.51171875,999.51171875,-24.4140625
-273.4375,182.12890625,14.16015625,-39.0625
-564.94140625,-1000.0,-1000.0,-25.87890625
-164.0625,-896.97265625,-464.35546875,-11.71875
400.390625,421.875,862.79296875,-8.7890625
355.46875,999.51171875,999.51171875,-20.01953125
-230.95703125,160.64453125,115.234375,-38.57421875
-584.9609375,-1000.0,-1000.0,-35.15625
-238.76953125,-942.3828125,-655.2734375,-17.08984375
348.6328125,316.89453125,701.171875,-9.765625
393.06640625,999.51171875,999.51171875,-29.296875
-140.13671875,448.2421875,170.41015625,-53.22265625
-566.40625,-917.96875,-1000.0,-44.921875
-323.2421875,-1000.0,-889.16015625,-19.04296875
288.57421875,184.08203125,415.0390625,-11.23046875
424.8046875,999.51171875,999.51171875,-33.69140625
-93.26171875,218.26171875,171.38671875,-62.01171875
-559.08203125,-981.93359375,-1000.0,-58.10546875
-362.3046875,-1000.0,-1000.0,-32.2265625
244.140625,-186.5234375,130.37109375,-19.04296875
461.9140625,999.51171875,999.51171875,-28.3203125
16.11328125,622.0703125,306.15234375,-48.828125
-513.18359375,-783.69140625,-968.75,-50.29296875
-435.05859375,-1000.0,-1000.0,-36.1328125
175.29296875,-42.48046875,-22.94921875,-25.390625
463.37890625,999.51171875,999.51171875,-30.76171875
70.80078125,696.77734375,468.75,-58.59375
-475.5859375,-643.5546875,-860.83984375,-61.5234375
-478.02734375,-1000.0,-1000.0,-32.2265625
118.1640625,-171.38671875,-157.2265625,-24.90234375
468.75,999.51171875,999.51171875,-37.59765625
147.4609375,951.171875,697.75390625,-44.43359375
-416.50390625,-293.45703125,-646.97265625,-52.734375
-530.76171875,-1000.0,-1000.0,-41.50390625
33.69140625,-226.07421875,-196.77734375,-26.3671875
469.23828125,976.07421875,999.51171875,-32.2265625
227.05078125,999.51171875,915.52734375,-45.8984375
-357.91015625,-22.94921875,-343.26171875,-52.734375
-563.96484375,-1000.0,-1000.0,-41.50390625
-44.921875,-327.1484375,-217.7734375,-21.484375
443.359375,928.22265625,984.86328125,-13.671875
276.85546875,999.51171875,999.51171875,-23.4375
-290.52734375,189.94140625,-53.7109375,-44.921875
-581.54296875,-1000.0,-1000.0,-48.33984375
-118.1640625,-390.625,-313.4765625,-15.13671875
434.5703125,917.48046875,934.08203125,-8.30078125
336.9140625,999.51171875,999.51171875,-29.296875
-217.7734375,256.34765625,152.34375,-44.921875
-572.75390625,-1000.0,-1000.0,-41.9921875
-227.05078125,-1000.0,-586.42578125,-23.92578125
354.00390625,234.375,775.390625,-19.04296875
382.32421875,999.51171875,999.51171875,-26.3671875
-162.109375,145.5078125,163.57421875,-44.921875
-568.84765625,-1000.0,-1000.0,-46.38671875
-276.85546875,-1000.0,-810.05859375,-20.5078125
319.3359375,88.37890625,523.4375,-14.6484375
420.41015625,999.51171875,999.51171875,-36.62109375
-80.56640625,323.2421875,177.24609375,-48.828125
-526.3671875,-1000.0,-1000.0,-38.57421875
-318.84765625,-875.9765625,-920.8984375,-26.3671875
271.97265625,470.21484375,354.98046875,-23.4375
442.3828125,999.51171875,999.51171875,-26.85546875
-22.94921875,362.79296875,227.5390625,-42.96875
-515.13671875,-896.97265625,-987.79296875,-37.59765625
-401.85546875,-1000.0,-1000.0,-20.01953125
182.12890625,-243.65234375,-56.15234375,-16.6015625
458.49609375,999.51171875,999.51171875,-30.2734375
51.26953125,618.65234375,382.32421875,-54.19921875
-500.48828125,-773.4375,-927.24609375,-56.640625
-463.8671875,-1000.0,-1000.0,-31.25
150.87890625,-203.125,-159.1796875,-13.18359375
488.76953125,999.51171875,999.51171875,-22.4609375
140.625,902.83203125,625.0,-41.50390625
-418.45703125,-391.11328125,-733.3984375,-42.96875
-495.1171875,-1000.0,-1000.0,-26.3671875
72.75390625,-180.6640625,-197.265625,-18.5546875
468.75,999.51171875,999.51171875,-29.78515625
186.03515625,999.51171875,836.42578125,-45.8984375
-381.34765625,-154.78515625,-471.6796875,-48.828125
-544.43359375,-1000.0,-1000.0,-29.78515625
-7.32421875,-278.3203125,-196.2890625,-17.578125
463.8671875,932.6171875,999.51171875,-20.99609375
267.578125,999.51171875,999.51171875,-27.34375
-286.62109375,220.21484375,-126.953125,-41.9921875
-541.9921875,-1000.0,-1000.0,-34.1796875
-92.28515625,-631.34765625,-318.359375,-17.08984375
433.59375,762.20703125,938.96484375,-21.484375
315.4296875,999.51171875,999.51171875,-40.0390625
-250.0,170.8984375,51.26953125,-52.24609375
-552.734375,-1000.0,-1000.0,-42.48046875
-155.76171875,-863.76953125,-498.53515625,-25.87890625
391.11328125,469.7265625,835.44921875,-21.97265625
354.00390625,999.51171875,999.51171875,-45.8984375
-198.73046875,190.4296875,154.296875,-64.94140625
-577.1484375,-1000.0,-1000.0,-57.12890625
-254.8828125,-626.46484375,-650.87890625,-40.52734375
338.37890625,762.6953125,712.40234375,-34.1796875
395.99609375,999.51171875,999.51171875,-47.36328125
-133.7890625,143.5546875,160.64453125,-56.640625
-558.10546875,-1000.0,-1000.0,-49.8046875
-316.89453125,-1000.0,-946.77734375,-30.2734375
286.62109375,-13.18359375,312.5,-14.16015625
445.3125,999.51171875,999.51171875,-34.66796875
-43.45703125,388.18359375,198.2421875,-51.26953125
-500.0,-918.45703125,-1000.0,-23.92578125
-353.515625,-1000.0,-1000.0,-15.625
202.1484375,-195.80078125,50.78125,-50.78125
427.24609375,999.51171875,999.51171875,-77.63671875
-14.16015625,481.4453125,315.91796875,-97.65625
-555.6640625,-886.71875,-952.1484375,-104.00390625
-500.0,-1000.0,-1000.0,-90.8203125
87.890625,-227.05078125,-146.97265625,-85.44921875
404.296875,999.51171875,999.51171875,-93.26171875
42.96875,752.9296875,534.1796875,-113.28125
-514.16015625,-613.76953125,-819.82421875,-121.58203125
-551.7578125,-1000.0,-1000.0,-98.14453125
39.0625,-168.9453125,-195.80078125,-70.3125
438.96484375,983.3984375,999.51171875,-63.4765625
155.76171875,999.51171875,772.4609375,-73.73046875
-401.3671875,7.32421875,-559.08203125,-72.265625
-527.83203125,-1000.0,-1000.0,-53.22265625
17.578125,-327.63671875,-196.2890625,-42.96875
461.9140625,951.66015625,999.51171875,-43.9453125
237.79296875,999.51171875,948.2421875,-60.05859375
-335.44921875,29.296875,-277.34375,-71.77734375
-564.94140625,-1000.0,-1000.0,-58.10546875
-74.70703125,-438.96484375,-261.23046875,-40.52734375
433.59375,876.953125,960.44921875,-30.76171875
298.33984375,999.51171875,999.51171875,-34.1796875
-271.484375,210.44921875,12.6953125,-45.8984375
-578.125,-1000.0,-1000.0,-40.0390625
-132.32421875,-375.0,-365.234375,-19.53125
413.0859375,932.12890625,914.55078125,-20.01953125
335.44921875,999.51171875,999.51171875,-41.9921875
-202.63671875,217.28515625,161.62109375,-52.24609375
-551.26953125,-1000.0,-1000.0,-36.1328125
-229.4921875,-1000.0,-687.98828125,-23.92578125
340.8203125,129.8828125,674.31640625,-32.2265625
392.08984375,999.51171875,999.51171875,-41.50390625
-149.4140625,178.22265625,166.9921875,-51.7578125
-573.73046875,-1000.0,-1000.0,-46.875
-308.59375,-959.47265625,-823.73046875,-32.2265625
294.921875,290.52734375,500.48828125,-31.25
425.78125,999.51171875,999.51171875,-37.59765625
-74.70703125,542.96875,206.0546875,-55.17578125
-555.6640625,-776.3671875,-1000.0,-54.6875
-387.6953125,-1000.0,-1000.0,-33.69140625
206.0546875,-166.015625,148.4375,-29.78515625
431.15234375,999.51171875,999.51171875,-37.109375
7.32421875,582.03125,293.9453125,-41.9921875
-514.6484375,-795.41015625,-964.84375,-41.50390625
-432.6171875,-1000.0,-1000.0,-27.83203125
166.9921875,-213.37890625,-83.49609375,-21.484375
464.35546875,999.51171875,999.51171875,-28.3203125
93.75,825.68359375,470.703125,-44.921875
-446.77734375,-508.7890625,-864.2578125,-44.43359375
-465.8203125,-1000.0,-1000.0,-30.2734375
103.515625,-187.98828125,-190.91796875,-25.390625
462.40234375,999.51171875,999.51171875,-26.3671875
157.71484375,975.5859375,678.7109375,-37.109375
-396.97265625,-257.32421875,-673.828125,-44.43359375
-522.94921875,-1000.0,-1000.0,-44.43359375
41.015625,-197.265625,-196.77734375,-26.85546875
468.75,968.26171875,999.51171875,-30.76171875
208.984375,999.51171875,931.15234375,-51.7578125
-351.5625,123.53515625,-317.3828125,-49.8046875
-549.8046875,-1000.0,-1000.0,-26.85546875
-27.34375,-212.890625,-207.03125,-10.7421875
455.078125,994.140625,999.51171875,-12.20703125
272.4609375,999.51171875,999.51171875,-32.2265625
-284.66796875,164.55078125,-100.09765625,-51.26953125
-562.01171875,-1000.0,-1000.0,-42.48046875
-123.046875,-569.82421875,-350.09765625,-23.4375
413.57421875,806.15234375,922.36328125,-30.2734375
315.4296875,999.51171875,999.51171875,-48.33984375
-256.8359375,177.734375,79.58984375,-60.05859375
-587.890625,-1000.0,-1000.0,-50.78125
-199.21875,-833.49609375,-569.3359375,-19.04296875
385.7421875,482.91015625,777.83203125,-5.859375
392.08984375,999.51171875,999.51171875,-30.76171875
-150.390625,467.7734375,176.7578125,-51.7578125
-562.01171875,-870.1171875,-1000.0,-46.38671875
-298.33984375,-1000.0,-831.54296875,-32.71484375
290.0390625,21.484375,499.0234375,-30.2734375
401.85546875,999.51171875,999.51171875,-40.52734375
-116.2109375,199.70703125,154.296875,-56.640625
-554.19921875,-1000.0,-1000.0,-53.7109375
-332.51953125,-1000.0,-1000.0,-22.4609375
267.08984375,-101.5625,206.54296875,-16.6015625
463.8671875,999.51171875,999.51171875,-32.71484375
-10.25390625,369.140625,214.84375,-46.875
-511.23046875,-935.546875,-1000.0,-47.36328125
-385.7421875,-1000.0,-1000.0,-29.78515625
200.68359375,-230.46875,-8.30078125,-32.2265625
457.03125,999.51171875,999.51171875,-45.8984375
51.7578125,544.43359375,357.421875,-57.12890625
-474.609375,-840.8203125,-934.08203125,-52.734375
-444.82421875,-1000.0,-1000.0,-37.59765625
145.99609375,-203.125,-163.0859375,-24.90234375
474.609375,999.51171875,999.51171875,-33.69140625
134.27734375,935.546875,613.76953125,-49.31640625
-426.26953125,-337.40234375,-745.60546875,-48.828125
-500.9765625,-1000.0,-1000.0,-29.78515625
89.84375,-176.26953125,-190.91796875,-15.625
488.28125,999.51171875,999.51171875,-28.3203125
196.2890625,999.51171875,821.2890625,-45.41015625
-382.8125,-170.41015625,-491.2109375,-54.19921875
-545.8984375,-1000.0,-1000.0,-43.45703125
0.0,-295.8984375,-203.61328125,-22.4609375
467.7734375,941.89453125,999.51171875,-25.87890625
263.18359375,999.51171875,993.65234375,-44.921875
-306.15234375,70.3125,-179.6875,-50.29296875
-557.12890625,-1000.0,-1000.0,-42.48046875
-97.65625,-552.734375,-308.59375,-31.25
420.8984375,807.12890625,934.08203125,-35.64453125
318.84765625,999.51171875,999.51171875,-41.015625
-239.74609375,187.5,89.35546875,-37.59765625
-564.453125,-1000.0,-1000.0,-32.71484375
-173.828125,-809.08203125,-506.8359375,-20.5078125
398.92578125,549.8046875,838.37890625,-10.7421875
383.7890625,999.51171875,999.51171875,-19.04296875
-163.57421875,152.34375,137.6953125,-14.16015625
-530.2734375,-1000.0,-1000.0,-3.90625
-227.5390625,-1000.0,-746.09375,-3.41796875
359.375,200.1953125,601.5625,4.8828125
443.359375,999.51171875,999.51171875,2.9296875
-82.51953125,226.5625,162.59765625,-7.32421875
-495.60546875,-992.1875,-1000.0,0.9765625
-260.7421875,-1000.0,-951.171875,20.01953125
308.59375,-60.546875,306.640625,18.5546875
461.9140625,999.51171875,999.51171875,-1.46484375
-12.6953125,536.62109375,209.47265625,-20.01953125
-493.65234375,-828.125,-1000.0,-19.04296875
-355.95703125,-1000.0,-1000.0,-4.39453125
242.1875,-127.44140625,56.640625,2.44140625
491.2109375,999.51171875,999.51171875,-7.8125
56.15234375,479.00390625,305.6640625,-21.484375
-481.4453125,-885.7421875,-962.40234375,-21.484375
-432.12890625,-1000.0,-1000.0,-3.90625
168.45703125,-180.6640625,-106.4453125,5.859375
488.76953125,999.51171875,999.51171875,-7.8125
95.703125,673.828125,495.60546875,-38.0859375
-464.35546875,-693.84765625,-844.7265625,-48.33984375
-483.88671875,-1000.0,-1000.0,-23.4375
95.21484375,-227.5390625,-211.42578125,0.48828125
470.703125,999.51171875,999.51171875,-6.34765625
125.0,984.375,748.53515625,-26.85546875
-478.515625,-234.86328125,-596.19140625,-34.1796875
-583.0078125,-1000.0,-1000.0,-16.6015625
-14.16015625,-317.87109375,-194.82421875,0.48828125
427.734375,911.1328125,999.51171875,-16.11328125
200.68359375,999.51171875,988.28125,-36.1328125
-378.41796875,220.21484375,-193.359375,-43.9453125
-625.0,-1000.0,-1000.0,-35.64453125
-121.58203125,-459.47265625,-269.53125,-8.30078125
402.34375,915.52734375,979.98046875,1.953125
250.0,999.51171875,999.51171875,-20.5078125
-310.546875,40.52734375,-91.30859375,-44.43359375
-580.078125,-1000.0,-1000.0,-37.59765625
-151.85546875,-639.16015625,-411.1328125,-13.671875
394.04296875,717.7734375,885.25390625,-12.20703125
338.37890625,999.51171875,999.51171875,-43.9453125
-211.42578125,159.66796875,120.60546875,-65.91796875
-557.6171875,-1000.0,-1000.0,-57.6171875
-218.75,-1000.0,-662.109375,-41.50390625
367.67578125,239.74609375,694.3359375,-31.73828125
412.59765625,999.51171875,999.51171875,-44.921875
-128.41796875,198.2421875,163.0859375,-59.5703125
-541.50390625,-1000.0,-1000.0,-57.6171875
-273.4375,-1000.0,-849.12109375,-50.29296875
327.63671875,229.4921875,466.30859375,-35.64453125
440.4296875,999.51171875,999.51171875,-43.45703125
-69.3359375,346.19140625,172.36328125,-63.4765625
-523.92578125,-972.65625,-1000.0,-59.5703125
-344.23828125,-1000.0,-1000.0,-50.29296875
250.48828125,144.53125,181.640625,-55.17578125
456.54296875,999.51171875,999.51171875,-62.98828125
-2.44140625,328.125,231.4453125,-68.84765625
-510.7421875,-928.7109375,-988.28125,-72.265625
-403.80859375,-1000.0,-1000.0,-56.640625
192.87109375,-231.93359375,-98.6328125,-48.828125
488.28125,999.51171875,999.51171875,-50.29296875
121.58203125,802.24609375,440.4296875,-54.6875
-427.734375,-545.8984375,-886.23046875,-56.15234375
-459.9609375,-1000.0,-1000.0,-56.640625
114.2578125,-166.9921875,-189.94140625,-60.546875
478.02734375,982.421875,999.51171875,-55.17578125
171.38671875,999.51171875,743.1640625,-74.70703125
-395.5078125,25.87890625,-599.609375,-88.8671875
-520.01953125,-1000.0,-1000.0,-66.89453125
35.64453125,-296.875,-204.1015625,-46.875
453.61328125,999.51171875,999.51171875,-48.33984375
202.1484375,999.51171875,853.515625,-71.77734375
-360.83984375,-185.546875,-442.87109375,-83.984375
-544.921875,-1000.0,-1000.0,-62.5
-33.203125,-424.31640625,-245.1171875,-43.9453125
462.40234375,871.58203125,988.28125,-47.36328125
294.921875,999.51171875,999.51171875,-56.640625
-276.3671875,122.55859375,-150.390625,-65.91796875
-544.43359375,-1000.0,-1000.0,-58.10546875
-91.30859375,-297.8515625,-332.03125,-46.38671875
430.17578125,956.54296875,931.15234375,-41.015625
312.5,999.51171875,999.51171875,-54.19921875
-244.140625,195.3125,52.24609375,-62.01171875
-562.01171875,-1000.0,-1000.0,-38.57421875
-189.94140625,-925.29296875,-618.1640625,-22.94921875
379.39453125,378.41796875,732.421875,-20.99609375
385.25390625,999.51171875,999.51171875,-39.0625
-170.41015625,150.390625,127.44140625,-60.546875
-564.453125,-1000.0,-1000.0,-58.10546875
-280.2734375,-1000.0,-844.23828125,-45.41015625
302.24609375,184.5703125,472.16796875,-37.109375
410.15625,999.51171875,999.51171875,-46.38671875
-103.02734375,188.4765625,146.484375,-59.5703125
-545.8984375,-1000.0,-1000.0,-54.19921875
-336.9140625,-1000.0,-1000.0,-38.0859375
250.0,-99.609375,164.55078125,-34.1796875
437.98828125,999.51171875,999.51171875,-46.875
-25.87890625,362.79296875,192.3828125,-61.5234375
-521.97265625,-938.4765625,-1000.0,-61.03515625
-399.90234375,-1000.0,-1000.0,-46.38671875
208.49609375,-191.40625,-61.5234375,-45.8984375
467.7734375,999.51171875,999.51171875,-55.6640625
63.96484375,993.65234375,427.734375,-62.98828125
-466.30859375,-214.35546875,-893.5546875,-62.01171875
-470.703125,-1000.0,-1000.0,-55.17578125
121.09375,-192.87109375,-180.6640625,-49.8046875
469.23828125,999.51171875,999.51171875,-44.43359375
130.37109375,968.26171875,556.640625,-53.7109375
-422.36328125,-265.13671875,-799.31640625,-52.734375
-498.53515625,-1000.0,-1000.0,-37.59765625
66.40625,-191.40625,-214.35546875,-28.80859375
469.23828125,995.60546875,999.51171875,-34.1796875
190.91796875,999.51171875,789.55078125,-58.10546875
-375.9765625,-62.01171875,-536.62109375,-68.359375
-545.41015625,-1000.0,-1000.0,-58.59375
-12.20703125,-235.3515625,-214.84375,-40.52734375
453.125,981.4453125,999.51171875,-32.71484375
231.93359375,999.51171875,942.3828125,-53.7109375
-322.265625,34.66796875,-279.78515625,-62.01171875
-543.45703125,-1000.0,-1000.0,-45.41015625
-90.33203125,-536.62109375,-333.984375,-42.48046875
425.78125,813.4765625,931.15234375,-49.8046875
298.33984375,999.51171875,999.51171875,-61.5234375
-271.97265625,184.08203125,-2.9296875,-63.4765625
-573.2421875,-1000.0,-1000.0,-50.78125
-187.5,-846.6796875,-549.31640625,-32.2265625
382.8125,497.0703125,795.8984375,-28.3203125
370.1171875,999.51171875,999.51171875,-49.31640625
-200.1953125,146.97265625,112.3046875,-63.4765625
-568.359375,-1000.0,-1000.0,-56.640625
-260.25390625,-1000.0,-760.25390625,-48.33984375
320.80078125,137.6953125,579.58984375,-54.19921875
405.76171875,999.51171875,999.51171875,-62.98828125
-127.44140625,192.3828125,152.83203125,-70.3125
-555.17578125,-1000.0,-1000.0,-63.96484375
-317.3828125,-1000.0,-960.44921875,-35.64453125
277.34375,-62.5,283.203125,-32.2265625
435.546875,999.51171875,999.51171875,-47.36328125
-40.0390625,826.66015625,223.14453125,-61.5234375
-518.06640625,-469.7265625,-1000.0,-52.24609375
-381.34765625,-1000.0,-1000.0,-19.53125
215.33203125,-189.94140625,51.7578125,-14.6484375
454.1015625,999.51171875,999.51171875,-33.69140625
23.4375,583.49609375,308.10546875,-56.15234375
-504.39453125,-800.29296875,-957.51953125,-59.08203125
-439.453125,-1000.0,-1000.0,-30.76171875
153.80859375,-201.66015625,-139.6484375,-16.6015625
452.63671875,999.51171875,999.51171875,-42.96875
102.5390625,929.19921875,548.828125,-67.3828125
-437.5,-348.14453125,-805.6640625,-61.5234375
-494.62890625,-1000.0,-1000.0,-50.78125
84.47265625,-180.6640625,-192.87109375,-44.921875
463.8671875,999.51171875,999.51171875,-41.9921875
169.921875,999.51171875,744.140625,-54.19921875
-386.23046875,-148.92578125,-598.14453125,-63.4765625
-531.25,-1000.0,-1000.0,-55.6640625
-0.9765625,-322.265625,-204.1015625,-37.59765625
446.2890625,940.91796875,999.51171875,-28.3203125
231.93359375,999.51171875,926.7578125,-46.38671875
-331.54296875,12.6953125,-317.87109375,-46.875
-555.17578125,-1000.0,-1000.0,-32.71484375
-79.1015625,-475.09765625,-275.390625,-30.76171875
439.94140625,858.3984375,963.8671875,-31.73828125
296.38671875,999.51171875,999.51171875,-50.78125
-284.1796875,164.55078125,-56.15234375,-70.3125
-566.89453125,-1000.0,-1000.0,-65.91796875
-147.4609375,-760.7421875,-443.84765625,-37.109375
401.85546875,604.4921875,871.09375,-34.1796875
351.5625,999.51171875,999.51171875,-59.08203125
-210.9375,152.34375,104.00390625,-68.359375
-564.453125,-1000.0,-1000.0,-52.24609375
-225.5859375,-1000.0,-689.94140625,-26.3671875
350.09765625,180.6640625,661.1328125,-21.97265625
395.01953125,999.51171875,999.51171875,-41.50390625
-126.46484375,429.19921875,160.64453125,-60.05859375
-546.38671875,-906.73828125,-1000.0,-56.15234375
-311.03515625,-1000.0,-889.6484375,-36.62109375
285.15625,36.1328125,411.62109375,-27.83203125
419.43359375,999.51171875,999.51171875,-42.96875
-92.28515625,184.08203125,157.71484375,-68.359375
-546.38671875,-1000.0,-1000.0,-67.3828125
-361.328125,-1000.0,-1000.0,-51.7578125
219.7265625,-164.55078125,126.953125,-44.43359375
437.01171875,999.51171875,999.51171875,-47.8515625
-0.9765625,480.95703125,267.578125,-63.4765625
-503.41796875,-922.36328125,-993.1640625,-64.453125
-403.3203125,-1000.0,-1000.0,-43.9453125
188.96484375,60.546875,15.13671875,-26.3671875
468.75,999.51171875,999.51171875,-25.87890625
85.44921875,674.31640625,434.08203125,-46.38671875
-462.890625,-645.5078125,-876.46484375,-56.15234375
-471.6796875,-1000.0,-1000.0,-31.73828125
121.09375,-185.05859375,-187.01171875,-4.8828125
481.4453125,999.51171875,999.51171875,-12.6953125
159.1796875,999.51171875,694.82421875,-41.50390625
-400.87890625,-195.80078125,-657.71484375,-47.36328125
-504.8828125,-1000.0,-1000.0,-34.1796875
46.875,-190.4296875,-185.05859375,-23.4375
471.19140625,963.8671875,999.51171875,-30.76171875
238.76953125,999.51171875,984.86328125,-47.36328125
-332.51953125,231.4453125,-205.078125,-60.05859375
-546.875,-1000.0,-1000.0,-50.29296875
-34.66796875,-527.83203125,-239.74609375,-32.2265625
460.44921875,868.1640625,996.09375,-31.73828125
284.1796875,999.51171875,999.51171875,-46.875
-286.62109375,99.609375,-122.55859375,-62.01171875
-557.12890625,-1000.0,-1000.0,-49.8046875
-106.93359375,-495.60546875,-321.2890625,-29.296875
430.17578125,855.46875,926.7578125,-21.484375
334.47265625,999.51171875,999.51171875,-32.2265625
-219.7265625,188.96484375,135.7421875,-44.921875
-561.5234375,-1000.0,-1000.0,-43.45703125
-206.54296875,-911.1328125,-570.80078125,-33.69140625
368.65234375,403.80859375,789.0625,-35.64453125
376.46484375,999.51171875,999.51171875,-54.19921875
-174.31640625,154.78515625,158.203125,-63.96484375
-552.734375,-1000.0,-1000.0,-49.8046875
-246.58203125,-994.140625,-757.8125,-27.83203125
335.9375,239.2578125,589.84375,-35.15625
427.24609375,999.51171875,999.51171875,-51.26953125
-87.40234375,300.29296875,177.24609375,-59.08203125
-552.734375,-1000.0,-1000.0,-67.3828125
-345.21484375,-1000.0,-921.875,-62.01171875
260.25390625,217.7734375,354.00390625,-53.7109375
438.96484375,999.51171875,999.51171875,-56.640625
-18.06640625,400.390625,243.1640625,-65.4296875
-508.30078125,-912.109375,-1000.0,-65.4296875
-380.859375,-1000.0,-1000.0,-43.9453125
226.07421875,-35.64453125,58.59375,-27.83203125
470.703125,999.51171875,999.51171875,-47.8515625
47.36328125,576.66015625,388.18359375,-63.96484375
-479.4921875,-772.94921875,-912.59765625,-60.05859375
-462.890625,-1000.0,-1000.0,-46.875
122.0703125,-192.3828125,-144.53125,-30.76171875
463.8671875,999.51171875,999.51171875,-36.1328125
137.6953125,982.421875,657.71484375,-53.7109375
-423.828125,-228.515625,-691.40625,-56.640625
-515.13671875,-1000.0,-1000.0,-44.921875
57.6171875,-292.48046875,-196.2890625,-29.78515625
463.8671875,958.984375,999.51171875,-20.99609375
196.2890625,999.51171875,861.328125,-39.0625
-364.2578125,-70.3125,-437.01171875,-55.6640625
-577.1484375,-1000.0,-1000.0,-27.83203125
-74.21875,-200.1953125,-180.6640625,-5.859375
416.015625,970.703125,999.51171875,-20.99609375
218.75,999.51171875,999.51171875,-52.24609375
-336.42578125,231.4453125,-117.67578125,-71.77734375
-583.984375,-1000.0,-1000.0,-69.3359375
-105.95703125,-491.69921875,-261.71875,-48.33984375
422.8515625,875.9765625,961.9140625,-47.36328125
301.26953125,999.51171875,999.51171875,-63.96484375
-255.37109375,197.265625,77.63671875,-69.3359375
-571.2890625,-1000.0,-1000.0,-64.453125
-162.59765625,-765.625,-458.49609375,-41.50390625
403.80859375,606.93359375,869.140625,-35.64453125
363.76953125,999.51171875,999.51171875,-56.15234375
-179.6875,194.82421875,167.48046875,-64.453125
-561.5234375,-1000.0,-1000.0,-58.10546875
-225.09765625,-561.03515625,-596.19140625,-36.1328125
375.0,812.01171875,767.08984375,-22.94921875
415.52734375,999.51171875,999.51171875,-41.50390625
-123.53515625,267.08984375,173.828125,-58.59375
-557.6171875,-960.44921875,-1000.0,-60.546875
-306.15234375,-1000.0,-908.69140625,-41.9921875
293.45703125,-98.6328125,375.48828125,-32.2265625
447.75390625,999.51171875,999.51171875,-41.9921875
-47.8515625,314.453125,202.63671875,-58.59375
-538.0859375,-968.75,-1000.0,-62.98828125
-368.65234375,-1000.0,-1000.0,-44.43359375
235.3515625,-165.52734375,104.4921875,-30.76171875
477.05078125,999.51171875,999.51171875,-30.76171875
63.4765625,738.76953125,374.0234375,-40.0390625
-471.6796875,-612.3046875,-927.24609375,-46.38671875
-422.36328125,-1000.0,-1000.0,-34.66796875
169.43359375,-225.5859375,-82.03125,-28.80859375
470.21484375,999.51171875,999.51171875,-43.9453125
102.5390625,611.81640625,498.046875,-54.19921875
-442.3828125,-779.78515625,-843.26171875,-51.7578125
-473.14453125,-1000.0,-1000.0,-45.8984375
107.91015625,-167.48046875,-178.22265625,-40.52734375
484.375,970.21484375,999.51171875,-49.8046875
193.359375,999.51171875,793.45703125,-63.96484375
-362.3046875,109.375,-524.4140625,-60.05859375
-513.671875,-1000.0,-1000.0,-50.78125
12.6953125,-317.87109375,-189.94140625,-54.6875
457.03125,965.8203125,999.51171875,-54.6875
238.76953125,999.51171875,959.47265625,-54.6875
-326.171875,45.8984375,-254.39453125,-60.546875
-544.921875,-1000.0,-1000.0,-49.31640625
-59.08203125,-466.796875,-247.0703125,-28.80859375
457.51953125,863.28125,968.75,-17.08984375
320.3125,999.51171875,999.51171875,-21.484375
-290.52734375,209.9609375,8.7890625,-64.94140625
-631.8359375,-1000.0,-1000.0,-93.26171875
-211.42578125,-445.3125,-355.46875,-85.9375
339.84375,902.83203125,924.31640625,-82.03125
254.8828125,999.51171875,999.51171875,-110.3515625
-338.37890625,188.4765625,125.48828125,-157.71484375
-700.68359375,-1000.0,-1000.0,-166.9921875
-343.75,-807.6171875,-582.51953125,-155.76171875
213.8671875,548.33984375,772.4609375,-173.33984375
231.93359375,999.51171875,999.51171875,-197.75390625
-301.7578125,145.99609375,164.0625,-208.0078125
-709.9609375,-1000.0,-1000.0,-205.56640625
-461.9140625,-1000.0,-890.625,-196.77734375
128.90625,-12.6953125,407.71484375,-188.96484375
274.90234375,999.51171875,999.51171875,-196.77734375
-232.421875,291.9921875,170.41015625,-215.33203125
-702.63671875,-962.40234375,-1000.0,-212.890625
-519.04296875,-1000.0,-1000.0,-200.1953125
71.77734375,-230.46875,127.44140625,-188.4765625
286.62109375,999.51171875,999.51171875,-197.75390625
-166.015625,436.03515625,266.11328125,-228.515625
-694.82421875,-920.8984375,-984.86328125,-233.3984375
-587.890625,-1000.0,-1000.0,-204.58984375
21.97265625,-186.03515625,-41.50390625,-187.5
299.8046875,999.51171875,999.51171875,-198.73046875
-64.94140625,930.17578125,482.421875,-212.890625
-582.03125,-334.47265625,-851.07421875,-204.1015625
-583.49609375,-1000.0,-1000.0,-176.26953125
-6.8359375,-198.2421875,-171.875,-148.4375
367.1875,999.51171875,999.51171875,-138.671875
59.08203125,909.1796875,677.24609375,-153.3203125
-512.20703125,-380.37109375,-674.31640625,-156.25
-590.8203125,-1000.0,-1000.0,-127.9296875
-6.8359375,-176.26953125,-195.3125,-88.37890625
427.734375,983.3984375,999.51171875,-69.82421875
190.91796875,999.51171875,909.1796875,-78.61328125
-360.3515625,17.08984375,-356.93359375,-78.61328125
-549.31640625,-1000.0,-1000.0,-53.22265625
-10.25390625,-177.24609375,-197.75390625,-21.97265625
482.91015625,986.81640625,995.1171875,-12.20703125
295.8984375,999.51171875,999.51171875,-24.4140625
-245.60546875,223.14453125,-66.89453125,-30.76171875
-505.859375,-1000.0,-1000.0,-11.71875
-79.1015625,-733.3984375,-350.5859375,14.6484375
454.58984375,645.99609375,923.33984375,30.2734375
380.859375,999.51171875,999.51171875,20.01953125
-162.109375,170.8984375,93.26171875,6.8359375
-483.88671875,-1000.0,-1000.0,21.97265625
-117.1875,-890.625,-545.41015625,47.36328125
447.265625,412.109375,801.7578125,48.828125
447.75390625,999.51171875,999.51171875,28.80859375
-89.35546875,309.08203125,185.546875,10.7421875
-490.72265625,-963.37890625,-1000.0,7.32421875
-204.58984375,-1000.0,-788.0859375,29.78515625
387.20703125,36.62109375,556.15234375,47.8515625
482.421875,999.51171875,999.51171875,25.390625
-14.6484375,527.34375,188.4765625,-5.37109375
-465.33203125,-833.984375,-1000.0,5.859375
-275.87890625,-1000.0,-980.46875,34.66796875
323.2421875,-58.10546875,258.30078125,44.43359375
504.8828125,999.51171875,999.51171875,29.78515625
30.76171875,545.8984375,248.53515625,1.46484375
-462.890625,-806.15234375,-991.2109375,2.9296875
-343.26171875,-1000.0,-1000.0,24.4140625
249.51171875,-224.609375,0.9765625,37.109375
504.39453125,999.51171875,999.51171875,20.99609375
100.09765625,724.609375,414.55078125,-0.48828125
-418.9453125,-648.92578125,-902.34375,-0.9765625
-405.76171875,-1000.0,-1000.0,5.37109375
170.8984375,-183.59375,-133.30078125,16.11328125
505.859375,999.51171875,999.51171875,8.7890625
174.31640625,999.51171875,674.31640625,-15.13671875
-378.90625,-187.5,-675.29296875,-19.53125
-467.7734375,-1000.0,-1000.0,-3.90625
103.02734375,-165.52734375,-167.96875,8.7890625
497.0703125,999.51171875,999.51171875,11.71875
228.02734375,999.51171875,860.83984375,-10.7421875
-335.44921875,-58.10546875,-428.22265625,-33.69140625
-511.23046875,-1000.0,-1000.0,-23.4375
21.484375,-359.375,-195.3125,-7.8125
482.91015625,920.41015625,999.51171875,-0.48828125
282.2265625,999.51171875,996.58203125,-8.7890625
-279.78515625,91.30859375,-170.8984375,-23.4375
-527.34375,-1000.0,-1000.0,-18.06640625
-58.59375,-484.375,-278.80859375,-0.48828125
458.49609375,846.6796875,943.84765625,0.48828125
341.30859375,999.51171875,999.51171875,-15.13671875
-202.1484375,337.40234375,120.60546875,-30.76171875
-533.203125,-1000.0,-1000.0,-29.296875
-165.52734375,-957.51953125,-501.953125,-8.7890625
399.90234375,381.8359375,846.19140625,-8.7890625
378.41796875,999.51171875,999.51171875,-32.2265625
-174.8046875,151.3671875,146.97265625,-46.875
-542.96875,-1000.0,-1000.0,-38.57421875
-224.609375,-1000.0,-698.73046875,-5.37109375
358.88671875,200.1953125,658.203125,15.625
418.9453125,999.51171875,999.51171875,-8.7890625
-116.69921875,196.2890625,169.43359375,-41.015625
-537.109375,-1000.0,-1000.0,-41.015625
-291.50390625,-1000.0,-885.25390625,-16.11328125
287.109375,107.91015625,415.52734375,-10.7421875
432.6171875,999.51171875,999.51171875,-30.2734375
-47.8515625,220.703125,181.15234375,-44.921875
-519.53125,-999.0234375,-1000.0,-43.45703125
