TP9,AF7,AF8,TP10
-140.625,-85.44921875,-201.66015625,192.3828125
-355.95703125,-61.03515625,-211.42578125,190.91796875
-527.34375,-95.703125,-250.0,147.4609375
-389.16015625,-106.4453125,-255.37109375,148.4375
-192.3828125,-88.37890625,-203.61328125,179.6875
-79.58984375,-86.42578125,-159.66796875,219.23828125
-218.26171875,-91.796875,-151.3671875,285.15625
-423.828125,-109.86328125,-157.71484375,286.62109375
-374.51171875,-117.1875,-157.2265625,221.19140625
-145.01953125,-122.0703125,-158.203125,260.7421875
48.33984375,-122.0703125,-157.71484375,405.2734375
-37.109375,-115.234375,-150.87890625,456.0546875
-204.58984375,-121.09375,-152.34375,500.48828125
-151.85546875,-137.6953125,-151.3671875,784.1796875
6.34765625,-147.94921875,-133.30078125,976.07421875
138.671875,-120.1171875,-133.7890625,959.47265625
34.66796875,-96.6796875,-134.765625,963.37890625
-150.87890625,-90.8203125,-105.95703125,967.28515625
-147.94921875,-90.33203125,-95.703125,965.8203125
46.875,-87.890625,-89.35546875,965.8203125
301.7578125,-73.2421875,-80.56640625,966.796875
354.00390625,-59.08203125,-41.50390625,961.9140625
144.53125,-52.734375,-28.80859375,968.26171875
-23.4375,-41.015625,-49.31640625,957.03125
98.14453125,-42.48046875,-41.50390625,823.73046875
268.06640625,-87.40234375,-64.453125,776.85546875
219.23828125,-104.4921875,-83.984375,842.28515625
1.953125,-91.796875,-77.63671875,856.93359375
-102.05078125,-90.33203125,-72.75390625,884.765625
88.37890625,-100.5859375,-55.17578125,937.01171875
333.49609375,-101.07421875,-58.10546875,967.28515625
310.05859375,-84.47265625,-82.03125,964.84375
113.28125,-53.22265625,-99.609375,965.33203125
-74.70703125,-43.9453125,-101.07421875,966.30859375
-62.5,-108.3984375,-69.3359375,965.8203125
179.19921875,-141.11328125,-66.89453125,966.30859375
281.73828125,-126.46484375,-104.00390625,966.30859375
73.2421875,-119.62890625,-117.1875,966.30859375
-83.49609375,-93.26171875,-101.5625,966.30859375
-1.46484375,-91.796875,-70.80078125,966.30859375
191.40625,-106.4453125,-65.91796875,966.30859375
283.203125,-89.35546875,-92.28515625,965.8203125
141.6015625,-71.2890625,-104.4921875,965.8203125
-61.5234375,-80.56640625,-94.23828125,965.8203125
-85.9375,-101.5625,-98.14453125,965.8203125
141.11328125,-84.47265625,-93.75,965.8203125
347.65625,-59.08203125,-77.1484375,965.8203125
164.55078125,-64.453125,-82.51953125,966.30859375
-117.1875,-81.54296875,-90.8203125,965.8203125
-89.35546875,-74.70703125,-84.47265625,965.8203125
104.00390625,-56.640625,-78.125,965.8203125
250.0,-66.89453125,-74.70703125,966.30859375
121.58203125,-90.33203125,-89.35546875,966.30859375
-117.67578125,-102.5390625,-93.75,965.8203125
-208.0078125,-99.12109375,-74.70703125,966.30859375
-82.03125,-85.44921875,-104.98046875,966.30859375
190.4296875,-78.125,-140.625,966.30859375
195.80078125,-78.125,-144.04296875,966.30859375
-53.7109375,-81.0546875,-139.6484375,965.8203125
-184.08203125,-74.70703125,-113.28125,965.8203125
-36.1328125,-67.87109375,-107.91015625,965.8203125
167.96875,-69.82421875,-121.09375,965.8203125
150.87890625,-70.80078125,-113.76953125,962.890625
-82.03125,-106.4453125,-112.3046875,973.6328125
-270.99609375,-110.83984375,-128.41796875,921.875
-160.15625,-87.40234375,-126.953125,862.3046875
104.4921875,-91.796875,-112.79296875,904.78515625
107.91015625,-115.72265625,-104.98046875,923.828125
-139.16015625,-138.18359375,-121.09375,817.3828125
-316.89453125,-118.1640625,-157.2265625,670.8984375
-222.16796875,-98.14453125,-161.62109375,600.5859375
79.58984375,-104.98046875,-128.90625,609.86328125
94.7265625,-107.421875,-118.65234375,585.44921875
-133.7890625,-94.7265625,-107.91015625,539.0625
-315.91796875,-121.09375,-123.046875,496.09375
-289.55078125,-163.57421875,-132.32421875,459.47265625
-5.859375,-137.20703125,-107.421875,535.15625
145.5078125,-96.6796875,-113.28125,645.99609375
-48.828125,-92.7734375,-103.02734375,625.0
-288.0859375,-104.98046875,-82.51953125,558.59375
-290.0390625,-97.65625,-70.80078125,547.36328125
-30.2734375,-92.7734375,-62.01171875,579.58984375
191.40625,-87.40234375,-66.40625,615.72265625
26.85546875,-104.00390625,-58.59375,610.3515625
-261.71875,-119.62890625,-55.17578125,593.26171875
-260.7421875,-118.65234375,-45.8984375,562.98828125
-8.30078125,-98.6328125,-47.36328125,564.453125
206.54296875,-101.07421875,-50.29296875,591.796875
104.4921875,-127.9296875,-34.1796875,617.1875
-217.28515625,-150.390625,-35.64453125,567.87109375
-394.04296875,-148.92578125,-42.96875,514.16015625
-210.44921875,-112.79296875,-49.8046875,575.68359375
69.82421875,-100.5859375,-44.43359375,694.82421875
-74.70703125,-102.5390625,-33.203125,712.890625
-388.18359375,-108.3984375,-34.1796875,620.1171875
-456.54296875,-101.5625,-39.55078125,530.76171875
-275.390625,-96.6796875,-52.734375,473.6328125
64.94140625,-109.86328125,-44.43359375,566.40625
61.03515625,-120.1171875,-31.25,639.6484375
-237.3046875,-117.67578125,-29.296875,580.078125
-376.46484375,-146.97265625,-20.99609375,560.546875
-298.33984375,-154.78515625,-40.0390625,508.30078125
7.32421875,-121.58203125,-50.78125,479.00390625
41.015625,-112.3046875,-45.41015625,481.4453125
-307.12890625,-108.3984375,-43.45703125,413.57421875
-540.52734375,-115.234375,-50.29296875,351.5625
-378.41796875,-135.7421875,-51.26953125,345.703125
2.9296875,-158.203125,-38.57421875,374.0234375
66.40625,-155.2734375,-41.50390625,404.296875
-246.09375,-135.7421875,-44.43359375,371.58203125
-529.78515625,-135.25390625,-36.62109375,269.53125
-464.84375,-149.90234375,-37.109375,259.765625
-173.33984375,-128.90625,-48.828125,238.76953125
9.765625,-99.609375,-49.31640625,209.9609375
-187.01171875,-116.2109375,-49.31640625,222.65625
-507.32421875,-128.41796875,-49.8046875,174.31640625
-439.94140625,-160.15625,-25.87890625,184.5703125
-96.6796875,-141.11328125,-24.90234375,235.3515625
36.62109375,-105.95703125,-44.921875,268.06640625
-157.71484375,-140.625,-56.15234375,289.0625
-471.6796875,-169.921875,-63.4765625,288.57421875
-529.78515625,-176.26953125,-62.5,271.97265625
-205.56640625,-163.57421875,-45.8984375,337.890625
1.46484375,-164.55078125,-69.82421875,375.0
-128.41796875,-188.4765625,-103.515625,285.64453125
-444.82421875,-188.4765625,-119.62890625,294.921875
-620.60546875,-168.9453125,-137.20703125,312.98828125
-282.2265625,-176.7578125,-109.375,368.1640625
51.26953125,-158.69140625,-75.1953125,355.46875
-153.80859375,-134.765625,-64.94140625,172.8515625
-458.49609375,-159.66796875,-51.26953125,40.0390625
-543.9453125,-151.85546875,-47.36328125,-67.3828125
-313.96484375,-149.90234375,-53.22265625,-121.58203125
110.3515625,-147.4609375,-73.2421875,-52.734375
84.47265625,-122.55859375,-93.26171875,-42.96875
-299.8046875,-147.94921875,-85.44921875,-92.7734375
-454.58984375,-180.6640625,-103.515625,-73.73046875
-251.46484375,-166.50390625,-120.60546875,-26.85546875
55.17578125,-161.62109375,-93.26171875,13.671875
52.734375,-177.734375,-100.5859375,76.66015625
-367.1875,-128.41796875,-149.90234375,27.34375
-650.390625,-103.515625,-146.484375,-69.3359375
-415.52734375,-143.5546875,-106.4453125,-25.87890625
-25.87890625,-165.52734375,-93.26171875,38.57421875
49.31640625,-183.10546875,-100.09765625,109.375
-270.5078125,-135.7421875,-93.75,126.953125
-550.78125,-112.3046875,-88.8671875,81.0546875
-388.18359375,-113.28125,-121.58203125,103.515625
-10.25390625,-101.5625,-104.00390625,162.59765625
122.55859375,-145.5078125,-86.42578125,260.7421875
-144.53125,-142.08984375,-117.1875,266.6015625
-477.05078125,-103.02734375,-111.81640625,163.0859375
-371.09375,-146.484375,-106.4453125,182.12890625
20.01953125,-193.359375,-83.49609375,233.3984375
130.859375,-117.1875,-78.125,253.90625
-164.0625,-46.38671875,-115.72265625,253.90625
-456.0546875,-86.42578125,-78.61328125,187.01171875
-359.375,-179.6875,-61.03515625,219.23828125
-23.92578125,-109.375,-96.6796875,308.10546875
164.55078125,-77.1484375,-53.7109375,328.125
-115.72265625,-136.71875,-41.015625,307.6171875
-492.1875,-104.98046875,-73.73046875,256.8359375
-512.6953125,-77.63671875,-54.6875,250.9765625
-148.92578125,-59.5703125,-107.421875,336.42578125
106.93359375,-62.5,-96.19140625,413.0859375
-26.85546875,-109.86328125,-36.62109375,446.77734375
-367.67578125,-49.8046875,-58.10546875,379.8828125
-561.03515625,20.01953125,-104.4921875,256.34765625
-191.89453125,-2.9296875,-87.40234375,265.625
196.77734375,2.9296875,-71.77734375,352.5390625
45.41015625,-28.80859375,-66.89453125,348.14453125
-334.47265625,-9.765625,-18.5546875,258.30078125
-504.8828125,62.01171875,-15.625,97.16796875
-175.29296875,9.27734375,-40.52734375,117.1875
178.7109375,-29.296875,-28.80859375,256.34765625
11.23046875,13.671875,-24.90234375,232.91015625
-318.359375,-0.48828125,-79.1015625,152.83203125
-473.14453125,-6.34765625,-75.1953125,91.30859375
-331.54296875,-5.37109375,-52.734375,55.17578125
116.69921875,-44.921875,-57.6171875,83.0078125
114.2578125,-23.4375,-58.10546875,109.375
-300.78125,-2.9296875,-75.1953125,74.70703125
-478.02734375,-37.109375,-63.4765625,32.2265625
-334.9609375,-64.94140625,-45.41015625,78.125
42.96875,-100.5859375,-29.78515625,239.74609375
119.140625,-81.0546875,-13.18359375,327.63671875
-253.41796875,-50.78125,-2.9296875,291.50390625
-529.296875,32.71484375,-93.26171875,254.8828125
-336.9140625,-11.71875,-62.5,286.62109375
46.875,-58.59375,12.20703125,354.4921875
115.72265625,-32.2265625,0.48828125,357.91015625
-169.43359375,-53.7109375,22.94921875,340.8203125
-459.47265625,-7.8125,2.9296875,323.73046875
-384.765625,-33.69140625,-20.5078125,295.41015625
32.71484375,-56.15234375,5.859375,315.91796875
141.11328125,-23.4375,48.828125,299.8046875
-166.50390625,-80.56640625,66.89453125,289.55078125
-416.50390625,-51.7578125,10.7421875,268.5546875
-440.91796875,-3.41796875,-25.87890625,138.18359375
-91.796875,-56.640625,-9.27734375,63.4765625
143.5546875,-49.31640625,17.08984375,90.33203125
-96.6796875,-47.8515625,2.9296875,101.07421875
-400.87890625,-51.26953125,-10.25390625,8.7890625
-426.7578125,-76.171875,20.99609375,-111.328125
-66.40625,-81.54296875,28.80859375,-55.17578125
203.61328125,-41.9921875,14.6484375,27.34375
-4.39453125,-57.12890625,37.59765625,16.6015625
-389.16015625,-36.1328125,19.53125,-95.21484375
-472.65625,-43.45703125,-17.08984375,-220.703125
-123.53515625,-90.33203125,-10.7421875,-208.984375
133.7890625,-63.4765625,-6.34765625,-165.0390625
-5.859375,-52.24609375,-2.9296875,-137.20703125
-309.5703125,-74.21875,23.4375,-158.69140625
-436.03515625,-76.171875,15.625,-247.55859375
-203.61328125,-32.71484375,-36.1328125,-290.0390625
111.81640625,-29.78515625,-34.1796875,-203.125
95.703125,-64.453125,-2.44140625,-130.859375
-219.23828125,-36.62109375,-14.6484375,-207.51953125
-395.01953125,-46.875,-6.34765625,-219.23828125
-194.82421875,-60.05859375,12.20703125,-171.38671875
113.28125,-11.23046875,-5.37109375,-151.85546875
102.5390625,13.671875,2.9296875,-109.375
-229.00390625,7.8125,15.625,-103.02734375
-443.359375,-31.25,20.01953125,-171.38671875
-237.3046875,-33.69140625,17.578125,-234.375
144.04296875,1.46484375,9.765625,-188.96484375
178.7109375,15.625,13.18359375,-139.6484375
-130.37109375,8.7890625,11.71875,-171.875
-410.64453125,-4.8828125,3.41796875,-223.14453125
-301.26953125,2.9296875,1.46484375,-209.9609375
85.44921875,19.04296875,6.8359375,-138.18359375
158.203125,1.46484375,16.11328125,-46.38671875
-146.97265625,-12.6953125,11.71875,-62.01171875
-399.90234375,-2.44140625,-0.48828125,-167.48046875
-320.80078125,12.20703125,9.765625,-171.875
53.22265625,24.90234375,20.01953125,-89.84375
242.67578125,33.69140625,14.6484375,-69.3359375
-11.71875,30.2734375,16.11328125,-108.3984375
-315.4296875,23.92578125,17.578125,-149.90234375
-292.96875,13.671875,13.18359375,-168.9453125
-1.46484375,2.44140625,19.53125,-114.2578125
175.29296875,4.39453125,26.85546875,-34.1796875
11.23046875,3.90625,27.83203125,-15.13671875
-251.953125,-4.8828125,20.01953125,-30.76171875
-284.66796875,5.37109375,12.20703125,-48.828125
35.64453125,15.625,26.85546875,33.203125
232.91015625,7.32421875,27.83203125,134.27734375
42.48046875,11.71875,4.8828125,118.1640625
-246.09375,14.16015625,-13.671875,-40.0390625
-299.31640625,5.37109375,-12.6953125,-142.08984375
9.27734375,7.8125,2.44140625,-38.57421875
265.13671875,21.484375,12.20703125,117.67578125
160.15625,26.3671875,23.92578125,173.33984375
-123.53515625,19.04296875,32.71484375,103.515625
-263.18359375,13.671875,19.53125,45.41015625
-49.8046875,9.27734375,-3.90625,39.55078125
227.5390625,2.44140625,-1.46484375,129.39453125
133.30078125,5.859375,-3.90625,180.6640625
-211.9140625,10.7421875,-11.23046875,133.7890625
-387.20703125,13.671875,-0.9765625,87.890625
-160.15625,17.08984375,-0.9765625,77.63671875
182.12890625,16.6015625,-0.9765625,134.765625
157.2265625,12.20703125,4.8828125,202.1484375
-167.96875,2.44140625,-14.6484375,163.0859375
-356.4453125,0.48828125,-33.203125,61.5234375
-160.15625,1.953125,-31.25,27.83203125
235.83984375,16.6015625,-29.296875,46.875
277.83203125,19.53125,-28.80859375,89.84375
-103.02734375,0.48828125,-21.97265625,77.1484375
-349.12109375,1.46484375,-18.5546875,-57.12890625
-195.80078125,9.765625,-23.4375,-111.328125
166.015625,6.34765625,-21.97265625,-50.29296875
287.59765625,10.25390625,-9.27734375,8.30078125
-11.71875,21.484375,-4.39453125,4.8828125
-286.1328125,28.80859375,0.0,-87.40234375
-187.01171875,33.69140625,10.7421875,-145.01953125
158.203125,24.90234375,17.578125,-85.9375
298.828125,18.5546875,23.92578125,-39.0625
29.296875,4.8828125,13.671875,-72.265625
-321.77734375,-20.5078125,-10.7421875,-174.8046875
-343.75,-40.0390625,-39.55078125,-246.09375
-9.765625,-50.29296875,-54.6875,-172.36328125
161.62109375,-62.98828125,-60.05859375,-105.46875
-109.86328125,-89.35546875,-82.51953125,-135.7421875
-464.35546875,-101.5625,-97.65625,-219.7265625
-454.1015625,-108.88671875,-105.95703125,-238.28125
-78.61328125,-125.0,-127.9296875,-175.29296875
144.04296875,-125.9765625,-138.671875,-168.45703125
-63.96484375,-113.76953125,-134.27734375,-211.9140625
-420.41015625,-112.3046875,-138.18359375,-255.37109375
-454.1015625,-112.3046875,-142.08984375,-312.5
-83.984375,-115.72265625,-141.11328125,-250.48828125
155.2734375,-122.55859375,-150.87890625,-115.234375
-39.0625,-118.1640625,-150.390625,-121.09375
-365.72265625,-116.69921875,-149.4140625,-200.1953125
-436.03515625,-123.046875,-149.90234375,-209.9609375
-146.97265625,-125.0,-151.3671875,-135.7421875
133.30078125,-112.79296875,-159.66796875,-44.921875
51.26953125,-110.3515625,-157.2265625,15.625
-269.04296875,-135.7421875,-166.015625,-34.66796875
-364.2578125,-153.3203125,-199.70703125,-87.890625
-101.07421875,-139.6484375,-210.9375,-122.0703125
184.08203125,-118.65234375,-200.1953125,-104.00390625
113.76953125,-113.76953125,-199.70703125,-56.15234375
-253.41796875,-136.23046875,-195.80078125,-112.79296875
-465.33203125,-151.3671875,-187.98828125,-184.08203125
-255.859375,-141.6015625,-179.6875,-161.62109375
102.5390625,-134.765625,-166.015625,-21.484375
76.66015625,-142.578125,-157.71484375,15.13671875
-238.28125,-148.4375,-156.25,-87.40234375
-428.22265625,-141.6015625,-165.0390625,-237.3046875
-238.28125,-137.6953125,-167.48046875,-316.40625
90.33203125,-142.08984375,-150.87890625,-207.03125
95.703125,-139.6484375,-132.8125,-128.41796875
-189.94140625,-130.37109375,-127.9296875,-170.41015625
-403.3203125,-142.578125,-128.41796875,-244.140625
-291.015625,-156.25,-123.046875,-217.7734375
61.03515625,-129.8828125,-114.74609375,-100.09765625
180.17578125,-109.375,-107.421875,-56.640625
-141.11328125,-108.3984375,-111.328125,-119.140625
-420.41015625,-100.09765625,-124.51171875,-188.4765625
-325.68359375,-93.75,-105.95703125,-182.12890625
12.6953125,-87.890625,-72.75390625,-120.60546875
166.50390625,-72.265625,-67.87109375,-41.50390625
-53.22265625,-70.3125,-76.171875,-25.390625
-353.515625,-85.44921875,-76.66015625,-101.07421875
-331.54296875,-84.9609375,-73.73046875,-142.08984375
26.85546875,-68.359375,-64.453125,-68.359375
235.3515625,-63.4765625,-45.8984375,6.34765625
-4.8828125,-60.05859375,-40.52734375,-56.15234375
-343.26171875,-57.12890625,-50.78125,-195.3125
-351.5625,-60.546875,-58.59375,-256.8359375
2.44140625,-65.91796875,-53.22265625,-150.390625
239.74609375,-78.61328125,-49.31640625,-63.96484375
68.84765625,-83.49609375,-63.96484375,-76.171875
-261.71875,-91.796875,-75.68359375,-108.88671875
-353.515625,-93.75,-74.21875,-148.4375
-31.25,-100.09765625,-75.1953125,-129.8828125
216.30859375,-102.5390625,-75.68359375,-75.68359375
74.21875,-92.28515625,-69.3359375,-60.05859375
-250.48828125,-83.0078125,-77.63671875,-122.55859375
-395.99609375,-69.3359375,-87.890625,-202.1484375
-126.46484375,-64.453125,-74.21875,-166.015625
196.2890625,-65.4296875,-67.3828125,-86.9140625
94.7265625,-73.2421875,-81.0546875,-123.046875
-232.421875,-81.54296875,-83.49609375,-160.64453125
-365.234375,-83.984375,-93.75,-244.140625
-154.296875,-94.23828125,-104.98046875,-317.3828125
184.08203125,-91.30859375,-85.44921875,-260.25390625
132.8125,-88.37890625,-68.84765625,-232.91015625
-195.3125,-100.09765625,-71.2890625,-280.2734375
-400.87890625,-102.5390625,-80.078125,-363.28125
-249.0234375,-97.65625,-86.42578125,-379.8828125
105.46875,-89.84375,-79.1015625,-281.25
136.71875,-84.9609375,-76.171875,-237.3046875
-164.55078125,-90.33203125,-82.03125,-297.36328125
-397.94921875,-94.7265625,-87.890625,-377.9296875
-268.5546875,-97.16796875,-90.8203125,-382.32421875
94.23828125,-91.796875,-91.796875,-340.33203125
172.8515625,-87.40234375,-95.21484375,-306.15234375
-127.9296875,-87.890625,-98.6328125,-313.4765625
-413.57421875,-99.609375,-92.28515625,-345.703125
-345.703125,-103.02734375,-88.37890625,-340.8203125
-29.78515625,-101.5625,-83.984375,-250.0
131.34765625,-99.12109375,-80.56640625,-195.3125
-101.07421875,-91.30859375,-93.26171875,-257.32421875
-442.3828125,-91.796875,-92.7734375,-335.44921875
-384.27734375,-83.49609375,-94.23828125,-344.7265625
-8.30078125,-78.125,-97.65625,-289.0625
133.30078125,-87.40234375,-91.796875,-192.87109375
-135.25390625,-102.05078125,-94.7265625,-250.0
-476.5625,-87.890625,-108.88671875,-381.34765625
-485.3515625,-66.89453125,-105.95703125,-407.71484375
-137.20703125,-58.59375,-106.93359375,-452.63671875
85.44921875,-57.12890625,-115.234375,-410.64453125
-95.21484375,-62.01171875,-118.1640625,-394.04296875
-426.26953125,-67.3828125,-122.0703125,-433.10546875
-466.796875,-63.4765625,-117.1875,-491.69921875
-165.52734375,-53.22265625,-111.328125,-537.59765625
106.4453125,-50.29296875,-97.16796875,-423.828125
12.6953125,-63.96484375,-91.796875,-362.3046875
-330.56640625,-74.21875,-110.83984375,-451.66015625
-435.546875,-61.03515625,-120.60546875,-508.30078125
-151.3671875,-47.36328125,-109.86328125,-441.89453125
93.75,-36.62109375,-105.95703125,-334.47265625
-46.38671875,-11.71875,-111.81640625,-296.875
-365.234375,43.45703125,-116.69921875,-349.12109375
-471.6796875,77.1484375,-121.58203125,-421.38671875
-238.28125,77.63671875,-120.60546875,-402.34375
76.66015625,82.51953125,-113.76953125,-266.6015625
58.59375,83.984375,-116.2109375,-254.39453125
-265.625,70.80078125,-122.0703125,-353.515625
-452.63671875,59.5703125,-125.9765625,-367.1875
-243.1640625,56.15234375,-124.0234375,-352.5390625
110.83984375,47.8515625,-120.60546875,-328.61328125
138.671875,45.41015625,-125.0,-283.69140625
-147.94921875,43.45703125,-129.39453125,-266.6015625
-351.5625,28.3203125,-122.55859375,-298.33984375
-253.41796875,15.625,-127.9296875,-336.9140625
94.23828125,11.23046875,-130.859375,-294.921875
174.31640625,6.34765625,-124.0234375,-243.65234375
-112.3046875,17.578125,-124.0234375,-266.11328125
-354.00390625,40.0390625,-127.44140625,-256.8359375
-261.23046875,46.38671875,-126.46484375,-148.92578125
89.35546875,44.921875,-127.44140625,-50.29296875
193.84765625,43.45703125,-131.8359375,20.99609375
-44.921875,41.50390625,-139.6484375,14.16015625
-292.96875,35.64453125,-149.4140625,-76.171875
-231.93359375,21.97265625,-139.16015625,-95.703125
123.53515625,27.83203125,-126.46484375,-23.92578125
283.203125,45.41015625,-124.51171875,69.3359375
0.9765625,31.25,-133.7890625,-9.27734375
-275.87890625,21.97265625,-151.3671875,-164.55078125
-241.69921875,20.99609375,-158.203125,-235.83984375
64.94140625,14.6484375,-149.90234375,-232.421875
265.13671875,7.8125,-136.71875,-162.109375
67.3828125,-0.9765625,-131.8359375,-141.6015625
-258.7890625,-11.23046875,-135.25390625,-225.5859375
-296.38671875,-13.18359375,-141.6015625,-302.24609375
19.53125,-16.11328125,-141.11328125,-282.71484375
248.53515625,-15.13671875,-134.765625,-186.5234375
78.125,-28.3203125,-131.8359375,-148.92578125
-228.02734375,-42.96875,-131.8359375,-214.35546875
-324.21875,-43.9453125,-129.39453125,-291.50390625
-78.61328125,-48.33984375,-122.0703125,-312.01171875
231.4453125,-43.45703125,-118.65234375,-244.62890625
145.5078125,-37.109375,-123.046875,-243.1640625
-178.22265625,-41.50390625,-136.23046875,-290.0390625
-296.38671875,-61.5234375,-150.87890625,-373.53515625
-71.2890625,-75.68359375,-147.4609375,-394.53125
239.74609375,-70.80078125,-132.32421875,-291.015625
227.05078125,-80.078125,-126.953125,-240.72265625
-111.328125,-89.35546875,-127.44140625,-287.59765625
-343.26171875,-82.03125,-138.671875,-356.4453125
-144.04296875,-76.66015625,-152.34375,-335.9375
222.16796875,-75.1953125,-150.87890625,-217.28515625
202.63671875,-86.9140625,-144.04296875,-166.015625
-143.5546875,-95.21484375,-142.08984375,-242.1875
-375.48828125,-99.12109375,-150.87890625,-291.50390625
-266.11328125,-113.28125,-154.78515625,-252.9296875
91.796875,-110.3515625,-150.87890625,-168.9453125
213.8671875,-94.23828125,-150.390625,-115.234375
-47.36328125,-86.42578125,-143.5546875,-171.875
-267.08984375,-93.75,-143.5546875,-271.484375
-160.15625,-98.14453125,-150.87890625,-287.109375
194.82421875,-97.16796875,-149.4140625,-198.2421875
355.95703125,-99.609375,-147.94921875,-156.73828125
76.171875,-92.7734375,-154.296875,-206.0546875
-214.84375,-105.46875,-152.83203125,-285.64453125
-176.26953125,-124.0234375,-149.4140625,-299.31640625
121.09375,-117.67578125,-156.73828125,-230.95703125
286.1328125,-104.00390625,-160.15625,-223.14453125
74.70703125,-103.515625,-157.2265625,-246.09375
-256.34765625,-110.3515625,-151.3671875,-286.1328125
-245.1171875,-106.4453125,-141.6015625,-324.21875
135.25390625,-83.984375,-136.23046875,-280.2734375
320.3125,-72.265625,-140.13671875,-188.96484375
89.35546875,-79.1015625,-147.4609375,-165.0390625
-235.3515625,-87.40234375,-156.25,-268.5546875
-267.08984375,-93.75,-156.73828125,-322.265625
66.40625,-81.0546875,-152.34375,-254.8828125
323.2421875,-68.84765625,-149.4140625,-179.19921875
191.89453125,-73.2421875,-148.4375,-123.53515625
-171.875,-87.40234375,-152.34375,-203.125
-271.97265625,-100.09765625,-159.1796875,-289.0625
69.82421875,-98.14453125,-159.1796875,-247.55859375
370.60546875,-90.33203125,-156.25,-160.15625
225.5859375,-83.0078125,-158.69140625,-136.71875
-98.6328125,-78.125,-153.3203125,-232.91015625
-239.74609375,-89.84375,-145.99609375,-322.75390625
10.25390625,-85.9375,-149.90234375,-294.921875
409.1796875,-72.265625,-152.83203125,-202.63671875
342.28515625,-75.68359375,-149.4140625,-138.671875
-44.921875,-77.63671875,-149.4140625,-174.8046875
-247.55859375,-74.70703125,-149.90234375,-283.203125
-41.9921875,-74.21875,-144.53125,-264.6484375
355.46875,-83.49609375,-141.11328125,-145.5078125
316.89453125,-86.9140625,-141.6015625,-107.421875
-43.45703125,-90.8203125,-147.94921875,-190.4296875
-242.67578125,-98.6328125,-149.90234375,-249.0234375
-88.8671875,-96.6796875,-143.06640625,-202.1484375
275.390625,-86.9140625,-139.16015625,-104.4921875
295.41015625,-76.66015625,-144.53125,-91.796875
-44.921875,-82.51953125,-146.484375,-146.484375
-292.96875,-97.65625,-153.3203125,-226.07421875
-194.82421875,-92.7734375,-166.015625,-266.11328125
192.87109375,-78.61328125,-165.0390625,-203.125
300.29296875,-86.9140625,-160.64453125,-148.92578125
-34.66796875,-84.47265625,-151.3671875,-179.19921875
-340.33203125,-87.40234375,-152.83203125,-220.21484375
-291.50390625,-104.00390625,-158.69140625,-275.87890625
115.234375,-101.5625,-154.78515625,-285.64453125
262.6953125,-97.16796875,-142.578125,-188.4765625
-23.4375,-97.65625,-140.13671875,-156.73828125
-321.77734375,-103.515625,-159.66796875,-282.2265625
-305.6640625,-111.81640625,-168.45703125,-353.02734375
40.52734375,-112.3046875,-159.1796875,-295.41015625
237.3046875,-102.5390625,-151.85546875,-224.609375
-23.4375,-100.5859375,-159.66796875,-238.76953125
-355.95703125,-105.95703125,-170.41015625,-310.546875
-394.04296875,-113.76953125,-169.921875,-344.23828125
-74.21875,-118.1640625,-167.48046875,-305.6640625
176.7578125,-119.62890625,-167.48046875,-244.140625
19.53125,-116.2109375,-171.875,-250.0
-315.91796875,-111.328125,-172.8515625,-338.8671875
-454.1015625,-114.74609375,-177.24609375,-438.96484375
-171.875,-113.76953125,-181.15234375,-391.11328125
121.58203125,-114.74609375,-174.8046875,-297.36328125
-2.9296875,-125.9765625,-169.921875,-296.875
-285.15625,-136.71875,-170.41015625,-348.6328125
-422.8515625,-141.11328125,-178.22265625,-357.91015625
-174.31640625,-135.25390625,-178.22265625,-305.6640625
149.4140625,-126.46484375,-180.17578125,-245.60546875
35.15625,-131.34765625,-188.96484375,-251.46484375
-286.62109375,-138.18359375,-192.3828125,-312.98828125
-443.359375,-141.11328125,-192.3828125,-362.79296875
-236.81640625,-139.16015625,-190.91796875,-330.56640625
116.69921875,-142.08984375,-192.87109375,-214.35546875
98.14453125,-136.23046875,-188.4765625,-166.9921875
-262.20703125,-136.71875,-184.5703125,-232.421875
-478.515625,-146.484375,-185.05859375,-308.10546875
-306.15234375,-133.30078125,-190.4296875,-368.1640625
57.6171875,-134.27734375,-189.453125,-293.9453125
88.37890625,-144.53125,-173.828125,-232.91015625
-248.046875,-141.6015625,-175.29296875,-322.265625
-485.83984375,-141.11328125,-186.5234375,-421.38671875
-407.71484375,-150.87890625,-179.6875,-433.59375
-55.17578125,-149.4140625,-172.36328125,-354.00390625
27.34375,-148.4375,-164.55078125,-288.57421875
-233.88671875,-156.25,-166.9921875,-320.80078125
-482.91015625,-161.1328125,-179.19921875,-427.734375
-441.89453125,-159.1796875,-182.6171875,-456.0546875
-80.078125,-148.4375,-177.24609375,-364.74609375
93.75,-138.18359375,-181.640625,-318.359375
-124.0234375,-132.8125,-198.73046875,-338.8671875
-417.48046875,-134.765625,-201.171875,-382.8125
-413.0859375,-130.37109375,-198.73046875,-406.73828125
-40.0390625,-125.48828125,-195.80078125,-297.8515625
199.70703125,-123.53515625,-190.91796875,-203.61328125
-28.80859375,-125.9765625,-198.2421875,-236.328125
-359.375,-128.41796875,-206.0546875,-310.05859375
-399.4140625,-115.234375,-196.2890625,-326.66015625
-70.80078125,-106.4453125,-184.5703125,-260.7421875
183.10546875,-99.12109375,-183.59375,-208.984375
-17.08984375,-90.8203125,-189.453125,-278.80859375
-286.62109375,-88.8671875,-194.3359375,-334.9609375
-333.0078125,-91.796875,-200.68359375,-354.00390625
-55.17578125,-87.890625,-193.84765625,-309.5703125
235.3515625,-62.5,-185.05859375,-179.6875
117.1875,-36.62109375,-187.5,-146.484375
-196.77734375,-28.3203125,-196.2890625,-216.796875
-362.3046875,-30.2734375,-208.49609375,-268.5546875
-96.19140625,-26.85546875,-213.8671875,-238.28125
187.98828125,-27.83203125,-215.33203125,-174.8046875
47.8515625,-41.9921875,-220.21484375,-141.6015625
-262.6953125,-52.734375,-229.4921875,-187.5
-372.55859375,-58.59375,-229.98046875,-270.5078125
-168.9453125,-69.82421875,-221.6796875,-245.1171875
67.87109375,-83.984375,-231.4453125,-174.31640625
19.04296875,-89.84375,-239.74609375,-170.8984375
-284.66796875,-98.6328125,-244.140625,-232.421875
-466.796875,-112.3046875,-250.9765625,-296.875
-310.546875,-121.58203125,-256.34765625,-291.50390625
53.7109375,-120.60546875,-260.25390625,-248.046875
109.375,-124.51171875,-260.25390625,-229.4921875
-208.984375,-136.23046875,-259.27734375,-288.0859375
-454.58984375,-135.7421875,-254.39453125,-381.8359375
-324.21875,-130.37109375,-249.0234375,-380.859375
27.34375,-129.39453125,-252.44140625,-271.97265625
86.9140625,-132.8125,-249.51171875,-169.43359375
-208.984375,-144.53125,-246.09375,-217.7734375
-459.47265625,-147.4609375,-251.953125,-323.2421875
-388.18359375,-137.20703125,-253.90625,-361.81640625
-45.8984375,-119.62890625,-232.91015625,-273.4375
57.12890625,-108.3984375,-226.07421875,-206.54296875
-152.83203125,-108.88671875,-249.51171875,-249.51171875
-357.91015625,-118.1640625,-240.234375,-312.01171875
-366.69921875,-138.671875,-221.19140625,-372.0703125
-24.4140625,-126.953125,-204.1015625,-338.8671875
160.64453125,-103.02734375,-197.265625,-270.01953125
-88.37890625,-101.5625,-200.1953125,-262.20703125
-303.7109375,-101.07421875,-198.2421875,-346.6796875
-313.96484375,-100.5859375,-196.77734375,-408.69140625
-42.48046875,-96.6796875,-187.01171875,-334.9609375
158.69140625,-85.44921875,-185.546875,-240.72265625
-9.765625,-79.1015625,-192.87109375,-241.2109375
-288.0859375,-80.078125,-188.96484375,-327.1484375
-353.02734375,-74.21875,-196.77734375,-340.8203125
-32.2265625,-73.2421875,-203.125,-191.40625
193.84765625,-80.56640625,-205.078125,-109.86328125
29.78515625,-74.70703125,-200.68359375,-178.7109375
-178.7109375,-59.5703125,-195.80078125,-288.0859375
-298.33984375,-76.66015625,-198.73046875,-350.09765625
-131.8359375,-96.6796875,-185.05859375,-294.43359375
126.953125,-98.14453125,-185.05859375,-233.3984375
75.68359375,-80.078125,-189.453125,-267.08984375
-148.92578125,-62.98828125,-188.4765625,-334.9609375
-301.7578125,-66.89453125,-189.94140625,-417.48046875
-102.5390625,-75.68359375,-192.3828125,-379.8828125
188.96484375,-80.078125,-189.453125,-287.109375
190.91796875,-72.75390625,-189.453125,-333.984375
4.39453125,-72.75390625,-196.2890625,-440.4296875
-125.48828125,-87.40234375,-214.84375,-524.4140625
19.53125,-98.14453125,-230.46875,-513.18359375
314.94140625,-99.12109375,-232.421875,-475.09765625
305.6640625,-104.00390625,-245.60546875,-543.45703125
8.30078125,-110.83984375,-252.44140625,-605.46875
-188.4765625,-127.9296875,-243.65234375,-676.7578125
-101.07421875,-138.671875,-225.5859375,-693.84765625
222.16796875,-131.8359375,-213.8671875,-656.73828125
352.5390625,-125.0,-201.66015625,-678.7109375
127.44140625,-124.51171875,-191.40625,-762.20703125
-63.96484375,-130.37109375,-200.1953125,-928.22265625
51.7578125,-125.48828125,-206.0546875,-1000.0
344.23828125,-116.69921875,-204.1015625,-931.15234375
414.55078125,-120.1171875,-195.80078125,-865.72265625
186.03515625,-124.51171875,-181.640625,-938.96484375
-0.9765625,-115.72265625,-187.98828125,-970.21484375
31.73828125,-119.140625,-198.73046875,-957.51953125
291.50390625,-138.671875,-185.546875,-854.00390625
361.328125,-129.8828125,-185.546875,-773.4375
162.59765625,-113.76953125,-191.89453125,-765.13671875
-27.34375,-119.140625,-187.98828125,-705.56640625
-143.06640625,-136.23046875,-190.4296875,-680.17578125
-92.7734375,-143.06640625,-179.19921875,-644.04296875
15.625,-127.9296875,-166.9921875,-547.36328125
-145.01953125,-118.1640625,-177.24609375,-562.5
-354.00390625,-119.62890625,-198.73046875,-783.203125
-327.63671875,-117.1875,-203.125,-896.484375
-118.65234375,-112.3046875,-192.87109375,-770.01953125
110.3515625,-124.51171875,-192.3828125,-645.99609375
229.4921875,-128.41796875,-189.94140625,-620.1171875
397.4609375,-121.58203125,-185.546875,-692.3828125
727.5390625,-122.0703125,-186.03515625,-725.09765625
936.5234375,-121.58203125,-185.05859375,-697.75390625
953.125,-120.1171875,-180.17578125,-644.53125
980.46875,-119.62890625,-175.29296875,-625.9765625
825.68359375,-124.0234375,-178.22265625,-719.7265625
460.9375,-129.39453125,-178.22265625,-854.4921875
45.8984375,-134.765625,-180.6640625,-877.44140625
-213.8671875,-131.8359375,-190.4296875,-856.4453125
-437.98828125,-126.46484375,-201.66015625,-918.9453125
-895.5078125,-134.765625,-200.1953125,-995.1171875
-1000.0,-140.13671875,-197.75390625,-998.046875
-987.79296875,-139.6484375,-204.58984375,-1000.0
-1000.0,-138.18359375,-202.1484375,-972.65625
-1000.0,-134.765625,-209.9609375,-878.90625
-1000.0,-134.27734375,-216.796875,-887.20703125
-1000.0,-135.25390625,-212.890625,-903.3203125
-1000.0,-139.16015625,-223.14453125,-821.77734375
-1000.0,-140.13671875,-242.1875,-742.1875
-1000.0,-139.6484375,-248.53515625,-708.0078125
-978.02734375,-138.671875,-245.1171875,-739.74609375
-1000.0,-141.11328125,-239.74609375,-785.64453125
-755.859375,-146.97265625,-238.28125,-782.2265625
-283.69140625,-135.25390625,-232.91015625,-673.33984375
77.63671875,-129.8828125,-231.93359375,-575.1953125
430.6640625,-153.80859375,-233.88671875,-597.16796875
499.0234375,-158.69140625,-223.6328125,-662.59765625
717.7734375,-147.94921875,-212.40234375,-619.62890625
926.26953125,-154.296875,-207.51953125,-532.71484375
972.16796875,-159.1796875,-211.42578125,-500.48828125
928.7109375,-166.9921875,-204.58984375,-516.6015625
625.48828125,-168.45703125,-200.1953125,-551.7578125
443.359375,-166.9921875,-206.0546875,-522.94921875
507.32421875,-184.5703125,-204.1015625,-474.12109375
417.48046875,-192.3828125,-188.96484375,-291.50390625
42.96875,-180.6640625,-194.3359375,-223.6328125
-508.7890625,-180.17578125,-202.63671875,-334.9609375
-800.29296875,-182.6171875,-198.73046875,-335.9375
-596.19140625,-165.0390625,-209.9609375,-346.19140625
-345.703125,-148.92578125,-206.54296875,-336.9140625
-420.8984375,-148.4375,-199.70703125,-334.9609375
-587.890625,-149.4140625,-207.51953125,-427.734375
-598.14453125,-153.3203125,-213.8671875,-496.58203125
-376.46484375,-140.625,-200.1953125,-374.51171875
-147.4609375,-119.62890625,-177.734375,-163.0859375
-278.80859375,-116.69921875,-172.36328125,-86.42578125
-569.3359375,-111.81640625,-187.5,-159.66796875
-686.03515625,-120.60546875,-185.05859375,-196.77734375
-387.6953125,-128.90625,-183.59375,-86.42578125
3.90625,-105.95703125,-189.453125,11.71875
-16.6015625,-99.609375,-175.29296875,27.83203125
-299.8046875,-115.234375,-166.9921875,-55.17578125
-435.05859375,-114.2578125,-161.1328125,-92.28515625
-194.3359375,-110.3515625,-165.52734375,-38.0859375
82.51953125,-117.67578125,-183.10546875,-57.6171875
31.73828125,-124.51171875,-184.08203125,-93.26171875
-284.1796875,-131.34765625,-180.17578125,-163.0859375
-525.87890625,-144.04296875,-174.8046875,-227.05078125
-396.97265625,-167.96875,-166.015625,-181.640625
-79.1015625,-168.45703125,-172.36328125,-121.09375
-49.8046875,-143.5546875,-196.2890625,-119.62890625
-342.28515625,-132.32421875,-198.73046875,-131.8359375
-577.63671875,-141.11328125,-176.7578125,-217.28515625
-482.91015625,-146.484375,-181.640625,-281.25
-99.609375,-134.765625,-185.546875,-241.69921875
37.59765625,-130.37109375,-163.57421875,-153.3203125
-293.9453125,-152.83203125,-143.5546875,-161.62109375
-596.6796875,-164.55078125,-135.25390625,-174.31640625
-504.39453125,-148.92578125,-142.578125,-120.60546875
-122.55859375,-128.41796875,-163.0859375,-61.5234375
83.49609375,-113.28125,-172.36328125,27.83203125
-122.0703125,-101.5625,-152.83203125,41.50390625
-403.80859375,-104.4921875,-124.51171875,-53.22265625
-374.0234375,-102.5390625,-124.51171875,-80.078125
-34.1796875,-90.8203125,-187.98828125,36.1328125
173.828125,-89.35546875,-206.0546875,79.58984375
-33.203125,-95.21484375,-137.6953125,25.87890625
-342.28515625,-102.5390625,-77.1484375,-35.15625
-381.8359375,-94.23828125,-97.65625,-62.98828125
-43.45703125,-89.35546875,-141.11328125,-9.765625
244.140625,-93.26171875,-175.29296875,41.9921875
92.7734375,-91.30859375,-197.75390625,20.5078125
-233.88671875,-91.796875,-184.08203125,-97.16796875
-300.78125,-90.33203125,-180.17578125,-137.20703125
21.484375,-50.78125,-176.7578125,-56.640625
320.80078125,-4.39453125,-125.48828125,23.92578125
209.47265625,-2.9296875,-89.35546875,20.5078125
-124.51171875,-10.25390625,-73.73046875,-117.1875
-249.51171875,-12.6953125,-61.5234375,-274.4140625
31.73828125,-15.625,-59.5703125,-297.36328125
367.1875,-15.13671875,-56.640625,-237.79296875
282.71484375,-11.23046875,-79.58984375,-247.0703125
-55.17578125,-15.625,-89.84375,-367.67578125
-187.98828125,-25.390625,-91.796875,-426.7578125
1.46484375,-35.64453125,-112.79296875,-421.875
301.7578125,-44.43359375,-119.62890625,-412.59765625
247.0703125,-52.24609375,-112.79296875,-450.68359375
-102.5390625,-61.5234375,-109.375,-556.640625
-324.70703125,-69.82421875,-118.65234375,-659.1796875
-159.1796875,-78.125,-129.39453125,-674.8046875
182.12890625,-79.58984375,-136.23046875,-607.421875
203.61328125,-86.42578125,-144.53125,-558.10546875
-86.9140625,-99.12109375,-152.83203125,-594.7265625
-339.84375,-107.91015625,-159.1796875,-674.8046875
-245.60546875,-111.81640625,-175.78125,-652.34375
125.48828125,-107.421875,-182.6171875,-499.0234375
205.56640625,-104.4921875,-163.0859375,-426.7578125
-89.35546875,-106.4453125,-168.45703125,-473.14453125
-341.796875,-104.98046875,-207.51953125,-496.58203125
-290.0390625,-104.98046875,-227.05078125,-488.76953125
62.01171875,-103.02734375,-204.1015625,-425.78125
195.3125,-104.00390625,-180.17578125,-368.65234375
-103.02734375,-116.69921875,-186.03515625,-403.3203125
-374.51171875,-117.1875,-193.359375,-429.19921875
-359.375,-111.328125,-191.89453125,-477.5390625
-49.8046875,-125.48828125,-192.3828125,-485.83984375
117.67578125,-144.53125,-191.89453125,-418.45703125
-103.02734375,-153.3203125,-201.171875,-425.78125
-370.60546875,-154.296875,-207.51953125,-484.86328125
-375.48828125,-153.3203125,-201.171875,-518.5546875
-105.95703125,-151.3671875,-195.80078125,-462.890625
94.7265625,-145.99609375,-195.80078125,-401.85546875
-34.1796875,-143.5546875,-202.63671875,-401.3671875
-366.69921875,-149.4140625,-201.66015625,-436.03515625
-461.42578125,-152.34375,-200.1953125,-446.2890625
-158.203125,-142.578125,-205.56640625,-399.4140625
59.5703125,-138.671875,-205.078125,-303.22265625
-95.703125,-145.01953125,-201.66015625,-267.578125
-389.6484375,-145.01953125,-203.125,-307.6171875
-484.375,-142.08984375,-214.35546875,-348.14453125
-273.92578125,-142.578125,-223.14453125,-351.07421875
-25.390625,-141.6015625,-217.7734375,-279.296875
-60.05859375,-134.27734375,-220.703125,-230.46875
-294.43359375,-130.37109375,-228.515625,-268.5546875
-434.5703125,-130.37109375,-224.12109375,-313.96484375
-252.44140625,-132.8125,-219.23828125,-287.59765625
85.44921875,-133.30078125,-213.37890625,-208.49609375
17.578125,-124.51171875,-207.03125,-172.36328125
-413.57421875,-120.1171875,-216.30859375,-223.6328125
-642.08984375,-123.046875,-216.30859375,-290.52734375
-469.23828125,-118.65234375,-200.1953125,-266.6015625
-170.8984375,-108.3984375,-192.3828125,-184.08203125
-107.91015625,-107.421875,-200.68359375,-163.0859375
-302.24609375,-114.74609375,-207.51953125,-186.03515625
-474.609375,-121.09375,-209.9609375,-249.51171875
-307.6171875,-118.65234375,-206.54296875,-242.67578125
89.35546875,-113.28125,-195.3125,-154.296875
178.22265625,-109.86328125,-195.80078125,-112.3046875
-101.5625,-104.4921875,-210.9375,-148.92578125
-304.19921875,-105.46875,-221.19140625,-216.796875
-198.73046875,-110.83984375,-222.65625,-269.04296875
109.375,-113.76953125,-206.54296875,-240.72265625
245.60546875,-113.28125,-194.82421875,-179.6875
2.9296875,-122.0703125,-186.03515625,-187.01171875
-272.4609375,-127.9296875,-180.6640625,-248.046875
-198.2421875,-128.90625,-184.08203125,-269.53125
119.62890625,-127.9296875,-191.89453125,-234.86328125
247.55859375,-124.0234375,-198.73046875,-229.4921875
47.8515625,-118.1640625,-200.1953125,-304.19921875
-185.546875,-119.140625,-201.171875,-365.234375
-179.19921875,-122.55859375,-184.5703125,-352.5390625
130.37109375,-115.234375,-171.875,-311.03515625
335.9375,-99.12109375,-162.109375,-268.5546875
164.0625,-96.19140625,-159.66796875,-246.58203125
-136.71875,-103.515625,-161.62109375,-336.42578125
-187.5,-105.95703125,-154.296875,-378.41796875
105.46875,-113.28125,-158.203125,-284.66796875
343.75,-116.69921875,-161.1328125,-196.2890625
219.7265625,-109.375,-162.109375,-186.5234375
-70.3125,-112.3046875,-166.50390625,-260.7421875
-123.53515625,-120.60546875,-172.36328125,-305.6640625
114.2578125,-122.55859375,-171.875,-239.2578125
359.86328125,-117.67578125,-168.45703125,-194.82421875
292.48046875,-112.79296875,-173.828125,-229.4921875
2.44140625,-130.37109375,-172.36328125,-250.0
-130.859375,-132.32421875,-166.9921875,-301.26953125
85.9375,-121.09375,-179.6875,-345.703125
363.28125,-117.1875,-167.96875,-273.4375
303.22265625,-125.48828125,-174.8046875,-198.2421875
23.4375,-120.60546875,-192.87109375,-211.42578125
-112.3046875,-131.8359375,-165.0390625,-287.59765625
64.453125,-145.99609375,-134.765625,-312.98828125
317.87109375,-136.71875,-125.9765625,-282.71484375
283.69140625,-133.7890625,-124.0234375,-243.1640625
-9.27734375,-134.765625,-117.67578125,-305.17578125
-172.8515625,-134.765625,-128.41796875,-403.3203125
-19.53125,-135.7421875,-136.23046875,-376.953125
263.18359375,-117.67578125,-131.34765625,-291.50390625
314.453125,-114.2578125,-130.859375,-251.46484375
49.8046875,-125.48828125,-130.859375,-311.5234375
-174.8046875,-126.46484375,-130.859375,-364.2578125
-92.28515625,-125.9765625,-143.06640625,-381.34765625
209.9609375,-130.859375,-146.97265625,-310.546875
325.68359375,-127.44140625,-153.80859375,-193.359375
97.65625,-108.3984375,-177.734375,-200.1953125
-165.52734375,-125.0,-164.55078125,-255.37109375
-122.55859375,-122.55859375,-141.6015625,-297.36328125
181.640625,-102.5390625,-159.66796875,-294.921875
267.578125,-109.86328125,-163.57421875,-221.6796875
55.17578125,-147.94921875,-150.390625,-174.8046875
-192.3828125,-171.875,-153.3203125,-254.39453125
-173.828125,-166.015625,-167.96875,-311.5234375
101.07421875,-148.4375,-168.45703125,-243.1640625
227.5390625,-122.55859375,-141.11328125,-181.15234375
75.68359375,-146.97265625,-141.6015625,-183.59375
-164.55078125,-164.55078125,-147.94921875,-233.88671875
-204.58984375,-155.2734375,-138.671875,-266.6015625
55.17578125,-161.62109375,-135.25390625,-239.2578125
235.3515625,-148.4375,-150.390625,-149.90234375
71.2890625,-150.390625,-157.2265625,-163.57421875
-183.59375,-155.76171875,-147.94921875,-305.6640625
-220.703125,-161.1328125,-147.4609375,-367.1875
11.23046875,-160.15625,-134.765625,-318.84765625
219.7265625,-145.5078125,-141.6015625,-254.8828125
104.4921875,-132.32421875,-182.12890625,-260.25390625
-173.33984375,-152.83203125,-196.77734375,-305.6640625
-286.62109375,-162.59765625,-180.6640625,-405.2734375
-82.03125,-138.18359375,-163.57421875,-453.61328125
172.8515625,-136.71875,-147.94921875,-362.3046875
103.02734375,-132.32421875,-145.01953125,-324.21875
-110.3515625,-127.44140625,-141.11328125,-395.99609375
-323.73046875,-144.53125,-155.2734375,-445.3125
-222.16796875,-148.4375,-164.55078125,-422.8515625
146.97265625,-123.046875,-153.3203125,-343.26171875
176.26953125,-124.0234375,-157.71484375,-276.85546875
-102.5390625,-135.7421875,-162.59765625,-316.40625
-359.86328125,-129.39453125,-165.52734375,-392.08984375
-284.1796875,-133.30078125,-169.921875,-407.71484375
64.94140625,-130.37109375,-159.66796875,-350.5859375
196.2890625,-141.6015625,-163.57421875,-257.32421875
-85.9375,-144.53125,-179.6875,-316.89453125
-346.6796875,-148.4375,-188.96484375,-438.96484375
-278.80859375,-155.76171875,-169.43359375,-434.5703125
24.90234375,-147.4609375,-147.4609375,-355.95703125
167.48046875,-145.99609375,-166.015625,-277.83203125
-74.21875,-151.85546875,-164.0625,-324.70703125
-355.95703125,-152.34375,-166.50390625,-428.7109375
-329.58984375,-145.99609375,-172.8515625,-427.734375
-0.9765625,-138.18359375,-170.8984375,-341.30859375
190.91796875,-123.046875,-164.0625,-275.390625
-17.578125,-129.39453125,-175.29296875,-307.6171875
-302.24609375,-141.6015625,-204.58984375,-412.109375
-329.1015625,-143.06640625,-199.70703125,-463.8671875
-33.69140625,-134.765625,-189.94140625,-443.359375
203.61328125,-132.32421875,-191.89453125,-362.79296875
41.50390625,-149.4140625,-189.94140625,-351.07421875
-301.7578125,-152.34375,-189.453125,-459.9609375
-377.9296875,-156.73828125,-198.2421875,-506.34765625
-88.37890625,-152.83203125,-201.66015625,-447.265625
164.0625,-141.6015625,-196.77734375,-351.5625
32.71484375,-151.3671875,-193.359375,-348.14453125
-257.8125,-160.15625,-188.4765625,-437.98828125
-375.9765625,-151.3671875,-180.17578125,-521.484375
-118.1640625,-146.97265625,-184.08203125,-481.93359375
160.15625,-141.6015625,-185.546875,-373.53515625
57.12890625,-138.18359375,-184.08203125,-330.078125
-239.2578125,-154.296875,-184.08203125,-354.98046875
-423.828125,-159.66796875,-187.01171875,-458.49609375
-238.76953125,-153.3203125,-195.3125,-475.5859375
75.1953125,-149.90234375,-196.2890625,-375.48828125
30.76171875,-141.11328125,-196.77734375,-327.1484375
-252.9296875,-140.625,-200.1953125,-383.30078125
-404.296875,-147.94921875,-210.44921875,-428.7109375
-250.0,-146.97265625,-214.84375,-368.65234375
79.1015625,-138.18359375,-198.73046875,-282.71484375
123.53515625,-131.8359375,-191.40625,-240.72265625
-185.546875,-135.25390625,-209.9609375,-295.41015625
-407.71484375,-139.6484375,-209.9609375,-359.375
-304.6875,-139.6484375,-206.0546875,-333.49609375
-14.6484375,-135.7421875,-214.35546875,-264.16015625
79.1015625,-135.25390625,-205.078125,-111.81640625
-140.625,-133.7890625,-204.1015625,-47.8515625
-368.65234375,-138.671875,-209.9609375,-99.609375
-334.9609375,-147.4609375,-204.1015625,-92.7734375
-51.26953125,-148.92578125,-202.1484375,-36.1328125
84.9609375,-149.90234375,-202.1484375,32.2265625
-115.72265625,-150.87890625,-207.03125,32.2265625
-373.53515625,-154.296875,-209.47265625,-20.5078125
-333.49609375,-144.53125,-210.9375,-36.62109375
1.953125,-127.44140625,-209.47265625,19.04296875
164.55078125,-118.1640625,-203.61328125,88.8671875
-44.43359375,-118.1640625,-209.9609375,78.125
-330.078125,-125.9765625,-214.35546875,12.6953125
-345.703125,-134.765625,-212.40234375,9.765625
-44.921875,-140.13671875,-215.8203125,105.46875
170.41015625,-146.484375,-211.9140625,222.16796875
-14.6484375,-147.4609375,-208.49609375,323.73046875
-326.171875,-154.296875,-209.9609375,421.38671875
-375.0,-156.25,-212.890625,525.390625
-72.75390625,-146.484375,-217.28515625,644.53125
172.36328125,-141.6015625,-211.42578125,747.55859375
36.1328125,-138.671875,-208.0078125,734.86328125
-262.6953125,-139.16015625,-219.23828125,615.234375
-351.5625,-132.32421875,-221.19140625,537.109375
-56.15234375,-122.55859375,-211.9140625,565.4296875
217.28515625,-116.69921875,-212.40234375,628.90625
132.32421875,-116.69921875,-209.9609375,606.93359375
-160.15625,-118.1640625,-215.8203125,481.93359375
-338.37890625,-125.48828125,-230.95703125,375.48828125
-124.0234375,-128.90625,-230.46875,370.1171875
145.5078125,-115.234375,-227.05078125,421.38671875
93.26171875,-112.3046875,-223.14453125,425.29296875
-182.12890625,-120.60546875,-221.6796875,318.84765625
-351.07421875,-126.953125,-224.12109375,217.28515625
-155.2734375,-126.953125,-229.00390625,225.09765625
137.6953125,-117.67578125,-230.46875,266.6015625
117.1875,-115.234375,-224.12109375,339.35546875
-157.71484375,-119.62890625,-224.609375,408.69140625
-381.34765625,-116.2109375,-221.6796875,382.32421875
-221.6796875,-97.65625,-213.8671875,393.06640625
101.5625,-92.28515625,-218.75,428.22265625
121.58203125,-88.37890625,-220.21484375,417.96875
-114.2578125,-80.078125,-212.40234375,383.7890625
-302.24609375,-89.84375,-218.26171875,305.6640625
-208.49609375,-96.6796875,-226.5625,238.76953125
97.65625,-89.35546875,-223.14453125,292.96875
208.49609375,-86.9140625,-220.21484375,383.30078125
-41.015625,-84.9609375,-217.7734375,366.69921875
-306.15234375,-82.03125,-214.35546875,239.74609375
-251.46484375,-70.80078125,-219.23828125,294.921875
38.0859375,-55.6640625,-222.65625,550.78125
176.7578125,-53.7109375,-217.7734375,655.76171875
-64.453125,-44.921875,-219.7265625,592.28515625
-362.3046875,-52.24609375,-220.21484375,485.3515625
-331.54296875,-70.80078125,-213.37890625,436.03515625
-23.92578125,-69.82421875,-211.42578125,491.69921875
183.59375,-69.3359375,-213.8671875,519.04296875
38.57421875,-70.3125,-213.37890625,436.5234375
-240.234375,-71.2890625,-219.7265625,336.42578125
-296.38671875,-86.9140625,-216.796875,283.69140625
-22.94921875,-92.7734375,-216.30859375,287.59765625
246.09375,-85.9375,-210.9375,356.93359375
123.046875,-80.56640625,-205.078125,329.58984375
-199.70703125,-81.0546875,-216.30859375,176.26953125
-290.52734375,-82.51953125,-219.7265625,89.35546875
-28.80859375,-80.56640625,-216.796875,117.67578125
218.26171875,-67.3828125,-211.42578125,201.66015625
144.04296875,-62.01171875,-203.125,244.140625
-137.6953125,-64.94140625,-206.0546875,144.04296875
-288.0859375,-53.7109375,-219.23828125,-3.41796875
-59.5703125,-41.015625,-226.07421875,28.3203125
180.17578125,-35.15625,-229.00390625,110.83984375
95.21484375,-35.64453125,-227.5390625,77.63671875
-171.38671875,-40.0390625,-230.46875,16.11328125
-327.1484375,-38.57421875,-230.95703125,-32.71484375
-142.08984375,-35.64453125,-218.75,-31.25
136.23046875,7.8125,-209.9609375,53.7109375
114.74609375,73.2421875,-202.1484375,110.83984375
-137.20703125,100.09765625,-208.0078125,43.45703125
-343.26171875,106.4453125,-213.37890625,-73.2421875
-224.609375,104.98046875,-214.35546875,-89.35546875
86.42578125,94.7265625,-210.9375,-29.78515625
117.1875,83.984375,-207.03125,17.578125
-157.71484375,76.66015625,-208.0078125,-42.96875
-375.48828125,64.453125,-203.125,-109.86328125
-271.97265625,50.29296875,-202.63671875,-121.58203125
18.5546875,55.17578125,-203.61328125,-73.73046875
73.2421875,58.59375,-204.1015625,-24.4140625
-197.265625,39.55078125,-200.68359375,-50.78125
-397.94921875,16.11328125,-199.21875,-160.64453125
-277.83203125,16.11328125,-219.7265625,-241.2109375
21.97265625,14.6484375,-218.26171875,-156.73828125
157.2265625,5.37109375,-210.44921875,-92.28515625
-65.91796875,3.41796875,-220.21484375,-162.59765625
-344.7265625,-4.8828125,-221.19140625,-226.5625
-323.73046875,-7.8125,-218.75,-233.3984375
-23.92578125,-16.11328125,-212.40234375,-174.31640625
151.85546875,-22.94921875,-202.63671875,-83.49609375
-75.1953125,-24.4140625,-201.171875,-132.8125
-355.95703125,-19.53125,-211.9140625,-249.51171875
-395.99609375,-25.87890625,-211.9140625,-278.80859375
-181.15234375,-39.55078125,-211.42578125,-234.86328125
28.3203125,-36.62109375,-210.9375,-167.48046875
-72.75390625,-42.96875,-205.56640625,-169.921875
-360.83984375,-51.26953125,-214.35546875,-238.76953125
-449.21875,-52.24609375,-219.7265625,-279.296875
-184.5703125,-56.640625,-212.890625,-229.4921875
69.82421875,-56.640625,-208.0078125,-125.48828125
-34.66796875,-56.15234375,-202.1484375,-93.75
-335.44921875,-63.96484375,-201.66015625,-165.52734375
-461.9140625,-68.359375,-211.9140625,-262.6953125
-208.0078125,-64.94140625,-213.8671875,-274.4140625
46.38671875,-64.94140625,-205.078125,-166.50390625
-37.59765625,-52.734375,-204.1015625,-130.37109375
-282.2265625,-35.15625,-203.125,-196.77734375
-443.84765625,-34.66796875,-205.078125,-274.90234375
-261.23046875,-35.64453125,-210.44921875,-249.0234375
52.24609375,-35.15625,-200.68359375,-146.484375
33.69140625,-39.0625,-208.984375,-179.6875
-233.88671875,-54.19921875,-220.21484375,-267.578125
-403.80859375,-66.40625,-210.9375,-316.89453125
-297.36328125,-68.84765625,-207.51953125,-336.9140625
-28.3203125,-71.2890625,-208.0078125,-295.8984375
22.94921875,-81.54296875,-213.8671875,-240.234375
-226.5625,-89.84375,-214.35546875,-271.484375
-456.54296875,-89.84375,-216.796875,-340.33203125
-333.0078125,-89.84375,-215.8203125,-335.9375
-19.53125,-88.8671875,-213.37890625,-277.83203125
32.2265625,-84.47265625,-222.16796875,-212.890625
-241.2109375,-90.8203125,-222.65625,-239.2578125
-496.09375,-102.05078125,-226.5625,-344.7265625
-401.85546875,-96.6796875,-228.515625,-344.7265625
-77.63671875,-95.21484375,-226.5625,-273.92578125
39.0625,-99.12109375,-229.98046875,-215.33203125
-189.453125,-104.98046875,-227.05078125,-210.9375
-454.58984375,-112.79296875,-228.515625,-294.921875
-459.9609375,-119.62890625,-233.3984375,-361.81640625
-157.71484375,-125.48828125,-226.5625,-287.109375
58.10546875,-124.0234375,-225.5859375,-177.734375
-114.74609375,-129.8828125,-230.46875,-207.51953125
-433.10546875,-128.90625,-231.4453125,-343.75
-450.68359375,-117.67578125,-230.95703125,-374.0234375
-139.6484375,-119.140625,-229.98046875,-277.83203125
44.921875,-122.0703125,-228.02734375,-187.01171875
-123.53515625,-123.53515625,-218.75,-211.9140625
-409.66796875,-129.39453125,-215.8203125,-301.26953125
-463.37890625,-130.859375,-221.6796875,-338.8671875
-175.78125,-119.140625,-218.26171875,-306.640625
29.296875,-113.28125,-212.890625,-223.6328125
-89.84375,-119.140625,-219.23828125,-182.12890625
-348.6328125,-121.09375,-220.21484375,-261.23046875
-463.8671875,-124.51171875,-218.75,-312.98828125
-223.6328125,-127.44140625,-218.75,-262.6953125
62.5,-122.55859375,-219.23828125,-200.1953125
-16.11328125,-119.140625,-219.7265625,-205.56640625
-321.77734375,-119.62890625,-213.8671875,-288.57421875
-474.609375,-126.46484375,-217.28515625,-340.8203125
-271.484375,-127.9296875,-221.6796875,-322.265625
21.484375,-122.55859375,-216.796875,-255.859375
-11.23046875,-125.0,-213.37890625,-202.63671875
-290.0390625,-129.39453125,-219.7265625,-239.74609375
-480.46875,-129.8828125,-222.65625,-309.08203125
-304.6875,-129.39453125,-219.7265625,-290.0390625
12.20703125,-129.8828125,-218.26171875,-222.65625
23.92578125,-125.9765625,-222.16796875,-191.89453125
-225.09765625,-123.53515625,-221.19140625,-203.61328125
-451.66015625,-131.34765625,-213.8671875,-262.6953125
-327.1484375,-130.859375,-211.42578125,-303.22265625
29.296875,-123.53515625,-213.37890625,-208.49609375
73.2421875,-121.58203125,-214.35546875,-134.765625
-203.61328125,-128.41796875,-215.8203125,-199.70703125
-391.6015625,-131.8359375,-220.21484375,-286.1328125
-308.10546875,-131.34765625,-224.12109375,-265.625
-34.66796875,-127.44140625,-214.84375,-172.8515625
90.33203125,-115.234375,-205.56640625,-145.5078125
-108.88671875,-113.76953125,-212.890625,-171.875
-392.08984375,-121.09375,-217.7734375,-235.83984375
-366.2109375,-118.1640625,-221.19140625,-258.7890625
-54.19921875,-116.2109375,-222.16796875,-186.5234375
94.23828125,-117.1875,-217.28515625,-108.88671875
-92.7734375,-111.81640625,-217.28515625,-85.44921875
-338.37890625,-112.3046875,-221.6796875,-156.25
-320.80078125,-115.72265625,-216.796875,-237.3046875
-25.390625,-112.79296875,-205.078125,-184.08203125
128.90625,-110.3515625,-201.66015625,-91.796875
-55.6640625,-107.421875,-198.73046875,-91.30859375
-339.35546875,-101.07421875,-201.171875,-168.9453125
-380.37109375,-98.14453125,-206.54296875,-225.5859375
-82.51953125,-88.37890625,-204.58984375,-162.109375
154.78515625,-80.078125,-205.56640625,-59.5703125
56.15234375,-85.9375,-214.84375,-59.08203125
-250.48828125,-94.23828125,-226.07421875,-153.80859375
-383.7890625,-98.6328125,-222.16796875,-224.12109375
-108.88671875,-96.19140625,-215.33203125,-165.52734375
156.73828125,-95.703125,-207.51953125,-65.91796875
56.15234375,-94.23828125,-202.63671875,-58.10546875
-229.4921875,-93.26171875,-201.171875,-132.32421875
-343.26171875,-100.09765625,-210.9375,-182.6171875
-93.26171875,-100.09765625,-215.33203125,-130.37109375
155.2734375,-99.12109375,-206.0546875,-85.9375
73.2421875,-105.95703125,-202.63671875,-111.328125
-197.265625,-105.95703125,-207.03125,-174.8046875
-361.328125,-111.81640625,-213.8671875,-242.67578125
-180.6640625,-112.79296875,-210.44921875,-235.83984375
128.41796875,-105.46875,-203.61328125,-147.94921875
113.28125,-109.375,-208.49609375,-107.421875
-177.734375,-117.67578125,-225.09765625,-174.8046875
-388.671875,-125.48828125,-231.4453125,-263.671875
-255.37109375,-128.41796875,-226.07421875,-241.69921875
87.890625,-126.46484375,-217.28515625,-140.13671875
124.51171875,-125.9765625,-214.84375,-102.5390625
-156.73828125,-127.44140625,-219.23828125,-181.15234375
-368.1640625,-132.32421875,-219.23828125,-288.57421875
-252.44140625,-139.6484375,-212.890625,-278.3203125
79.1015625,-136.71875,-209.47265625,-200.1953125
179.19921875,-129.39453125,-214.84375,-142.578125
-80.078125,-123.53515625,-208.49609375,-156.25
-324.70703125,-122.55859375,-205.078125,-236.328125
-238.28125,-126.953125,-213.37890625,-264.6484375
87.890625,-126.46484375,-210.9375,-189.453125
252.44140625,-124.51171875,-201.171875,-128.41796875
33.203125,-130.37109375,-208.984375,-127.9296875
-280.76171875,-140.625,-221.19140625,-174.31640625
-269.04296875,-138.18359375,-217.28515625,-228.515625
61.03515625,-132.32421875,-210.9375,-151.85546875
258.7890625,-134.765625,-208.49609375,-65.91796875
62.5,-137.6953125,-206.0546875,-90.8203125
-243.65234375,-142.08984375,-207.03125,-148.4375
-281.73828125,-148.92578125,-211.9140625,-208.984375
16.6015625,-146.97265625,-208.49609375,-179.6875
223.14453125,-137.20703125,-207.51953125,-93.26171875
69.3359375,-136.23046875,-212.40234375,-100.5859375
-245.1171875,-138.18359375,-214.35546875,-191.89453125
-348.6328125,-141.11328125,-206.54296875,-210.44921875
-71.77734375,-135.7421875,-196.77734375,-166.015625
186.03515625,-125.48828125,-191.89453125,-98.6328125
77.1484375,-124.51171875,-190.91796875,-72.75390625
-228.515625,-130.37109375,-199.21875,-161.62109375
-366.2109375,-132.32421875,-197.75390625,-226.07421875
-104.4921875,-126.46484375,-188.4765625,-194.82421875
195.80078125,-122.0703125,-182.6171875,-110.3515625
74.70703125,-125.0,-185.05859375,-90.8203125
-254.8828125,-132.8125,-193.84765625,-178.7109375
-416.50390625,-132.32421875,-202.1484375,-254.39453125
-267.08984375,-135.7421875,-205.078125,-237.79296875
20.01953125,-142.578125,-204.58984375,-129.39453125
23.92578125,-139.6484375,-205.56640625,-93.75
-256.34765625,-145.99609375,-211.42578125,-182.6171875
-454.1015625,-155.2734375,-220.703125,-264.16015625
-277.83203125,-151.85546875,-225.09765625,-262.6953125
82.03125,-143.5546875,-218.26171875,-157.71484375
116.2109375,-145.01953125,-205.078125,-90.33203125
-162.109375,-146.97265625,-211.9140625,-166.015625
-376.46484375,-146.484375,-224.609375,-264.6484375
-242.1875,-147.4609375,-218.26171875,-268.5546875
146.484375,-140.625,-206.0546875,-149.4140625
254.8828125,-125.9765625,-199.21875,-62.98828125
-59.5703125,-120.60546875,-213.8671875,-149.90234375
-342.28515625,-128.41796875,-236.328125,-284.1796875
-245.60546875,-127.9296875,-238.28125,-310.546875
95.703125,-118.65234375,-232.91015625,-238.76953125
218.75,-113.76953125,-234.86328125,-151.85546875
-49.8046875,-119.62890625,-242.67578125,-173.828125
-318.84765625,-130.859375,-248.046875,-276.85546875
-264.16015625,-127.44140625,-248.046875,-296.875
73.73046875,-114.2578125,-249.0234375,-228.02734375
253.41796875,-105.46875,-246.58203125,-166.015625
41.015625,-102.05078125,-242.1875,-191.89453125
-258.30078125,-110.3515625,-238.76953125,-265.13671875
-270.5078125,-125.9765625,-238.28125,-297.36328125
41.50390625,-129.8828125,-231.4453125,-236.328125
282.71484375,-117.1875,-221.19140625,-161.1328125
117.67578125,-115.234375,-220.21484375,-188.4765625
-197.75390625,-120.1171875,-220.703125,-246.09375
-246.09375,-122.55859375,-226.07421875,-300.29296875
69.82421875,-119.62890625,-219.23828125,-282.2265625
333.0078125,-111.328125,-209.47265625,-187.98828125
195.3125,-115.234375,-210.9375,-183.59375
-141.6015625,-122.0703125,-211.9140625,-261.23046875
-267.08984375,-113.76953125,-208.984375,-304.6875
15.625,-108.88671875,-207.03125,-251.46484375
305.6640625,-112.3046875,-201.66015625,-163.0859375
203.125,-113.76953125,-197.75390625,-109.86328125
-114.2578125,-110.83984375,-203.125,-157.71484375
-284.66796875,-112.3046875,-202.63671875,-226.5625
-28.3203125,-114.74609375,-191.40625,-166.50390625
283.203125,-110.83984375,-191.40625,-80.56640625
210.44921875,-119.140625,-194.3359375,-62.5
-110.83984375,-125.0,-200.68359375,-121.09375
-313.96484375,-122.0703125,-208.984375,-197.75390625
-137.6953125,-126.46484375,-206.0546875,-194.3359375
188.4765625,-124.51171875,-195.3125,-107.91015625
197.75390625,-124.0234375,-187.5,-37.59765625
-132.32421875,-145.5078125,-201.171875,-107.421875
-364.2578125,-143.5546875,-204.1015625,-197.75390625
-240.234375,-127.44140625,-198.2421875,-168.9453125
116.2109375,-126.46484375,-191.40625,-57.6171875
179.6875,-124.0234375,-183.59375,-16.11328125
-121.58203125,-125.48828125,-190.4296875,-95.703125
-371.09375,-128.90625,-199.70703125,-173.33984375
-274.90234375,-129.39453125,-194.82421875,-181.15234375
93.75,-123.53515625,-183.10546875,-105.46875
226.5625,-116.69921875,-184.08203125,-40.0390625
-48.33984375,-119.62890625,-191.89453125,-91.30859375
-334.9609375,-128.90625,-202.63671875,-185.546875
-277.34375,-126.953125,-204.1015625,-213.37890625
51.26953125,-114.74609375,-194.82421875,-142.08984375
216.796875,-114.2578125,-192.87109375,-79.58984375
0.48828125,-120.1171875,-192.87109375,-114.74609375
-336.9140625,-128.90625,-195.3125,-201.66015625
-361.328125,-134.765625,-192.87109375,-221.6796875
-47.8515625,-131.8359375,-180.6640625,-134.765625
159.1796875,-126.46484375,-174.8046875,-75.1953125
13.18359375,-125.48828125,-176.26953125,-72.265625
-328.61328125,-128.90625,-176.26953125,-149.90234375
-396.97265625,-131.34765625,-187.01171875,-249.51171875
-59.08203125,-134.27734375,-203.61328125,-209.9609375
198.73046875,-128.90625,-195.3125,-116.2109375
64.94140625,-125.0,-190.4296875,-97.16796875
-271.97265625,-129.8828125,-199.70703125,-160.15625
-387.20703125,-132.32421875,-198.73046875,-205.078125
-104.4921875,-136.23046875,-196.77734375,-155.76171875
186.03515625,-136.23046875,-196.2890625,-52.734375
84.47265625,-133.30078125,-193.84765625,-21.484375
-236.328125,-132.8125,-204.1015625,-138.671875
-415.0390625,-132.8125,-214.35546875,-240.72265625
-184.5703125,-134.27734375,-203.125,-204.58984375
157.2265625,-126.46484375,-193.84765625,-120.60546875
72.75390625,-121.58203125,-195.3125,-81.54296875
-261.71875,-126.46484375,-197.75390625,-139.6484375
-454.1015625,-131.8359375,-203.125,-203.125
-261.23046875,-137.6953125,-208.49609375,-193.359375
115.72265625,-134.765625,-204.58984375,-98.14453125
116.2109375,-129.8828125,-193.359375,-82.51953125
-233.88671875,-130.37109375,-188.4765625,-165.52734375
-459.47265625,-132.8125,-193.359375,-224.12109375
-303.22265625,-131.34765625,-191.89453125,-225.5859375
44.921875,-132.8125,-187.98828125,-146.97265625
104.98046875,-135.25390625,-187.01171875,-93.26171875
-187.98828125,-135.25390625,-191.40625,-141.6015625
-446.77734375,-140.625,-196.2890625,-252.9296875
-345.21484375,-140.625,-190.4296875,-264.6484375
25.390625,-135.25390625,-187.01171875,-163.0859375
157.71484375,-126.46484375,-185.05859375,-35.64453125
-121.09375,-119.140625,-191.40625,-12.20703125
-463.37890625,-124.0234375,-211.42578125,-114.2578125
-414.0625,-126.46484375,-223.14453125,-154.296875
6.34765625,-117.67578125,-216.796875,-66.89453125
198.2421875,-105.95703125,-210.9375,30.2734375
-77.63671875,-104.98046875,-212.890625,6.8359375
-425.29296875,-103.515625,-216.796875,-99.609375
-405.76171875,-105.46875,-218.26171875,-147.4609375
-29.78515625,-109.375,-221.19140625,-81.54296875
173.33984375,-101.5625,-217.7734375,-21.97265625
-47.36328125,-104.98046875,-226.5625,-42.96875
-357.91015625,-107.91015625,-229.00390625,-117.1875
-369.140625,-97.16796875,-221.19140625,-163.57421875
-25.87890625,-94.23828125,-220.703125,-120.60546875
245.1171875,-89.35546875,-220.21484375,-55.17578125
84.47265625,-91.30859375,-217.28515625,-50.29296875
-276.3671875,-95.703125,-215.33203125,-117.1875
-364.74609375,-89.84375,-220.703125,-202.63671875
-15.13671875,-93.26171875,-214.84375,-100.5859375
303.22265625,-96.19140625,-201.66015625,126.46484375
156.25,-99.12109375,-203.125,188.4765625
-198.2421875,-108.88671875,-211.42578125,117.1875
-365.72265625,-110.83984375,-211.42578125,39.55078125
-108.3984375,-109.86328125,-207.03125,70.3125
228.515625,-108.88671875,-202.1484375,164.0625
151.3671875,-106.93359375,-199.21875,193.84765625
-200.68359375,-107.91015625,-201.66015625,105.46875
-396.484375,-113.76953125,-206.0546875,10.25390625
-154.296875,-120.1171875,-200.68359375,-1.46484375
208.984375,-120.1171875,-192.87109375,63.96484375
192.87109375,-117.1875,-189.94140625,96.6796875
-118.1640625,-113.28125,-187.98828125,25.390625
-371.09375,-118.65234375,-189.94140625,-50.78125
-239.74609375,-125.0,-192.3828125,-46.38671875
145.5078125,-117.67578125,-184.5703125,25.87890625
183.59375,-109.86328125,-181.15234375,64.94140625
-133.7890625,-112.79296875,-190.4296875,-13.671875
-374.0234375,-117.67578125,-186.5234375,-96.19140625
-233.3984375,-116.69921875,-185.546875,-96.19140625
134.765625,-113.76953125,-186.03515625,-22.94921875
211.42578125,-110.3515625,-181.640625,44.43359375
-84.9609375,-115.234375,-187.01171875,6.34765625
-370.60546875,-120.60546875,-191.40625,-105.46875
-281.73828125,-117.1875,-184.08203125,-131.34765625
80.078125,-113.76953125,-181.15234375,-72.265625
249.0234375,-111.328125,-186.03515625,-8.7890625
-5.37109375,-115.234375,-177.24609375,-26.85546875
-350.5859375,-127.44140625,-171.875,-133.30078125
-341.796875,-134.27734375,-169.43359375,-185.546875
20.99609375,-132.8125,-160.15625,-126.953125
231.4453125,-123.046875,-150.390625,-45.8984375
26.85546875,-125.48828125,-142.08984375,-41.9921875
-293.9453125,-135.25390625,-143.06640625,-123.53515625
-337.40234375,-136.71875,-145.99609375,-185.546875
0.48828125,-136.23046875,-140.13671875,-132.8125
265.13671875,-133.7890625,-129.8828125,-62.01171875
57.12890625,-148.92578125,-132.32421875,-75.68359375
-329.1015625,-157.2265625,-142.08984375,-173.33984375
-382.8125,-136.71875,-141.6015625,-223.14453125
-52.734375,-128.90625,-146.484375,-166.50390625
224.12109375,-126.953125,-148.92578125,-66.89453125
116.69921875,-128.41796875,-150.390625,-52.24609375
-242.67578125,-137.20703125,-161.1328125,-138.18359375
-408.69140625,-140.13671875,-170.41015625,-218.26171875
-134.27734375,-133.30078125,-165.0390625,-220.703125
183.59375,-130.859375,-156.73828125,-167.48046875
106.93359375,-133.30078125,-159.66796875,-138.671875
-229.4921875,-138.18359375,-169.921875,-186.5234375
-420.41015625,-142.08984375,-182.12890625,-245.1171875
-190.91796875,-134.765625,-187.5,-194.3359375
169.921875,-126.46484375,-180.17578125,-104.4921875
152.83203125,-128.90625,-177.24609375,-65.4296875
-178.7109375,-127.44140625,-182.6171875,-119.62890625
-411.62109375,-126.953125,-185.546875,-209.47265625
-229.00390625,-128.90625,-183.59375,-201.171875
137.6953125,-122.0703125,-177.24609375,-96.19140625
153.80859375,-120.60546875,-178.22265625,-64.94140625
-149.4140625,-127.44140625,-180.17578125,-119.140625
-384.765625,-128.41796875,-182.12890625,-193.84765625
-264.6484375,-125.0,-178.7109375,-210.44921875
97.65625,-125.0,-175.78125,-125.0
183.10546875,-119.140625,-171.875,-57.12890625
-104.00390625,-119.140625,-172.36328125,-86.9140625
-387.6953125,-127.9296875,-176.7578125,-173.33984375
-301.7578125,-130.859375,-172.36328125,-191.40625
64.94140625,-120.60546875,-167.48046875,-97.16796875
195.80078125,-113.28125,-172.8515625,-28.3203125
-51.26953125,-119.140625,-180.17578125,-84.9609375
-342.28515625,-122.0703125,-187.01171875,-201.171875
-294.921875,-118.65234375,-191.40625,-255.859375
65.91796875,-115.72265625,-185.05859375,-177.24609375
227.05078125,-108.3984375,-174.31640625,-99.12109375
-20.99609375,-108.3984375,-173.33984375,-125.0
-325.68359375,-116.2109375,-174.8046875,-209.47265625
-324.70703125,-117.67578125,-174.8046875,-258.30078125
7.32421875,-120.60546875,-171.875,-195.3125
230.46875,-120.60546875,-166.015625,-93.26171875
46.875,-117.67578125,-165.52734375,-122.55859375
-298.828125,-127.44140625,-175.29296875,-259.765625
-397.94921875,-131.34765625,-186.03515625,-320.3125
-64.94140625,-120.1171875,-183.10546875,-243.1640625
226.5625,-110.83984375,-173.828125,-155.76171875
88.8671875,-111.328125,-171.38671875,-142.578125
-243.1640625,-116.2109375,-172.36328125,-225.09765625
-361.81640625,-116.69921875,-175.29296875,-307.6171875
-92.7734375,-115.72265625,-179.19921875,-264.16015625
205.56640625,-116.69921875,-182.6171875,-182.6171875
132.32421875,-114.74609375,-183.59375,-184.5703125
-175.78125,-113.28125,-183.10546875,-271.97265625
-340.8203125,-118.1640625,-187.01171875,-332.03125
-114.74609375,-118.65234375,-181.640625,-287.109375
206.54296875,-115.234375,-170.41015625,-212.40234375
150.87890625,-120.1171875,-172.8515625,-182.6171875
-185.546875,-129.39453125,-183.59375,-235.83984375
-373.53515625,-129.8828125,-190.4296875,-312.01171875
-152.34375,-122.0703125,-188.4765625,-314.453125
182.6171875,-119.140625,-183.10546875,-228.02734375
174.8046875,-121.58203125,-189.94140625,-199.21875
-134.27734375,-126.953125,-201.171875,-270.01953125
-358.88671875,-123.53515625,-189.94140625,-344.7265625
-211.42578125,-124.0234375,-178.22265625,-345.21484375
125.0,-126.953125,-179.19921875,-261.71875
192.3828125,-123.53515625,-177.24609375,-212.40234375
-96.6796875,-123.53515625,-179.6875,-264.6484375
-374.0234375,-129.39453125,-185.05859375,-338.8671875
-258.30078125,-125.48828125,-184.5703125,-346.19140625
99.609375,-116.69921875,-181.640625,-291.9921875
225.5859375,-117.1875,-179.6875,-226.5625
-38.57421875,-123.046875,-180.6640625,-244.140625
-357.91015625,-135.7421875,-186.5234375,-316.89453125
-309.08203125,-141.6015625,-189.453125,-351.5625
49.8046875,-131.34765625,-182.12890625,-293.9453125
229.00390625,-123.53515625,-176.26953125,-208.49609375
-6.34765625,-122.55859375,-177.24609375,-214.35546875
-313.96484375,-119.140625,-179.6875,-292.96875
-311.5234375,-118.1640625,-176.7578125,-311.03515625
7.32421875,-125.9765625,-158.69140625,-243.1640625
198.2421875,-123.53515625,-145.5078125,-177.734375
-2.9296875,-127.44140625,-146.97265625,-188.4765625
-307.12890625,-135.25390625,-151.3671875,-261.23046875
-358.88671875,-135.7421875,-159.66796875,-312.98828125
-54.6875,-145.01953125,-158.203125,-246.09375
216.30859375,-139.6484375,-144.04296875,-153.80859375
74.21875,-136.71875,-139.16015625,-162.59765625
-252.44140625,-151.3671875,-146.484375,-225.5859375
-345.703125,-156.73828125,-147.4609375,-271.484375
-58.10546875,-145.5078125,-139.16015625,-225.5859375
215.8203125,-137.20703125,-135.25390625,-159.1796875
121.58203125,-136.71875,-139.16015625,-149.90234375
-206.0546875,-137.20703125,-141.11328125,-209.47265625
-376.46484375,-137.6953125,-138.671875,-277.83203125
-106.93359375,-135.7421875,-143.5546875,-259.27734375
187.5,-139.6484375,-152.83203125,-185.05859375
105.46875,-143.5546875,-155.2734375,-141.6015625
-181.15234375,-139.16015625,-152.83203125,-176.26953125
-363.28125,-138.18359375,-158.203125,-251.46484375
-163.0859375,-133.30078125,-158.69140625,-259.765625
175.78125,-124.51171875,-157.71484375,-182.12890625
181.15234375,-120.1171875,-156.73828125,-123.046875
-128.90625,-124.51171875,-152.34375,-177.734375
-349.609375,-131.34765625,-156.25,-263.18359375
-193.359375,-124.51171875,-161.62109375,-255.37109375
147.94921875,-110.3515625,-163.0859375,-180.17578125
195.80078125,-110.3515625,-163.0859375,-141.11328125
-103.515625,-116.69921875,-168.45703125,-170.41015625
-343.26171875,-114.74609375,-168.9453125,-239.74609375
-222.65625,-113.76953125,-168.9453125,-300.29296875
143.06640625,-112.79296875,-163.0859375,-235.83984375
233.3984375,-106.93359375,-159.1796875,-146.484375
-51.26953125,-108.88671875,-161.1328125,-185.546875
-315.91796875,-112.79296875,-166.015625,-269.04296875
-238.76953125,-110.3515625,-169.921875,-278.3203125
95.703125,-107.91015625,-166.015625,-208.0078125
226.5625,-111.81640625,-167.48046875,-132.8125
-17.08984375,-107.421875,-166.9921875,-162.59765625
-321.77734375,-112.79296875,-170.8984375,-202.1484375
-334.9609375,-118.65234375,-175.78125,-119.62890625
-12.6953125,-113.28125,-172.8515625,11.23046875
196.2890625,-111.81640625,-172.36328125,104.98046875
16.6015625,-104.4921875,-172.36328125,108.3984375
-279.78515625,-98.14453125,-173.33984375,20.01953125
-294.921875,-98.6328125,-173.828125,-44.921875
33.203125,-104.00390625,-173.33984375,6.8359375
240.234375,-106.4453125,-165.0390625,93.26171875
66.89453125,-109.375,-164.0625,80.078125
-259.765625,-114.74609375,-169.43359375,-28.3203125
-364.2578125,-114.74609375,-174.31640625,-87.890625
-71.77734375,-105.46875,-181.15234375,-38.0859375
193.359375,-95.21484375,-171.875,61.5234375
85.9375,-94.7265625,-162.59765625,70.80078125
-197.75390625,-104.98046875,-169.43359375,-28.80859375
-341.796875,-115.234375,-180.17578125,-103.515625
-117.67578125,-113.28125,-176.26953125,-67.3828125
172.8515625,-107.421875,-167.48046875,27.34375
100.09765625,-105.46875,-163.57421875,53.22265625
-197.75390625,-108.88671875,-165.0390625,-4.39453125
-360.3515625,-111.328125,-167.96875,-99.609375
-132.32421875,-109.375,-165.52734375,-90.33203125
201.171875,-102.5390625,-159.66796875,14.16015625
184.08203125,-101.5625,-152.34375,36.62109375
-125.9765625,-110.83984375,-151.3671875,-31.73828125
-349.609375,-114.2578125,-160.15625,-113.76953125
-184.08203125,-113.28125,-161.1328125,-95.703125
170.41015625,-112.79296875,-155.2734375,2.44140625
205.078125,-107.421875,-150.87890625,59.08203125
-112.3046875,-109.375,-158.69140625,-23.92578125
-336.9140625,-111.328125,-167.96875,-136.71875
-205.078125,-105.95703125,-166.9921875,-150.390625
104.00390625,-98.14453125,-163.57421875,-64.94140625
172.36328125,-93.26171875,-156.25,3.90625
-77.1484375,-95.703125,-155.2734375,-55.6640625
-320.3125,-97.16796875,-159.66796875,-145.01953125
-256.8359375,-95.703125,-156.25,-159.1796875
84.47265625,-92.7734375,-150.87890625,-85.44921875
228.02734375,-96.6796875,-153.80859375,-28.80859375
-39.0625,-102.05078125,-149.90234375,-45.41015625
-346.6796875,-102.5390625,-149.4140625,-145.5078125
-299.31640625,-100.5859375,-159.1796875,-222.16796875
40.0390625,-108.88671875,-161.1328125,-143.5546875
225.5859375,-106.93359375,-153.80859375,-47.36328125
2.44140625,-91.796875,-159.1796875,-83.49609375
-340.33203125,-88.8671875,-174.31640625,-187.98828125
-368.1640625,-91.796875,-189.453125,-247.55859375
-34.66796875,-85.44921875,-193.84765625,-215.33203125
176.7578125,-78.61328125,-192.87109375,-143.06640625
0.9765625,-92.7734375,-194.82421875,-146.97265625
-294.921875,-96.6796875,-196.2890625,-230.95703125
-366.2109375,-89.84375,-189.453125,-271.484375
-87.890625,-92.7734375,-186.5234375,-215.8203125
145.99609375,-87.890625,-193.359375,-152.34375
33.69140625,-85.9375,-193.84765625,-152.83203125
-249.51171875,-90.33203125,-191.89453125,-207.03125
-352.05078125,-96.6796875,-191.89453125,-253.90625
-92.28515625,-100.5859375,-198.73046875,-226.07421875
176.26953125,-89.84375,-190.91796875,-134.27734375
101.5625,-83.0078125,-184.08203125,-115.72265625
-195.80078125,-90.8203125,-184.08203125,-176.7578125
-351.07421875,-93.75,-178.22265625,-237.3046875
-114.74609375,-86.9140625,-179.19921875,-221.19140625
208.0078125,-84.47265625,-174.8046875,-110.3515625
141.6015625,-88.37890625,-170.8984375,-68.359375
-175.78125,-90.8203125,-177.734375,-153.80859375
-360.3515625,-94.7265625,-176.7578125,-221.19140625
-184.08203125,-93.26171875,-163.57421875,-197.265625
150.390625,-89.84375,-156.73828125,-108.88671875
155.2734375,-87.890625,-163.57421875,-67.3828125
-116.69921875,-90.33203125,-170.41015625,-114.2578125
-323.73046875,-89.35546875,-166.9921875,-177.734375
-220.703125,-98.6328125,-173.33984375,-202.63671875
100.5859375,-103.515625,-172.36328125,-150.390625
180.6640625,-91.796875,-156.25,-81.0546875
-84.9609375,-90.8203125,-159.66796875,-115.234375
-359.86328125,-97.16796875,-165.52734375,-213.37890625
-278.3203125,-99.12109375,-159.66796875,-204.1015625
60.546875,-87.40234375,-157.71484375,-181.640625
166.9921875,-89.84375,-157.71484375,-240.234375
-52.734375,-94.23828125,-154.78515625,-230.46875
-299.31640625,-95.21484375,-154.78515625,-232.421875
-266.11328125,-99.609375,-153.80859375,-231.93359375
47.8515625,-97.16796875,-158.203125,-170.8984375
190.4296875,-102.05078125,-162.109375,-95.703125
-48.828125,-105.95703125,-163.57421875,-184.08203125
-307.6171875,-104.4921875,-170.8984375,-292.48046875
-303.7109375,-109.86328125,-175.29296875,-241.69921875
-12.20703125,-104.00390625,-164.0625,-158.203125
177.734375,-89.35546875,-158.203125,-83.984375
22.4609375,-89.84375,-163.0859375,-91.796875
-266.6015625,-97.16796875,-167.48046875,-186.5234375
-335.9375,-101.07421875,-170.41015625,-265.625
-18.06640625,-101.07421875,-162.59765625,-205.56640625
216.796875,-94.7265625,-153.80859375,-98.14453125
59.08203125,-92.28515625,-154.78515625,-81.54296875
-245.60546875,-102.5390625,-163.57421875,-161.1328125
-335.9375,-108.88671875,-165.0390625,-225.5859375
-60.05859375,-105.46875,-157.2265625,-179.6875
196.77734375,-103.515625,-151.3671875,-86.42578125
122.55859375,-107.91015625,-152.34375,-56.15234375
-153.80859375,-106.4453125,-156.73828125,-131.34765625
-300.78125,-102.5390625,-153.3203125,-210.9375
-80.078125,-104.98046875,-154.296875,-184.08203125
204.58984375,-100.5859375,-156.25,-82.51953125
146.97265625,-90.33203125,-155.76171875,-66.40625
-142.08984375,-93.26171875,-152.83203125,-125.0
-327.1484375,-101.07421875,-151.85546875,-200.68359375
-168.45703125,-98.6328125,-154.296875,-220.703125
149.90234375,-88.8671875,-153.3203125,-143.5546875
152.83203125,-83.0078125,-152.83203125,-95.21484375
-113.76953125,-86.9140625,-156.25,-148.4375
-304.19921875,-90.8203125,-158.69140625,-233.88671875
-152.83203125,-89.84375,-159.66796875,-225.5859375
174.8046875,-82.03125,-156.25,-128.90625
198.2421875,-82.03125,-148.4375,-83.0078125
-63.4765625,-88.37890625,-151.3671875,-156.25
-277.83203125,-89.84375,-156.25,-250.9765625
-169.43359375,-89.84375,-155.76171875,-252.44140625
154.78515625,-89.35546875,-154.78515625,-158.203125
243.1640625,-87.40234375,-152.34375,-74.21875
6.34765625,-85.9375,-152.83203125,-111.328125
-244.140625,-101.07421875,-162.59765625,-211.9140625
-197.265625,-108.88671875,-164.55078125,-221.6796875
122.0703125,-90.33203125,-148.92578125,-143.5546875
257.8125,-83.0078125,-139.6484375,-85.9375
4.39453125,-91.30859375,-142.08984375,-106.4453125
-281.73828125,-99.609375,-149.4140625,-168.9453125
-249.0234375,-97.16796875,-151.85546875,-204.58984375
58.10546875,-99.12109375,-155.76171875,-162.109375
211.42578125,-104.00390625,-154.296875,-64.94140625
9.765625,-101.07421875,-143.5546875,-103.02734375
-243.65234375,-99.609375,-145.99609375,-253.90625
-237.79296875,-102.5390625,-155.2734375,-218.75
-23.4375,-112.3046875,-162.109375,-470.703125
183.59375,-101.5625,-149.4140625,-653.80859375
111.81640625,-88.8671875,-138.18359375,-287.109375
-194.82421875,-97.16796875,-151.85546875,-301.26953125
-294.43359375,-104.00390625,-156.73828125,-361.328125
-48.33984375,-102.5390625,-151.85546875,-246.09375
198.2421875,-95.703125,-144.04296875,-183.59375
78.125,-90.8203125,-139.16015625,-183.59375
-201.171875,-90.8203125,-145.99609375,-319.3359375
-280.76171875,-92.7734375,-151.85546875,-299.8046875
-61.03515625,-92.7734375,-144.04296875,-143.5546875
174.31640625,-105.46875,-147.4609375,-244.140625
143.06640625,-105.46875,-151.85546875,-283.203125
-101.07421875,-94.7265625,-143.06640625,-253.41796875
-256.34765625,-102.5390625,-143.06640625,-308.59375
-76.66015625,-104.98046875,-146.484375,-189.94140625
196.2890625,-100.5859375,-146.484375,-58.10546875
158.203125,-94.7265625,-138.18359375,-6.34765625
-114.2578125,-90.8203125,-142.08984375,-72.265625
-303.7109375,-101.07421875,-148.4375,-141.6015625
-195.80078125,-107.91015625,-146.97265625,-271.484375
133.30078125,-93.26171875,-143.06640625,-320.3125
174.31640625,-88.8671875,-147.94921875,-190.4296875
-153.3203125,-100.09765625,-156.25,-449.70703125
-377.44140625,-100.5859375,-156.25,-924.8046875
-226.5625,-101.07421875,-159.1796875,-958.984375
93.75,-97.65625,-149.90234375,-780.2734375
165.52734375,-93.75,-147.94921875,-588.8671875
-67.3828125,-97.65625,-151.85546875,-448.73046875
-316.89453125,-102.05078125,-151.85546875,-619.62890625
-274.90234375,-105.95703125,-157.71484375,-932.12890625
80.078125,-102.05078125,-150.87890625,-761.23046875
223.14453125,-97.65625,-140.625,-297.8515625
-30.2734375,-97.65625,-141.6015625,-54.19921875
-350.09765625,-111.328125,-150.390625,-227.5390625
-384.27734375,-120.1171875,-152.34375,-854.00390625
32.2265625,-101.5625,-139.6484375,-573.2421875
175.78125,-94.23828125,-142.578125,-235.3515625
-56.15234375,-95.21484375,-150.390625,-413.57421875
-255.37109375,-95.703125,-148.92578125,-226.5625
-316.89453125,-96.19140625,-146.97265625,-312.5
-52.734375,-93.26171875,-144.53125,-601.5625
168.45703125,-90.33203125,-137.20703125,-812.01171875
2.9296875,-89.35546875,-135.25390625,-972.65625
-217.7734375,-83.49609375,-135.7421875,-613.28125
-245.1171875,-84.47265625,-138.18359375,-98.14453125
-31.73828125,-104.4921875,-152.83203125,137.20703125
176.26953125,-94.23828125,-144.53125,296.38671875
82.03125,-74.70703125,-127.44140625,369.140625
-221.6796875,-82.51953125,-135.7421875,123.53515625
-327.1484375,-92.28515625,-142.578125,-62.01171875
-33.203125,-90.33203125,-134.765625,158.203125
229.00390625,-82.51953125,-126.953125,270.5078125
146.97265625,-83.49609375,-125.48828125,265.625
-118.1640625,-87.40234375,-130.37109375,225.09765625
-276.3671875,-91.796875,-130.859375,182.12890625
-102.5390625,-93.26171875,-125.0,-25.87890625
179.19921875,-88.8671875,-122.55859375,-260.25390625
159.1796875,-84.47265625,-125.9765625,-113.76953125
-106.93359375,-87.40234375,-138.671875,64.453125
-284.66796875,-93.26171875,-144.53125,72.75390625
-182.6171875,-111.328125,-151.3671875,-195.3125
120.1171875,-108.3984375,-151.85546875,-318.84765625
204.1015625,-89.84375,-142.08984375,111.81640625
-156.25,-92.28515625,-137.6953125,-154.78515625
-384.765625,-91.796875,-136.71875,-538.57421875
-228.515625,-88.37890625,-136.23046875,-592.7734375
102.05078125,-83.0078125,-126.953125,-572.265625
239.2578125,-81.0546875,-117.1875,-179.6875
-29.78515625,-88.8671875,-115.72265625,-52.734375
-304.19921875,-97.16796875,-120.60546875,-41.50390625
-255.37109375,-95.703125,-125.48828125,-175.29296875
53.22265625,-98.14453125,-137.6953125,-166.9921875
176.7578125,-109.86328125,-150.390625,6.34765625
-40.52734375,-99.609375,-139.6484375,43.9453125
-307.6171875,-89.84375,-132.8125,65.4296875
-291.50390625,-89.35546875,-135.7421875,-20.99609375
3.90625,-85.9375,-134.765625,-299.8046875
179.6875,-81.54296875,-136.23046875,-338.8671875
-22.94921875,-85.9375,-136.23046875,-463.8671875
-255.37109375,-86.42578125,-134.765625,-430.17578125
-239.2578125,-83.49609375,-131.34765625,-293.9453125
41.9921875,-86.9140625,-128.41796875,-211.9140625
204.1015625,-82.03125,-127.44140625,-238.28125
0.9765625,-93.75,-134.765625,-470.21484375
-302.24609375,-103.02734375,-140.625,-657.71484375
-357.91015625,-88.8671875,-135.7421875,-677.734375
-79.58984375,-82.03125,-130.859375,-808.59375
178.22265625,-83.0078125,-118.65234375,-600.09765625
67.3828125,-84.47265625,-116.69921875,-144.53125
-233.88671875,-84.9609375,-125.9765625,-88.8671875
-349.12109375,-91.30859375,-127.44140625,-126.46484375
-99.609375,-94.7265625,-124.51171875,-112.79296875
149.90234375,-89.35546875,-127.44140625,-116.69921875
67.3828125,-93.75,-125.48828125,-91.30859375
-166.50390625,-102.05078125,-130.859375,114.74609375
-317.3828125,-104.00390625,-141.11328125,189.453125
-109.86328125,-96.19140625,-140.625,231.4453125
181.15234375,-86.42578125,-131.8359375,371.58203125
42.96875,-84.9609375,-116.69921875,-153.3203125
-233.88671875,-91.30859375,-120.60546875,-851.07421875
-260.25390625,-95.21484375,-128.90625,-403.3203125
-107.91015625,-95.21484375,-125.48828125,38.57421875
82.51953125,-97.65625,-125.48828125,-534.1796875
79.1015625,-98.6328125,-123.53515625,-1000.0
-129.8828125,-98.6328125,-126.953125,-968.26171875
-304.19921875,-97.16796875,-130.859375,-686.5234375
-210.44921875,-99.12109375,-125.9765625,-663.57421875
139.16015625,-93.26171875,-126.953125,-439.453125
150.87890625,-83.984375,-121.58203125,-189.94140625
-211.42578125,-89.35546875,-121.09375,-781.73828125
-363.76953125,-95.703125,-132.32421875,-1000.0
-217.7734375,-94.23828125,-133.7890625,-896.97265625
146.97265625,-84.47265625,-125.48828125,-222.65625
217.28515625,-76.66015625,-118.65234375,215.33203125
-42.48046875,-78.125,-114.2578125,150.87890625
-281.73828125,-88.37890625,-118.65234375,288.0859375
-246.58203125,-90.33203125,-122.55859375,161.62109375
39.0625,-83.0078125,-121.09375,-29.78515625
189.453125,-83.984375,-122.55859375,144.53125
-33.69140625,-82.51953125,-122.0703125,142.08984375
-356.93359375,-79.1015625,-119.62890625,-601.07421875
-329.1015625,-85.9375,-125.0,-1000.0
11.71875,-88.8671875,-126.46484375,-858.3984375
256.8359375,-80.56640625,-122.0703125,-140.625
41.50390625,-86.9140625,-123.046875,267.08984375
-272.4609375,-99.609375,-125.0,228.02734375
-275.87890625,-97.65625,-125.9765625,375.48828125
4.8828125,-90.33203125,-125.48828125,387.6953125
215.8203125,-77.1484375,-121.58203125,487.3046875
39.55078125,-80.078125,-129.8828125,307.6171875
-245.60546875,-90.8203125,-137.6953125,-135.7421875
-263.671875,-88.37890625,-137.20703125,-12.20703125
-35.64453125,-88.37890625,-136.71875,297.36328125
95.21484375,-89.84375,-133.7890625,-163.57421875
10.7421875,-84.9609375,-134.765625,-868.1640625
-143.06640625,-81.0546875,-133.7890625,-579.1015625
-240.234375,-83.49609375,-127.44140625,-38.0859375
-62.98828125,-81.54296875,-120.1171875,223.14453125
138.18359375,-81.0546875,-117.67578125,62.5
63.96484375,-82.03125,-120.60546875,-168.9453125
-187.5,-83.49609375,-122.0703125,-226.07421875
-340.33203125,-92.7734375,-127.44140625,-269.04296875
-146.97265625,-91.30859375,-123.53515625,-186.5234375
126.953125,-86.42578125,-112.79296875,-105.46875
127.9296875,-88.37890625,-116.69921875,56.15234375
-135.25390625,-91.30859375,-121.09375,40.0390625
-330.56640625,-89.35546875,-117.1875,-335.44921875
-167.48046875,-89.84375,-122.0703125,-334.9609375
96.6796875,-92.7734375,-126.46484375,-258.30078125
143.5546875,-89.84375,-128.90625,-168.9453125
-123.046875,-85.44921875,-130.859375,-419.921875
-351.5625,-83.49609375,-125.9765625,-873.046875
-240.72265625,-94.23828125,-125.9765625,-931.640625
49.31640625,-104.4921875,-129.8828125,-910.64453125
145.01953125,-103.02734375,-125.48828125,-795.8984375
-68.84765625,-102.5390625,-116.2109375,-613.28125
-288.57421875,-106.4453125,-119.62890625,-483.3984375
-212.40234375,-105.46875,-124.51171875,-249.0234375
75.68359375,-98.6328125,-118.65234375,9.27734375
159.66796875,-98.14453125,-121.58203125,-122.0703125
-18.06640625,-104.98046875,-123.046875,11.23046875
-265.13671875,-99.12109375,-124.0234375,98.14453125
-303.22265625,-92.7734375,-127.44140625,-229.00390625
-7.32421875,-93.26171875,-128.41796875,-342.28515625
185.05859375,-97.16796875,-128.41796875,-191.40625
5.37109375,-99.609375,-120.1171875,-25.390625
-280.2734375,-95.703125,-118.1640625,5.859375
-307.12890625,-98.14453125,-118.65234375,-17.08984375
-14.16015625,-101.5625,-119.140625,33.203125
173.33984375,-95.703125,-117.67578125,79.1015625
22.4609375,-90.33203125,-118.65234375,-79.1015625
-210.9375,-95.21484375,-122.55859375,-20.99609375
-291.9921875,-104.4921875,-125.9765625,-75.1953125
-28.3203125,-96.19140625,-129.8828125,1.46484375
179.6875,-83.984375,-125.0,245.1171875
51.7578125,-79.58984375,-123.53515625,205.078125
-174.31640625,-80.078125,-121.58203125,300.29296875
-294.43359375,-79.58984375,-116.69921875,303.7109375
-82.03125,-77.1484375,-109.375,289.55078125
193.84765625,-81.54296875,-105.46875,411.1328125
74.70703125,-80.56640625,-107.91015625,140.625
-252.44140625,-71.77734375,-104.98046875,-399.4140625
-328.125,-73.2421875,-110.3515625,-238.28125
-105.46875,-67.87109375,-112.3046875,51.7578125
146.97265625,-64.94140625,-108.3984375,126.953125
111.81640625,-74.21875,-110.83984375,199.70703125
-168.9453125,-76.66015625,-116.2109375,29.78515625
-324.21875,-76.171875,-121.09375,-152.34375
-144.53125,-70.80078125,-119.140625,-6.34765625
115.72265625,-74.21875,-114.2578125,19.04296875
128.41796875,-80.56640625,-122.0703125,-46.875
-98.14453125,-81.0546875,-129.39453125,-37.109375
-291.9921875,-80.078125,-126.953125,-81.0546875
-159.66796875,-71.77734375,-124.51171875,-38.0859375
144.53125,-66.40625,-122.55859375,125.9765625
158.203125,-70.80078125,-125.0,139.6484375
-104.00390625,-76.171875,-128.41796875,-63.96484375
-289.55078125,-82.03125,-127.44140625,-83.0078125
-211.9140625,-85.44921875,-117.67578125,-25.87890625
75.68359375,-84.9609375,-113.28125,79.58984375
156.73828125,-84.9609375,-115.234375,134.27734375
-80.56640625,-92.7734375,-120.60546875,-73.73046875
-286.1328125,-101.07421875,-125.0,-124.51171875
-247.0703125,-96.19140625,-119.140625,-65.4296875
26.85546875,-94.23828125,-111.81640625,-97.16796875
153.80859375,-97.16796875,-112.79296875,-342.7734375
-17.578125,-94.23828125,-119.62890625,-570.3125
-203.125,-96.19140625,-122.55859375,-332.51953125
-223.6328125,-100.09765625,-122.0703125,-153.80859375
12.6953125,-97.65625,-121.09375,-140.13671875
211.9140625,-94.23828125,-116.2109375,-77.63671875
55.17578125,-87.890625,-110.83984375,-91.30859375
-222.65625,-82.51953125,-113.76953125,-364.2578125
-239.2578125,-86.42578125,-121.58203125,-268.5546875
-10.25390625,-85.44921875,-126.46484375,-68.84765625
154.78515625,-78.61328125,-123.53515625,-399.90234375
46.38671875,-75.1953125,-119.62890625,-866.69921875
-150.87890625,-82.03125,-129.39453125,-711.9140625
-234.375,-90.33203125,-136.71875,-310.05859375
-12.6953125,-85.44921875,-124.0234375,-66.89453125
234.375,-70.80078125,-115.234375,132.32421875
71.77734375,-69.82421875,-118.65234375,-208.984375
-228.515625,-76.66015625,-120.1171875,-817.3828125
-284.66796875,-72.75390625,-114.2578125,-824.70703125
-73.2421875,-64.453125,-109.86328125,-628.90625
164.55078125,-72.75390625,-119.140625,-489.2578125
117.1875,-77.63671875,-117.67578125,-344.7265625
-127.9296875,-67.87109375,-105.46875,-326.66015625
-296.38671875,-72.75390625,-112.79296875,-422.36328125
-140.625,-73.73046875,-113.76953125,-574.21875
167.48046875,-72.75390625,-108.88671875,-260.7421875
86.9140625,-74.21875,-105.46875,-160.15625
-164.0625,-75.68359375,-108.3984375,-387.20703125
-291.9921875,-78.61328125,-113.28125,-394.53125
-215.8203125,-83.984375,-114.2578125,-700.68359375
110.83984375,-81.54296875,-114.2578125,-597.65625
165.0390625,-78.125,-110.83984375,-393.06640625
-66.40625,-87.40234375,-120.1171875,-262.6953125
-256.34765625,-87.40234375,-124.0234375,-64.453125
-242.1875,-82.03125,-116.2109375,-307.12890625
42.96875,-82.03125,-114.74609375,-432.12890625
166.50390625,-76.171875,-109.86328125,-347.65625
-48.828125,-76.171875,-104.4921875,-425.78125
-241.2109375,-81.54296875,-111.328125,-187.01171875
-219.7265625,-83.0078125,-116.2109375,-67.3828125
48.828125,-79.58984375,-113.28125,-125.48828125
179.6875,-75.68359375,-105.46875,-109.375
-2.9296875,-74.21875,-104.4921875,-23.4375
-226.07421875,-77.63671875,-113.76953125,214.84375
-273.4375,-79.1015625,-110.83984375,-90.8203125
29.78515625,-76.66015625,-103.515625,-267.08984375
215.33203125,-77.1484375,-101.5625,-42.96875
2.44140625,-79.58984375,-104.4921875,-77.63671875
-243.1640625,-79.1015625,-109.375,-102.5390625
-246.58203125,-77.1484375,-110.3515625,152.83203125
-33.203125,-79.1015625,-109.86328125,-128.41796875
128.41796875,-84.47265625,-111.328125,-679.19921875
52.734375,-84.47265625,-103.02734375,-657.2265625
-204.58984375,-80.56640625,-96.19140625,-654.296875
-265.13671875,-82.03125,-106.93359375,-550.78125
-15.13671875,-75.68359375,-108.3984375,-111.328125
125.48828125,-67.87109375,-104.98046875,-71.2890625
27.34375,-71.77734375,-105.95703125,-212.890625
-187.5,-68.359375,-108.88671875,-89.84375
-290.52734375,-66.89453125,-110.83984375,37.109375
-97.65625,-67.87109375,-105.46875,54.6875
145.5078125,-66.40625,-100.5859375,144.04296875
52.24609375,-66.40625,-101.5625,-6.34765625
-223.6328125,-67.3828125,-110.3515625,-472.65625
-285.64453125,-68.84765625,-111.328125,-312.5
-88.37890625,-68.84765625,-111.328125,217.28515625
105.95703125,-66.89453125,-106.4453125,-87.40234375
108.3984375,-65.91796875,-104.00390625,-239.2578125
-102.5390625,-67.3828125,-110.83984375,211.42578125
-312.01171875,-65.91796875,-112.3046875,190.4296875
-170.41015625,-62.01171875,-108.3984375,252.44140625
106.93359375,-60.05859375,-103.02734375,445.80078125
118.65234375,-56.640625,-102.05078125,510.7421875
-125.9765625,-58.59375,-102.5390625,505.859375
-327.63671875,-57.6171875,-100.5859375,396.484375
-228.515625,-50.29296875,-100.5859375,183.10546875
90.8203125,-46.38671875,-97.16796875,135.25390625
150.87890625,-53.22265625,-96.19140625,57.6171875
-100.09765625,-59.5703125,-103.515625,-202.1484375
-266.6015625,-52.24609375,-102.5390625,-219.23828125
-181.640625,-53.7109375,-102.05078125,-78.61328125
74.70703125,-51.7578125,-98.14453125,-42.48046875
175.29296875,-48.828125,-91.30859375,81.0546875
-50.29296875,-57.12890625,-90.33203125,177.24609375
-298.828125,-60.546875,-86.9140625,162.59765625
-277.83203125,-64.453125,-86.42578125,87.890625
-34.66796875,-65.91796875,-86.9140625,-20.99609375
114.74609375,-65.4296875,-86.9140625,67.87109375
-16.6015625,-73.73046875,-90.33203125,194.3359375
-268.5546875,-79.1015625,-92.7734375,193.84765625
-297.8515625,-70.80078125,-91.30859375,215.33203125
-78.125,-62.5,-92.7734375,-192.3828125
77.63671875,-56.15234375,-92.28515625,-751.46484375
0.48828125,-57.12890625,-89.84375,-461.42578125
-233.88671875,-61.5234375,-87.40234375,-112.3046875
-329.1015625,-57.12890625,-91.796875,-134.765625
-107.91015625,-54.19921875,-93.75,-148.4375
119.140625,-53.7109375,-94.7265625,-118.1640625
12.20703125,-54.6875,-93.75,-126.46484375
-237.79296875,-61.5234375,-94.23828125,-75.68359375
-329.58984375,-63.96484375,-102.05078125,35.64453125
-189.453125,-62.01171875,-105.46875,-435.546875
82.51953125,-59.08203125,-103.515625,-680.17578125
73.73046875,-58.10546875,-101.5625,-319.82421875
-229.4921875,-66.40625,-100.09765625,-358.88671875
-350.09765625,-72.75390625,-103.02734375,-422.8515625
-140.625,-66.89453125,-107.91015625,-301.26953125
129.8828125,-57.12890625,-102.5390625,-112.79296875
85.44921875,-61.03515625,-103.02734375,65.91796875
-198.2421875,-71.77734375,-108.88671875,40.52734375
-351.07421875,-72.75390625,-104.98046875,117.1875
-182.6171875,-72.75390625,-103.515625,237.79296875
117.67578125,-72.75390625,-93.26171875,315.91796875
109.86328125,-75.68359375,-93.75,125.9765625
-157.2265625,-80.56640625,-104.00390625,26.3671875
-305.17578125,-82.51953125,-110.3515625,119.62890625
-226.5625,-91.796875,-122.55859375,0.48828125
43.9453125,-92.28515625,-123.53515625,-28.3203125
122.0703125,-77.1484375,-105.95703125,49.8046875
-131.34765625,-76.171875,-106.4453125,-104.98046875
-327.1484375,-77.63671875,-116.2109375,-92.28515625
-253.90625,-70.3125,-110.83984375,18.06640625
0.48828125,-62.01171875,-105.46875,-24.4140625
116.2109375,-60.546875,-108.3984375,-37.109375
-58.10546875,-65.4296875,-108.3984375,58.10546875
-314.94140625,-71.2890625,-110.83984375,-121.09375
-264.16015625,-68.359375,-108.88671875,-83.49609375
-1.46484375,-59.5703125,-101.5625,-17.08984375
109.375,-63.4765625,-106.93359375,-240.72265625
-13.671875,-62.01171875,-107.421875,-43.9453125
-250.9765625,-60.05859375,-107.421875,64.94140625
-262.6953125,-60.546875,-110.83984375,-25.87890625
-17.578125,-60.546875,-106.4453125,-23.92578125
144.53125,-59.08203125,-97.65625,-49.31640625
-4.39453125,-61.03515625,-93.75,0.0
-254.39453125,-64.94140625,-94.23828125,70.3125
-290.0390625,-59.5703125,-97.16796875,61.5234375
-51.7578125,-54.6875,-98.14453125,124.0234375
162.109375,-46.38671875,-97.16796875,221.19140625
39.0625,-52.24609375,-103.02734375,109.86328125
-231.93359375,-63.4765625,-105.95703125,-181.15234375
-293.9453125,-58.10546875,-101.5625,-299.31640625
-61.5234375,-54.19921875,-99.12109375,-144.04296875
136.23046875,-58.10546875,-99.12109375,-17.08984375
15.625,-62.5,-98.14453125,-333.984375
-188.4765625,-59.5703125,-92.28515625,-457.51953125
-264.16015625,-58.59375,-90.8203125,-129.39453125
-122.55859375,-65.91796875,-92.28515625,-177.24609375
146.484375,-66.89453125,-90.33203125,-110.3515625
122.0703125,-61.5234375,-90.8203125,114.2578125
-136.23046875,-61.03515625,-92.7734375,88.37890625
-284.66796875,-65.91796875,-100.5859375,46.875
-141.6015625,-65.4296875,-100.09765625,39.55078125
125.9765625,-59.5703125,-92.7734375,108.3984375
108.88671875,-59.08203125,-85.9375,-13.18359375
-139.6484375,-64.94140625,-88.8671875,-292.48046875
-282.71484375,-66.89453125,-96.19140625,-238.28125
-165.52734375,-65.4296875,-91.796875,-86.9140625
151.3671875,-59.08203125,-83.984375,89.84375
180.6640625,-58.10546875,-86.9140625,182.12890625
-117.67578125,-73.73046875,-86.42578125,99.609375
-322.265625,-85.9375,-87.40234375,0.48828125
-237.3046875,-87.890625,-104.4921875,-139.16015625
40.52734375,-83.0078125,-110.83984375,-216.30859375
127.9296875,-80.078125,-108.3984375,-169.921875
-114.74609375,-76.66015625,-104.00390625,-288.57421875
-345.703125,-88.37890625,-114.2578125,-328.61328125
-267.08984375,-99.609375,-125.9765625,-272.4609375
61.5234375,-76.171875,-112.79296875,-228.515625
175.29296875,-66.40625,-105.95703125,-235.83984375
-19.53125,-73.73046875,-105.46875,-235.3515625
-241.69921875,-73.2421875,-106.93359375,-166.9921875
-277.83203125,-69.82421875,-107.421875,-305.17578125
-29.78515625,-68.84765625,-108.3984375,-418.9453125
166.9921875,-63.4765625,-106.93359375,-219.23828125
18.06640625,-59.08203125,-101.5625,-35.15625
-242.1875,-62.98828125,-102.5390625,-119.140625
-288.57421875,-68.359375,-105.46875,-266.6015625
-50.78125,-75.68359375,-100.5859375,-421.875
178.7109375,-68.84765625,-88.37890625,-485.3515625
98.14453125,-58.59375,-84.47265625,-349.609375
-157.2265625,-55.6640625,-86.42578125,-242.1875
-225.09765625,-56.640625,-89.84375,-107.91015625
-8.7890625,-58.10546875,-88.37890625,-82.51953125
196.77734375,-51.7578125,-81.0546875,-377.44140625
121.09375,-51.7578125,-81.54296875,-471.6796875
-144.53125,-54.6875,-90.8203125,-383.7890625
-229.98046875,-53.7109375,-93.75,-306.15234375
-0.9765625,-52.734375,-91.30859375,-54.19921875
210.9375,-59.08203125,-92.7734375,126.953125
152.83203125,-59.08203125,-86.9140625,203.61328125
-91.796875,-55.6640625,-78.61328125,155.2734375
-245.60546875,-54.6875,-87.40234375,69.82421875
-79.58984375,-56.15234375,-92.7734375,44.43359375
174.31640625,-56.640625,-86.42578125,-184.08203125
184.5703125,-54.19921875,-82.03125,-282.2265625
-63.4765625,-56.15234375,-82.51953125,-168.9453125
-275.87890625,-64.94140625,-88.8671875,-204.58984375
-156.25,-64.94140625,-90.33203125,-249.51171875
127.9296875,-53.22265625,-77.63671875,-167.48046875
123.53515625,-54.19921875,-67.3828125,-381.8359375
-102.5390625,-63.96484375,-70.3125,-673.33984375
-248.53515625,-59.5703125,-66.89453125,-633.30078125
-184.08203125,-57.6171875,-66.40625,-566.89453125
96.6796875,-57.6171875,-68.84765625,-459.47265625
192.87109375,-52.734375,-67.87109375,-368.1640625
-57.6171875,-58.59375,-75.68359375,-373.046875
-265.13671875,-58.10546875,-77.1484375,-431.15234375
-190.4296875,-61.5234375,-69.3359375,-412.59765625
70.80078125,-68.359375,-65.91796875,-340.33203125
187.01171875,-64.453125,-62.5,-307.12890625
-9.27734375,-65.4296875,-62.98828125,-262.20703125
-283.203125,-76.66015625,-77.63671875,-276.3671875
-277.34375,-85.9375,-90.33203125,-317.3828125
13.18359375,-73.2421875,-80.56640625,-257.32421875
181.640625,-64.453125,-76.171875,-199.21875
18.5546875,-69.3359375,-81.0546875,-182.12890625
-217.7734375,-69.82421875,-87.40234375,-144.04296875
-214.84375,-65.91796875,-89.35546875,-21.97265625
23.92578125,-59.5703125,-84.9609375,59.5703125
191.89453125,-55.17578125,-74.70703125,158.203125
33.69140625,-61.5234375,-73.2421875,183.10546875
-235.3515625,-63.96484375,-81.0546875,7.32421875
-292.96875,-63.96484375,-83.0078125,4.8828125
-63.96484375,-67.3828125,-83.49609375,189.453125
142.08984375,-63.4765625,-82.51953125,288.57421875
38.57421875,-56.640625,-81.54296875,177.734375
-210.9375,-61.03515625,-90.33203125,7.32421875
-311.03515625,-62.5,-95.703125,-87.40234375
-89.35546875,-53.7109375,-87.40234375,-56.640625
144.53125,-49.8046875,-83.49609375,-10.7421875
71.2890625,-52.734375,-81.0546875,21.97265625
-163.57421875,-59.5703125,-83.984375,-13.671875
-315.4296875,-59.5703125,-82.03125,-67.87109375
-141.6015625,-54.19921875,-72.265625,-52.734375
157.2265625,-51.26953125,-72.265625,19.53125
134.27734375,-52.734375,-70.3125,31.73828125
-127.9296875,-58.10546875,-74.70703125,-93.26171875
-289.55078125,-61.5234375,-84.47265625,-145.01953125
-160.15625,-69.82421875,-86.9140625,-94.7265625
117.1875,-67.87109375,-77.63671875,-43.45703125
132.32421875,-60.546875,-73.73046875,7.32421875
-98.14453125,-62.01171875,-84.9609375,-16.6015625
-259.765625,-67.3828125,-99.12109375,-32.2265625
-171.38671875,-67.87109375,-93.75,-8.30078125
82.51953125,-60.546875,-82.03125,-105.46875
143.5546875,-58.10546875,-83.49609375,-247.55859375
-54.19921875,-62.5,-88.8671875,-205.56640625
-269.04296875,-68.359375,-90.8203125,-251.46484375
-224.609375,-68.84765625,-89.35546875,-401.85546875
80.078125,-64.94140625,-86.9140625,-295.41015625
175.29296875,-68.84765625,-94.23828125,-205.56640625
-21.484375,-66.40625,-92.28515625,-221.6796875
-218.26171875,-69.82421875,-89.35546875,-124.0234375
-219.23828125,-78.61328125,-93.75,6.34765625
7.32421875,-79.1015625,-90.33203125,31.25
140.13671875,-69.3359375,-84.47265625,-145.01953125
-29.296875,-65.91796875,-81.0546875,-346.19140625
-287.109375,-75.68359375,-88.37890625,-439.453125
-269.53125,-74.70703125,-89.35546875,-448.2421875
-7.32421875,-64.94140625,-82.51953125,-425.78125
145.5078125,-56.15234375,-81.54296875,-410.64453125
26.85546875,-64.453125,-84.9609375,-302.24609375
-223.14453125,-75.1953125,-86.9140625,-247.0703125
-271.97265625,-68.84765625,-74.70703125,-293.45703125
-42.96875,-66.40625,-69.82421875,-295.41015625
134.765625,-69.82421875,-70.3125,-293.9453125
61.5234375,-69.3359375,-74.70703125,-160.15625
-155.2734375,-65.4296875,-80.56640625,59.08203125
-270.5078125,-64.94140625,-87.890625,159.66796875
-76.66015625,-62.01171875,-87.40234375,181.15234375
166.9921875,-56.15234375,-78.125,297.8515625
95.703125,-61.03515625,-77.63671875,292.48046875
-176.26953125,-73.73046875,-86.9140625,82.03125
-291.015625,-84.47265625,-95.21484375,41.50390625
-88.8671875,-76.66015625,-83.984375,137.6953125
155.76171875,-55.17578125,-71.77734375,297.8515625
93.75,-50.78125,-74.21875,260.7421875
-187.5,-57.12890625,-78.125,-74.21875
-328.125,-58.59375,-81.54296875,-223.6328125
-146.97265625,-56.15234375,-89.35546875,-34.1796875
100.5859375,-53.7109375,-86.9140625,138.18359375
105.95703125,-50.29296875,-78.61328125,146.484375
-102.5390625,-49.8046875,-79.1015625,148.4375
-303.7109375,-56.15234375,-76.66015625,114.74609375
-221.19140625,-71.77734375,-86.9140625,12.20703125
67.3828125,-71.2890625,-86.9140625,25.87890625
129.8828125,-55.17578125,-70.3125,83.0078125
-113.76953125,-62.01171875,-78.61328125,-122.55859375
-288.57421875,-74.21875,-91.796875,-135.7421875
-217.28515625,-75.68359375,-93.75,55.17578125
41.9921875,-66.89453125,-87.890625,105.46875
136.23046875,-60.05859375,-78.61328125,160.64453125
-68.359375,-63.96484375,-74.21875,126.46484375
-257.8125,-65.91796875,-81.0546875,32.71484375
-203.61328125,-61.5234375,-83.984375,59.08203125
30.76171875,-63.96484375,-82.51953125,110.83984375
122.0703125,-65.4296875,-84.47265625,125.0
-47.36328125,-60.05859375,-84.47265625,-26.3671875
-260.25390625,-66.89453125,-84.47265625,-245.60546875
-264.6484375,-72.75390625,-84.9609375,-211.9140625
-13.671875,-71.2890625,-84.47265625,-86.42578125
144.04296875,-71.77734375,-87.40234375,-57.12890625
-10.25390625,-73.2421875,-91.30859375,-228.515625
-260.25390625,-80.078125,-99.609375,-492.1875
-292.96875,-79.1015625,-98.14453125,-536.1328125
-18.5546875,-64.453125,-85.44921875,-313.96484375
205.078125,-54.6875,-74.21875,-59.08203125
38.57421875,-77.1484375,-87.40234375,-33.203125
-230.46875,-94.23828125,-105.46875,-91.30859375
-266.11328125,-77.63671875,-88.8671875,-130.859375
-29.296875,-73.2421875,-74.21875,-81.54296875
181.640625,-65.4296875,-75.1953125,-90.8203125
73.73046875,-58.10546875,-86.42578125,-80.56640625
-191.89453125,-58.59375,-87.40234375,-119.62890625
-315.91796875,-58.10546875,-88.37890625,-357.421875
-107.421875,-54.19921875,-96.6796875,-471.19140625
139.6484375,-48.828125,-100.09765625,-258.30078125
89.35546875,-42.48046875,-98.6328125,-60.05859375
-131.8359375,-41.015625,-104.00390625,-0.9765625
-314.453125,-62.01171875,-132.32421875,-169.921875
-171.38671875,-56.640625,-138.18359375,-339.35546875
143.5546875,-33.203125,-114.74609375,-247.0703125
150.87890625,-31.73828125,-109.86328125,-178.7109375
-107.91015625,-35.64453125,-112.3046875,-239.2578125
-275.390625,-41.9921875,-115.234375,-279.296875
-140.13671875,-41.50390625,-118.1640625,-236.81640625
108.88671875,-40.52734375,-113.76953125,-149.90234375
159.1796875,-41.50390625,-106.4453125,65.91796875
-82.03125,-43.9453125,-100.5859375,13.671875
-269.53125,-44.921875,-100.09765625,-212.890625
-173.33984375,-52.734375,-104.4921875,-220.703125
102.05078125,-51.26953125,-99.12109375,-36.1328125
181.15234375,-44.921875,-93.75,73.2421875
-20.99609375,-43.45703125,-95.703125,15.625
-274.90234375,-61.5234375,-113.28125,-213.37890625
-245.60546875,-70.80078125,-113.28125,-361.328125
83.0078125,-49.31640625,-86.9140625,-95.703125
182.12890625,-46.38671875,-79.1015625,170.8984375
-36.1328125,-48.33984375,-82.03125,184.08203125
-243.65234375,-50.78125,-89.35546875,130.859375
-198.2421875,-51.7578125,-92.28515625,104.00390625
22.94921875,-49.8046875,-84.9609375,158.203125
133.30078125,-46.38671875,-78.125,7.8125
0.9765625,-51.7578125,-84.9609375,-79.58984375
-249.51171875,-56.15234375,-84.9609375,-103.515625
-283.69140625,-55.17578125,-89.84375,-420.41015625
-23.92578125,-70.3125,-111.328125,-535.15625
190.4296875,-62.98828125,-95.21484375,-345.21484375
105.46875,-46.875,-71.77734375,-190.4296875
-146.484375,-49.31640625,-75.68359375,-182.12890625
-205.078125,-47.8515625,-78.125,-80.078125
12.20703125,-44.43359375,-72.75390625,-141.11328125
209.47265625,-44.921875,-69.3359375,-194.3359375
129.8828125,-49.31640625,-76.66015625,-66.89453125
-120.1171875,-52.24609375,-83.0078125,-67.3828125
-229.00390625,-58.10546875,-83.0078125,-88.37890625
-16.11328125,-50.78125,-82.03125,-16.6015625
210.9375,-54.6875,-85.44921875,70.80078125
150.87890625,-58.10546875,-82.51953125,19.04296875
-72.265625,-47.8515625,-75.1953125,-25.87890625
-219.7265625,-50.78125,-75.68359375,-61.03515625
-43.9453125,-55.6640625,-76.66015625,-78.61328125
226.07421875,-50.29296875,-71.2890625,-56.15234375
222.16796875,-39.0625,-64.453125,90.8203125
-10.7421875,-40.0390625,-64.94140625,126.953125
-186.5234375,-48.33984375,-69.82421875,82.51953125
-108.88671875,-47.8515625,-72.265625,-15.13671875
142.578125,-44.921875,-64.94140625,-31.73828125
196.77734375,-47.36328125,-70.3125,83.984375
-24.4140625,-53.22265625,-79.58984375,65.4296875
-166.015625,-53.22265625,-75.1953125,6.34765625
-90.8203125,-53.22265625,-73.2421875,24.4140625
117.1875,-53.7109375,-68.359375,95.21484375
176.26953125,-46.875,-63.4765625,148.92578125
-28.3203125,-46.875,-64.94140625,133.30078125
-213.37890625,-47.8515625,-67.87109375,47.8515625
-166.9921875,-52.24609375,-73.2421875,-3.41796875
98.14453125,-53.7109375,-74.70703125,48.33984375
204.1015625,-44.43359375,-68.84765625,108.3984375
-14.6484375,-44.43359375,-70.3125,67.87109375
-243.65234375,-58.59375,-79.58984375,-24.90234375
-214.84375,-62.01171875,-82.51953125,-66.40625
47.8515625,-53.22265625,-74.21875,-12.6953125
189.94140625,-46.875,-68.84765625,16.11328125
34.1796875,-46.38671875,-70.80078125,-121.09375
-176.7578125,-49.31640625,-77.1484375,-139.16015625
-205.56640625,-58.10546875,-79.1015625,-189.94140625
21.97265625,-60.05859375,-74.21875,-225.09765625
195.80078125,-50.78125,-70.3125,-118.1640625
76.171875,-50.78125,-70.80078125,-112.79296875
-176.26953125,-54.19921875,-68.84765625,-198.73046875
-244.140625,-60.546875,-73.2421875,-282.71484375
-23.92578125,-71.77734375,-88.37890625,-209.9609375
167.48046875,-63.96484375,-83.49609375,-73.73046875
65.91796875,-50.78125,-62.98828125,-77.1484375
-177.734375,-52.24609375,-59.5703125,-129.39453125
-284.66796875,-58.10546875,-66.89453125,-168.45703125
-116.2109375,-58.10546875,-70.80078125,-207.03125
109.86328125,-54.19921875,-65.4296875,-123.046875
53.7109375,-50.78125,-62.98828125,-55.17578125
-182.6171875,-57.6171875,-68.359375,-116.69921875
-303.7109375,-64.453125,-68.84765625,-174.8046875
-149.90234375,-63.96484375,-60.05859375,-224.12109375
69.82421875,-72.265625,-64.94140625,-213.8671875
67.3828125,-77.63671875,-67.87109375,-129.8828125
-114.74609375,-70.3125,-59.5703125,-197.265625
-250.48828125,-68.359375,-61.5234375,-223.14453125
-139.6484375,-69.3359375,-63.96484375,-163.0859375
89.35546875,-62.98828125,-56.640625,-255.859375
96.19140625,-55.6640625,-53.22265625,-352.05078125
-119.62890625,-56.640625,-57.12890625,-302.734375
-291.015625,-61.03515625,-56.640625,-350.09765625
-195.80078125,-64.453125,-53.22265625,-374.0234375
85.44921875,-58.59375,-52.734375,-237.79296875
157.71484375,-53.22265625,-49.8046875,-86.42578125
-58.59375,-63.4765625,-56.640625,13.18359375
-242.1875,-70.3125,-65.4296875,-35.64453125
-166.9921875,-63.96484375,-67.3828125,-25.390625
68.84765625,-61.5234375,-70.3125,40.0390625
157.71484375,-56.640625,-63.96484375,68.84765625
-13.671875,-53.7109375,-61.03515625,-2.44140625
-219.7265625,-61.03515625,-62.5,-145.99609375
-208.49609375,-66.40625,-61.5234375,-367.67578125
48.828125,-62.01171875,-58.10546875,-371.58203125
178.7109375,-55.17578125,-57.12890625,-266.6015625
-6.34765625,-56.15234375,-55.6640625,-325.1953125
-235.83984375,-64.453125,-62.98828125,-404.78515625
-231.4453125,-69.3359375,-72.265625,-416.50390625
0.9765625,-65.4296875,-69.3359375,-350.5859375
131.8359375,-68.359375,-65.91796875,-299.31640625
8.7890625,-70.80078125,-68.84765625,-313.96484375
-216.30859375,-68.359375,-78.61328125,-349.12109375
-259.27734375,-67.87109375,-86.42578125,-372.0703125
-15.625,-66.40625,-87.890625,-343.26171875
166.50390625,-65.4296875,-86.9140625,-287.109375
57.12890625,-62.5,-81.54296875,-266.11328125
-184.5703125,-65.4296875,-82.03125,-299.31640625
-255.859375,-70.80078125,-84.47265625,-188.4765625
-66.89453125,-63.96484375,-79.58984375,-53.7109375
115.234375,-58.59375,-78.61328125,47.36328125
35.64453125,-64.94140625,-79.58984375,48.828125
-187.98828125,-64.94140625,-83.0078125,-93.26171875
-292.48046875,-62.5,-85.44921875,-139.16015625
-123.046875,-66.89453125,-85.44921875,-173.33984375
159.66796875,-62.98828125,-83.49609375,-131.8359375
155.76171875,-54.6875,-80.078125,-21.484375
-101.5625,-59.08203125,-79.58984375,-26.3671875
-252.44140625,-67.3828125,-78.125,-141.6015625
-91.796875,-66.89453125,-81.0546875,-179.19921875
147.4609375,-63.4765625,-83.0078125,-159.66796875
147.4609375,-62.98828125,-79.58984375,-170.41015625
-77.1484375,-68.359375,-82.51953125,-165.0390625
-250.9765625,-70.3125,-83.0078125,-182.12890625
-158.69140625,-70.3125,-82.51953125,-69.3359375
58.59375,-65.4296875,-83.984375,48.33984375
70.80078125,-55.17578125,-73.2421875,-82.03125
-158.69140625,-60.546875,-74.70703125,-229.00390625
-301.26953125,-67.3828125,-90.33203125,-288.57421875
-181.15234375,-65.4296875,-92.7734375,-292.96875
62.98828125,-58.59375,-80.078125,-223.6328125
111.328125,-56.15234375,-82.51953125,-199.70703125
-84.47265625,-59.08203125,-83.0078125,-133.7890625
-277.34375,-60.546875,-73.73046875,-144.53125
-254.39453125,-60.05859375,-72.75390625,-225.09765625
-6.34765625,-54.19921875,-75.68359375,-198.2421875
109.375,-60.546875,-86.42578125,-229.4921875
-40.52734375,-61.5234375,-86.9140625,-138.18359375
-224.12109375,-48.33984375,-83.0078125,-16.11328125
-241.69921875,-42.48046875,-87.890625,-120.60546875
4.39453125,-40.52734375,-93.26171875,-129.8828125
171.875,-41.015625,-95.703125,15.625
5.37109375,-48.828125,-99.609375,40.0390625
-223.6328125,-56.15234375,-104.98046875,-11.71875
-240.72265625,-59.5703125,-107.421875,6.34765625
-20.99609375,-57.6171875,-101.07421875,52.734375
127.9296875,-51.7578125,-94.7265625,75.1953125
-2.44140625,-52.24609375,-91.30859375,83.0078125
-224.609375,-55.17578125,-88.37890625,111.81640625
-283.69140625,-51.7578125,-85.9375,108.88671875
-83.49609375,-48.828125,-85.44921875,129.39453125
105.46875,-42.48046875,-79.1015625,164.0625
26.3671875,-40.0390625,-74.21875,174.31640625
-207.03125,-46.875,-83.0078125,47.36328125
-298.33984375,-46.875,-92.7734375,-96.19140625
-103.515625,-43.9453125,-94.7265625,-93.75
99.609375,-46.38671875,-89.84375,-147.94921875
62.98828125,-45.41015625,-85.9375,-199.21875
-168.9453125,-47.36328125,-88.8671875,-217.7734375
-315.4296875,-60.546875,-95.703125,-276.85546875
-139.6484375,-58.10546875,-96.19140625,-229.98046875
96.19140625,-50.29296875,-86.9140625,-196.77734375
94.23828125,-41.9921875,-76.171875,-147.94921875
-95.21484375,-41.015625,-77.63671875,-59.5703125
-271.97265625,-51.26953125,-85.44921875,-191.40625
-160.64453125,-51.7578125,-82.51953125,-232.91015625
90.33203125,-48.33984375,-84.47265625,-40.52734375
81.54296875,-47.8515625,-82.03125,90.33203125
-134.765625,-49.31640625,-77.1484375,63.96484375
-310.546875,-47.36328125,-81.0546875,1.46484375
-254.39453125,-50.29296875,-93.75,-24.4140625
-8.7890625,-54.6875,-95.21484375,49.8046875
78.125,-38.0859375,-75.68359375,132.8125
-129.39453125,-33.203125,-75.1953125,58.10546875
-345.21484375,-37.59765625,-86.42578125,-44.43359375
-326.171875,-43.45703125,-89.35546875,-128.90625
-94.23828125,-42.96875,-84.47265625,-135.7421875
15.625,-38.0859375,-82.03125,-64.453125
-166.015625,-47.36328125,-81.54296875,-77.63671875
-416.50390625,-57.6171875,-83.49609375,-148.4375
-449.21875,-58.59375,-81.0546875,-189.453125
-213.37890625,-57.12890625,-75.68359375,-249.0234375
-46.38671875,-60.05859375,-69.82421875,-207.51953125
-199.21875,-62.5,-68.84765625,-101.07421875
-403.80859375,-62.01171875,-64.94140625,-185.546875
-396.484375,-72.75390625,-65.4296875,-267.08984375
-170.41015625,-84.47265625,-67.3828125,-177.24609375
27.34375,-84.47265625,-51.26953125,-92.7734375
-61.5234375,-84.9609375,-42.48046875,-122.0703125
-291.015625,-88.37890625,-50.29296875,-213.37890625
-331.0546875,-92.28515625,-48.33984375,-188.96484375
-117.1875,-94.23828125,-40.52734375,-153.3203125
84.47265625,-90.8203125,-39.0625,-90.33203125
26.3671875,-90.8203125,-49.31640625,43.45703125
-206.0546875,-96.19140625,-57.6171875,2.9296875
-269.04296875,-94.23828125,-61.5234375,-58.10546875
-73.73046875,-84.47265625,-62.01171875,-7.8125
123.53515625,-81.54296875,-53.7109375,36.62109375
94.7265625,-78.125,-53.22265625,39.55078125
-109.375,-79.58984375,-56.15234375,36.62109375
-230.95703125,-81.0546875,-53.22265625,-0.48828125
-74.70703125,-78.125,-52.734375,24.90234375
140.13671875,-76.171875,-51.7578125,98.6328125
104.00390625,-69.3359375,-51.7578125,118.1640625
-92.7734375,-68.84765625,-60.546875,79.1015625
-247.55859375,-73.2421875,-63.96484375,33.203125
-159.1796875,-70.80078125,-63.96484375,29.78515625
106.4453125,-65.91796875,-63.4765625,88.37890625
136.23046875,-68.84765625,-60.546875,174.8046875
-113.28125,-70.3125,-62.5,19.04296875
-267.578125,-68.84765625,-68.359375,-212.40234375
-149.90234375,-71.77734375,-70.80078125,-211.9140625
122.0703125,-67.87109375,-66.40625,-75.68359375
197.265625,-68.359375,-63.96484375,39.55078125
-25.87890625,-67.87109375,-66.40625,-14.6484375
-192.87109375,-62.01171875,-72.265625,-114.74609375
-108.3984375,-60.546875,-73.2421875,-114.74609375
136.23046875,-57.6171875,-70.80078125,-70.80078125
208.0078125,-63.4765625,-69.3359375,-20.99609375
-3.41796875,-66.40625,-63.4765625,-11.71875
-202.1484375,-67.3828125,-68.359375,-95.703125
-175.78125,-67.87109375,-77.63671875,-196.77734375
80.56640625,-52.734375,-63.4765625,-135.7421875
197.265625,-46.38671875,-52.24609375,28.3203125
1.46484375,-56.640625,-53.22265625,-15.13671875
-229.4921875,-62.98828125,-60.546875,-161.62109375
-231.93359375,-60.05859375,-64.453125,-174.31640625
-13.671875,-57.6171875,-65.91796875,-98.6328125
122.0703125,-55.6640625,-64.453125,-21.97265625
6.34765625,-52.24609375,-59.08203125,28.80859375
-234.375,-55.17578125,-65.91796875,-59.08203125
-284.66796875,-59.08203125,-69.3359375,-145.01953125
-64.453125,-59.08203125,-67.87109375,-177.24609375
108.88671875,-54.6875,-64.453125,-184.08203125
8.30078125,-53.22265625,-61.5234375,-180.17578125
-194.82421875,-58.59375,-64.453125,-162.109375
-274.4140625,-60.546875,-64.94140625,-188.4765625
-104.00390625,-55.17578125,-62.5,-200.1953125
121.58203125,-50.29296875,-59.5703125,-10.7421875
54.6875,-44.43359375,-56.15234375,102.05078125
-204.1015625,-43.9453125,-58.59375,32.71484375
-333.0078125,-49.8046875,-67.3828125,-18.06640625
-149.4140625,-45.8984375,-59.08203125,15.625
87.890625,-49.31640625,-55.6640625,60.05859375
52.734375,-60.05859375,-63.4765625,65.4296875
-148.92578125,-54.19921875,-58.59375,17.578125
-281.73828125,-48.828125,-55.6640625,-42.96875
-151.85546875,-44.43359375,-57.12890625,-38.0859375
84.9609375,-45.8984375,-53.7109375,50.78125
92.28515625,-48.33984375,-51.26953125,113.28125
-127.9296875,-51.26953125,-61.5234375,54.19921875
-301.7578125,-51.26953125,-63.96484375,-33.203125
-203.61328125,-48.33984375,-63.4765625,-45.8984375
50.29296875,-45.41015625,-64.453125,-1.953125
58.10546875,-44.921875,-59.5703125,-19.04296875
-142.08984375,-54.6875,-61.03515625,-126.953125
-284.66796875,-51.7578125,-59.08203125,-244.140625
-214.84375,-48.828125,-56.15234375,-262.6953125
45.41015625,-54.6875,-58.10546875,-99.609375
121.58203125,-54.19921875,-56.640625,44.921875
-79.1015625,-56.15234375,-54.19921875,-41.015625
-269.04296875,-57.6171875,-59.08203125,-109.375
-236.328125,-54.19921875,-62.5,-169.921875
-12.6953125,-47.36328125,-60.05859375,-237.79296875
119.140625,-42.48046875,-56.15234375,-130.37109375
-21.97265625,-41.50390625,-50.29296875,-118.1640625
-268.06640625,-51.7578125,-60.546875,-250.9765625
-291.9921875,-57.6171875,-67.3828125,-295.41015625
-20.01953125,-52.734375,-59.5703125,-259.765625
155.2734375,-51.7578125,-58.10546875,-199.70703125
10.25390625,-54.19921875,-61.03515625,-158.203125
-221.19140625,-56.15234375,-63.4765625,-151.85546875
-251.46484375,-61.5234375,-69.3359375,-161.62109375
-31.73828125,-59.5703125,-67.87109375,-123.046875
139.16015625,-54.6875,-64.94140625,23.4375
18.06640625,-58.59375,-72.75390625,56.640625
-212.40234375,-62.01171875,-76.171875,-90.33203125
-255.859375,-61.5234375,-67.87109375,-228.515625
-32.71484375,-59.08203125,-62.01171875,-219.7265625
139.16015625,-57.6171875,-61.5234375,-187.5
35.15625,-55.6640625,-61.5234375,-188.4765625
-172.8515625,-54.6875,-63.96484375,-191.40625
-252.9296875,-58.59375,-66.89453125,-138.18359375
-78.61328125,-59.5703125,-69.3359375,-19.53125
137.20703125,-57.6171875,-63.96484375,98.6328125
94.7265625,-55.6640625,-59.5703125,158.69140625
-103.515625,-53.22265625,-56.15234375,119.140625
-246.58203125,-51.26953125,-61.03515625,48.33984375
-119.62890625,-49.31640625,-72.265625,41.9921875
124.51171875,-49.8046875,-70.3125,87.40234375
91.796875,-53.22265625,-66.40625,90.33203125
-136.71875,-52.24609375,-66.40625,77.63671875
-284.1796875,-48.828125,-68.84765625,45.41015625
-177.24609375,-44.921875,-72.75390625,-13.18359375
53.7109375,-44.921875,-70.3125,6.34765625
81.54296875,-44.43359375,-65.4296875,64.453125
-113.28125,-49.8046875,-64.94140625,24.4140625
-275.87890625,-55.6640625,-63.96484375,-59.5703125
-206.54296875,-56.15234375,-61.5234375,-92.7734375
43.9453125,-52.24609375,-59.08203125,-110.3515625
96.19140625,-50.78125,-55.17578125,-146.484375
-115.72265625,-53.7109375,-59.5703125,-250.9765625
-278.80859375,-59.5703125,-73.2421875,-280.76171875
-215.8203125,-63.4765625,-73.73046875,-156.73828125
16.11328125,-56.640625,-65.91796875,-41.015625
85.9375,-55.17578125,-62.01171875,26.3671875
-79.58984375,-58.59375,-63.4765625,4.39453125
-262.6953125,-58.59375,-68.84765625,-101.07421875
-224.12109375,-55.17578125,-67.87109375,-173.33984375
25.390625,-55.17578125,-60.546875,-79.58984375
146.97265625,-56.640625,-55.17578125,55.6640625
8.7890625,-60.05859375,-55.17578125,17.08984375
-194.82421875,-65.4296875,-62.01171875,-106.4453125
-204.58984375,-62.01171875,-69.82421875,-130.859375
20.5078125,-55.17578125,-68.84765625,-57.6171875
194.3359375,-47.8515625,-59.5703125,40.52734375
