TP9,AF7,AF8,TP10
102.5390625,-55.6640625,-68.359375,512.20703125
-257.32421875,-78.125,-84.9609375,-736.328125
-347.65625,-81.0546875,-95.21484375,-1000.0
-62.98828125,-67.87109375,-87.890625,-319.82421875
210.44921875,-51.26953125,-76.66015625,947.265625
104.00390625,-52.734375,-82.03125,623.046875
-273.92578125,-79.58984375,-99.609375,-625.0
-419.921875,-94.7265625,-103.515625,-1000.0
-150.87890625,-81.54296875,-86.42578125,-470.703125
175.29296875,-54.6875,-76.171875,812.01171875
126.953125,-51.26953125,-81.0546875,759.27734375
-254.8828125,-76.66015625,-87.40234375,-474.12109375
-456.0546875,-95.21484375,-100.09765625,-1000.0
-203.61328125,-79.58984375,-102.5390625,-572.265625
162.109375,-48.828125,-89.84375,699.21875
179.19921875,-48.33984375,-91.796875,862.3046875
-200.68359375,-76.66015625,-110.3515625,-356.4453125
-456.0546875,-97.16796875,-115.234375,-1000.0
-248.046875,-86.42578125,-107.421875,-663.0859375
106.93359375,-62.98828125,-102.5390625,557.12890625
179.6875,-59.08203125,-108.3984375,960.44921875
-173.33984375,-80.56640625,-113.76953125,-214.84375
-475.09765625,-95.21484375,-114.2578125,-1000.0
-299.31640625,-88.8671875,-120.60546875,-766.6015625
76.171875,-70.3125,-111.328125,397.94921875
219.23828125,-63.4765625,-99.609375,999.51171875
-94.23828125,-87.890625,-110.3515625,-59.08203125
-443.359375,-107.91015625,-118.1640625,-1000.0
-325.1953125,-102.05078125,-113.76953125,-857.421875
46.38671875,-76.66015625,-106.93359375,244.140625
221.6796875,-57.6171875,-101.5625,999.51171875
-53.22265625,-70.80078125,-103.02734375,102.05078125
-435.05859375,-93.26171875,-112.3046875,-1000.0
-381.8359375,-90.8203125,-115.234375,-962.40234375
0.48828125,-66.89453125,-109.375,59.08203125
233.88671875,-47.8515625,-104.98046875,999.51171875
2.44140625,-58.59375,-106.4453125,257.32421875
-393.06640625,-83.0078125,-111.81640625,-941.89453125
-402.83203125,-88.37890625,-111.81640625,-1000.0
-21.484375,-65.91796875,-105.95703125,-86.9140625
270.5078125,-43.9453125,-102.5390625,999.51171875
83.0078125,-51.26953125,-103.515625,431.640625
-351.5625,-77.63671875,-119.140625,-815.91796875
-443.359375,-86.42578125,-128.90625,-1000.0
-83.0078125,-63.96484375,-115.234375,-192.3828125
238.76953125,-43.9453125,-104.00390625,999.51171875
81.54296875,-56.640625,-111.328125,573.73046875
-349.12109375,-82.51953125,-119.140625,-667.96875
-456.0546875,-82.51953125,-117.67578125,-1000.0
-99.12109375,-55.6640625,-107.91015625,-314.94140625
240.234375,-33.203125,-98.14453125,949.70703125
131.34765625,-43.45703125,-106.4453125,705.56640625
-298.33984375,-67.87109375,-119.140625,-515.625
-499.51171875,-76.66015625,-125.0,-1000.0
-190.91796875,-66.89453125,-130.37109375,-450.68359375
208.49609375,-46.875,-120.1171875,838.37890625
187.01171875,-41.50390625,-112.79296875,824.70703125
-244.62890625,-61.03515625,-123.046875,-388.18359375
-495.60546875,-78.125,-128.41796875,-1000.0
-227.05078125,-66.89453125,-123.046875,-582.51953125
176.7578125,-41.015625,-117.67578125,679.6875
237.79296875,-36.62109375,-122.0703125,936.5234375
-166.50390625,-60.05859375,-125.9765625,-249.0234375
-492.1875,-78.61328125,-124.51171875,-1000.0
-270.01953125,-66.40625,-130.859375,-674.8046875
147.94921875,-41.50390625,-132.8125,539.55078125
240.72265625,-38.57421875,-129.39453125,999.51171875
-129.8828125,-57.12890625,-135.7421875,-106.93359375
-487.79296875,-72.265625,-135.25390625,-1000.0
-348.6328125,-64.94140625,-129.39453125,-764.6484375
38.57421875,-42.48046875,-125.9765625,402.83203125
198.2421875,-28.80859375,-126.46484375,999.51171875
-115.72265625,-44.43359375,-134.27734375,73.73046875
-513.671875,-71.2890625,-138.671875,-1000.0
-417.48046875,-73.2421875,-134.27734375,-853.515625
-3.41796875,-47.36328125,-121.58203125,290.52734375
202.63671875,-36.1328125,-124.0234375,999.51171875
-78.125,-53.7109375,-130.37109375,230.95703125
-505.859375,-68.84765625,-127.9296875,-980.46875
-490.234375,-69.82421875,-126.953125,-977.05078125
-66.40625,-49.31640625,-119.140625,114.74609375
212.890625,-30.2734375,-116.2109375,999.51171875
-23.92578125,-45.8984375,-124.51171875,333.984375
-468.26171875,-71.2890625,-130.859375,-900.390625
-517.578125,-76.66015625,-131.34765625,-1000.0
-115.234375,-53.22265625,-128.41796875,-67.87109375
219.7265625,-33.203125,-125.48828125,999.51171875
47.36328125,-47.36328125,-123.53515625,486.328125
-394.04296875,-65.91796875,-127.9296875,-760.25390625
-501.953125,-69.3359375,-130.37109375,-1000.0
-131.34765625,-49.31640625,-125.9765625,-246.58203125
235.83984375,-27.34375,-122.0703125,999.51171875
110.83984375,-43.45703125,-121.09375,629.8828125
-353.02734375,-72.75390625,-131.34765625,-615.72265625
-536.1328125,-73.2421875,-133.7890625,-1000.0
-180.17578125,-52.24609375,-123.53515625,-343.75
224.12109375,-25.87890625,-116.2109375,938.4765625
171.38671875,-25.87890625,-114.74609375,785.15625
-271.484375,-57.6171875,-124.0234375,-420.8984375
-517.08984375,-78.61328125,-129.39453125,-1000.0
-208.0078125,-65.91796875,-125.0,-453.61328125
208.0078125,-42.48046875,-118.1640625,840.33203125
218.75,-38.0859375,-111.81640625,901.3671875
-220.703125,-62.5,-106.4453125,-290.52734375
-536.1328125,-80.56640625,-107.91015625,-1000.0
-279.78515625,-64.94140625,-111.81640625,-553.7109375
156.25,-39.0625,-102.5390625,712.890625
243.1640625,-35.15625,-101.5625,999.51171875
-155.2734375,-63.4765625,-111.328125,-125.0
-494.140625,-86.9140625,-117.67578125,-1000.0
-278.80859375,-65.4296875,-119.62890625,-680.17578125
147.4609375,-27.34375,-115.234375,532.2265625
295.8984375,-13.671875,-113.76953125,999.51171875
-52.734375,-29.296875,-120.60546875,0.48828125
-441.40625,-48.828125,-132.32421875,-1000.0
-288.0859375,-46.875,-145.01953125,-811.03515625
174.31640625,-17.578125,-144.53125,356.4453125
383.7890625,11.23046875,-135.7421875,999.51171875
62.01171875,2.9296875,-138.18359375,153.80859375
-378.41796875,-15.13671875,-150.87890625,-1000.0
-309.08203125,-6.34765625,-155.2734375,-932.6171875
136.23046875,15.625,-148.92578125,193.84765625
384.765625,26.85546875,-143.06640625,999.51171875
109.86328125,9.27734375,-145.01953125,267.578125
-355.95703125,-15.625,-147.4609375,-977.5390625
-371.09375,-11.23046875,-147.94921875,-1000.0
73.2421875,8.7890625,-142.578125,43.45703125
391.11328125,16.6015625,-129.8828125,999.51171875
139.16015625,0.0,-133.7890625,419.43359375
-367.1875,-29.78515625,-144.04296875,-842.7734375
-450.68359375,-40.0390625,-141.11328125,-1000.0
-10.7421875,-20.99609375,-134.765625,-107.91015625
360.3515625,5.37109375,-127.44140625,999.51171875
187.98828125,-3.90625,-128.41796875,565.4296875
-312.98828125,-37.109375,-133.7890625,-689.94140625
-478.515625,-48.828125,-132.32421875,-1000.0
-53.7109375,-23.92578125,-123.53515625,-204.1015625
372.55859375,-0.48828125,-117.67578125,999.51171875
254.39453125,-15.13671875,-122.0703125,702.63671875
-262.20703125,-48.33984375,-123.046875,-520.99609375
-523.4375,-67.3828125,-126.953125,-1000.0
-148.4375,-42.48046875,-123.046875,-348.6328125
328.125,-8.7890625,-113.28125,964.84375
312.5,-17.08984375,-119.140625,855.95703125
-182.6171875,-49.8046875,-127.9296875,-360.3515625
-522.94921875,-71.77734375,-126.46484375,-1000.0
-203.125,-55.17578125,-114.74609375,-479.00390625
304.19921875,-24.4140625,-105.95703125,819.3359375
392.08984375,-18.06640625,-107.91015625,992.1875
-90.8203125,-44.921875,-116.2109375,-185.546875
-518.5546875,-72.75390625,-127.9296875,-1000.0
-260.7421875,-63.4765625,-126.46484375,-620.60546875
254.8828125,-28.3203125,-107.421875,641.11328125
393.5546875,-15.13671875,-104.98046875,999.51171875
-66.89453125,-43.45703125,-115.72265625,-40.0390625
-557.12890625,-73.2421875,-117.67578125,-1000.0
-369.140625,-66.89453125,-114.2578125,-753.41796875
172.8515625,-35.15625,-105.95703125,452.63671875
414.0625,-16.6015625,-100.09765625,999.51171875
15.13671875,-50.29296875,-108.3984375,116.69921875
-586.9140625,-90.33203125,-119.62890625,-1000.0
-524.4140625,-78.125,-123.53515625,-929.6875
83.984375,-43.9453125,-113.28125,207.51953125
472.16796875,-19.53125,-102.05078125,999.51171875
126.46484375,-37.59765625,-106.93359375,249.0234375
-564.94140625,-83.49609375,-121.58203125,-1000.0
-615.72265625,-87.40234375,-118.65234375,-1000.0
2.44140625,-54.6875,-102.05078125,23.92578125
492.1875,-16.6015625,-88.37890625,999.51171875
239.74609375,-21.97265625,-91.30859375,400.390625
-479.98046875,-67.87109375,-124.0234375,-876.953125
-659.1796875,-88.37890625,-139.6484375,-1000.0
-66.40625,-56.15234375,-116.2109375,-109.86328125
482.421875,-13.18359375,-83.984375,999.51171875
263.18359375,-17.08984375,-87.890625,547.8515625
-519.53125,-73.2421875,-125.48828125,-727.5390625
-862.3046875,-113.28125,-133.30078125,-1000.0
-328.125,-88.37890625,-121.58203125,-252.44140625
311.5234375,-46.38671875,-100.5859375,999.51171875
214.35546875,-41.9921875,-78.61328125,716.796875
-562.98828125,-101.5625,-107.91015625,-560.546875
-1000.0,-155.76171875,-142.578125,-1000.0
-534.66796875,-137.6953125,-130.859375,-391.11328125
156.25,-83.984375,-107.421875,948.2421875
177.24609375,-63.96484375,-92.28515625,885.25390625
-536.62109375,-107.421875,-108.3984375,-362.3046875
-1000.0,-147.94921875,-131.34765625,-1000.0
-616.69921875,-133.30078125,-120.1171875,-479.98046875
85.9375,-90.33203125,-96.19140625,825.68359375
233.3984375,-70.80078125,-89.35546875,999.51171875
-400.390625,-114.2578125,-106.93359375,-140.625
-997.55859375,-161.62109375,-132.8125,-1000.0
-687.5,-140.625,-129.39453125,-624.0234375
64.453125,-88.37890625,-98.6328125,637.20703125
446.77734375,-50.29296875,-74.70703125,999.51171875
-83.984375,-77.63671875,-88.8671875,54.19921875
-916.9921875,-143.5546875,-128.41796875,-1000.0
-805.17578125,-147.4609375,-134.27734375,-974.12109375
-10.25390625,-96.6796875,-101.5625,-978.515625
614.2578125,-42.96875,-68.84765625,-1000.0
264.16015625,-46.875,-79.58984375,-1000.0
-746.09375,-122.55859375,-128.41796875,-1000.0
-913.57421875,-158.203125,-154.296875,-1000.0
-32.2265625,-95.21484375,-116.2109375,-1000.0
845.21484375,-14.6484375,-53.22265625,-1000.0
560.546875,-10.25390625,-50.78125,-1000.0
-609.375,-103.515625,-117.1875,-1000.0
-1000.0,-163.0859375,-158.69140625,-1000.0
-140.625,-99.12109375,-120.60546875,-987.3046875
873.53515625,8.7890625,-49.31640625,-993.1640625
730.95703125,20.5078125,-40.52734375,-1000.0
-447.265625,-90.33203125,-124.0234375,-958.984375
-1000.0,-166.015625,-186.03515625,-1000.0
-220.703125,-104.4921875,-143.5546875,-696.77734375
848.6328125,3.41796875,-67.3828125,-106.93359375
814.94140625,35.64453125,-44.43359375,-616.69921875
-297.8515625,-55.17578125,-108.88671875,-980.46875
-1000.0,-147.4609375,-170.8984375,-1000.0
-344.23828125,-103.515625,-144.53125,-699.21875
760.25390625,-2.9296875,-84.47265625,583.0078125
876.953125,29.296875,-58.59375,268.06640625
-110.83984375,-28.3203125,-97.16796875,-962.890625
-913.0859375,-109.375,-156.73828125,-1000.0
-453.61328125,-105.46875,-155.2734375,-675.78125
475.09765625,-28.80859375,-104.00390625,212.890625
676.7578125,12.6953125,-74.21875,-318.84765625
-56.640625,-25.390625,-99.609375,-1000.0
-663.0859375,-82.03125,-134.765625,-986.81640625
-332.03125,-80.56640625,-128.41796875,-930.17578125
292.96875,-41.015625,-101.5625,-835.44921875
391.6015625,-19.53125,-90.33203125,-878.41796875
-141.6015625,-47.36328125,-112.79296875,-1000.0
-559.5703125,-85.44921875,-133.30078125,-1000.0
-245.60546875,-62.98828125,-119.140625,-993.65234375
303.22265625,-23.92578125,-96.19140625,-966.796875
450.68359375,-20.5078125,-97.16796875,-927.24609375
-11.23046875,-41.9921875,-110.83984375,-963.8671875
-532.71484375,-69.82421875,-125.48828125,-1000.0
-346.6796875,-62.98828125,-121.09375,-916.9921875
261.71875,-30.76171875,-100.5859375,-252.9296875
584.9609375,-1.46484375,-88.37890625,187.5
130.37109375,-20.99609375,-99.12109375,-544.43359375
-613.28125,-81.0546875,-128.41796875,-1000.0
-538.0859375,-88.37890625,-135.25390625,-740.234375
229.98046875,-35.64453125,-104.98046875,265.625
759.27734375,17.08984375,-67.3828125,958.49609375
316.40625,-11.23046875,-82.51953125,51.26953125
-668.9453125,-99.609375,-137.6953125,-1000.0
-768.06640625,-117.1875,-148.92578125,-875.0
72.75390625,-60.546875,-110.3515625,-469.7265625
829.58984375,9.765625,-66.89453125,488.28125
506.8359375,6.34765625,-71.2890625,252.44140625
-634.765625,-90.33203125,-133.30078125,-989.2578125
-939.94140625,-139.16015625,-165.0390625,-1000.0
-35.64453125,-72.75390625,-121.09375,46.875
881.8359375,18.5546875,-63.96484375,999.51171875
611.328125,23.4375,-61.03515625,102.05078125
-550.29296875,-68.359375,-118.65234375,-962.40234375
-1000.0,-130.37109375,-164.0625,-999.0234375
-220.703125,-77.63671875,-125.0,-35.15625
816.40625,16.11328125,-59.5703125,999.51171875
719.23828125,33.69140625,-52.24609375,444.3359375
-418.9453125,-56.640625,-114.2578125,-818.84765625
-1000.0,-127.9296875,-169.921875,-1000.0
-340.33203125,-83.984375,-139.16015625,-106.93359375
749.0234375,6.8359375,-74.21875,999.51171875
815.4296875,40.52734375,-52.24609375,290.0390625
-254.8828125,-38.0859375,-105.46875,-790.52734375
-1000.0,-129.8828125,-166.015625,-1000.0
-563.96484375,-95.703125,-140.625,-659.66796875
614.74609375,10.7421875,-65.91796875,432.6171875
979.4921875,63.4765625,-25.87890625,801.7578125
-60.05859375,-15.625,-84.47265625,-367.67578125
-1000.0,-146.97265625,-180.6640625,-1000.0
-682.6171875,-138.671875,-172.36328125,-696.2890625
520.99609375,-3.41796875,-82.03125,491.2109375
999.51171875,86.9140625,-15.13671875,825.68359375
72.265625,8.30078125,-63.4765625,-379.39453125
-1000.0,-148.4375,-179.19921875,-1000.0
-756.8359375,-162.59765625,-184.08203125,-332.03125
429.19921875,-20.5078125,-78.61328125,969.7265625
999.51171875,90.33203125,1.46484375,966.30859375
163.57421875,22.4609375,-55.17578125,-190.91796875
-1000.0,-150.390625,-189.453125,-1000.0
-835.44921875,-178.7109375,-205.56640625,-455.56640625
333.49609375,-32.71484375,-97.16796875,832.03125
999.51171875,98.14453125,-3.41796875,999.51171875
282.71484375,39.55078125,-45.8984375,-2.9296875
-983.88671875,-150.87890625,-182.6171875,-1000.0
-931.640625,-193.359375,-208.49609375,-388.18359375
217.28515625,-46.38671875,-93.26171875,907.71484375
999.51171875,89.84375,7.8125,999.51171875
402.34375,53.22265625,-25.390625,147.4609375
-866.69921875,-127.9296875,-166.015625,-1000.0
-1000.0,-200.68359375,-218.75,-812.98828125
64.453125,-65.91796875,-112.79296875,485.3515625
999.51171875,84.47265625,-2.9296875,999.51171875
512.6953125,61.03515625,-19.04296875,15.13671875
-728.515625,-124.51171875,-155.76171875,-1000.0
-1000.0,-214.35546875,-216.30859375,-930.17578125
-94.23828125,-85.9375,-115.234375,286.1328125
999.51171875,81.0546875,0.48828125,999.51171875
623.046875,82.03125,-3.41796875,160.15625
-582.51953125,-90.8203125,-140.13671875,-1000.0
-1000.0,-206.0546875,-226.07421875,-1000.0
-255.37109375,-103.515625,-145.01953125,-81.0546875
999.51171875,73.2421875,-17.08984375,999.51171875
756.8359375,97.65625,7.8125,395.01953125
-431.640625,-76.66015625,-121.09375,-847.65625
-1000.0,-214.35546875,-228.02734375,-1000.0
-401.3671875,-133.30078125,-156.25,-377.9296875
895.5078125,43.9453125,-23.4375,972.65625
898.92578125,108.3984375,9.27734375,591.30859375
-280.76171875,-41.50390625,-107.91015625,-777.34375
-1000.0,-205.078125,-219.23828125,-1000.0
-520.99609375,-148.4375,-166.9921875,-521.484375
754.8828125,28.3203125,-43.9453125,841.30859375
999.51171875,104.00390625,12.20703125,664.0625
-107.421875,-12.6953125,-77.63671875,-613.28125
-1000.0,-181.15234375,-204.58984375,-1000.0
-618.65234375,-152.83203125,-183.10546875,-304.6875
613.28125,18.5546875,-64.453125,999.51171875
999.51171875,119.62890625,7.32421875,930.6640625
62.5,24.90234375,-64.453125,-306.640625
-1000.0,-154.78515625,-198.73046875,-1000.0
-750.0,-156.25,-201.66015625,-721.19140625
437.01171875,1.953125,-88.8671875,182.12890625
999.51171875,118.65234375,-0.9765625,505.37109375
231.4453125,51.26953125,-48.828125,-432.12890625
-1000.0,-134.765625,-183.10546875,-1000.0
-878.90625,-177.24609375,-202.1484375,-881.8359375
290.52734375,-32.71484375,-92.7734375,27.34375
999.51171875,106.4453125,7.32421875,999.51171875
376.46484375,62.01171875,-28.80859375,22.94921875
-895.99609375,-130.37109375,-172.8515625,-1000.0
-997.55859375,-190.91796875,-208.984375,-916.015625
149.4140625,-48.828125,-97.65625,131.34765625
999.51171875,104.4921875,11.23046875,999.51171875
501.46484375,86.42578125,-8.30078125,107.421875
-750.0,-104.00390625,-145.99609375,-1000.0
-1000.0,-187.5,-203.125,-812.5
-1.46484375,-49.8046875,-108.3984375,420.41015625
999.51171875,102.05078125,-2.44140625,999.51171875
603.02734375,88.37890625,-5.37109375,150.390625
-605.95703125,-88.37890625,-135.25390625,-1000.0
-1000.0,-201.66015625,-215.33203125,-1000.0
-178.22265625,-93.75,-132.32421875,159.66796875
999.51171875,76.66015625,-8.30078125,999.51171875
717.28515625,103.02734375,7.8125,61.5234375
-468.26171875,-62.5,-120.1171875,-1000.0
-1000.0,-193.84765625,-214.35546875,-1000.0
-334.9609375,-106.4453125,-147.94921875,-231.93359375
945.80078125,65.91796875,-19.04296875,710.44921875
868.1640625,112.79296875,19.53125,342.7734375
-299.8046875,-36.1328125,-100.09765625,-597.65625
-1000.0,-187.98828125,-209.9609375,-1000.0
-492.1875,-141.6015625,-158.203125,-587.890625
789.0625,20.99609375,-37.109375,391.11328125
987.79296875,100.5859375,17.08984375,495.60546875
-156.73828125,-26.3671875,-79.58984375,-462.40234375
-1000.0,-189.94140625,-199.21875,-1000.0
-609.375,-154.296875,-165.52734375,-644.53125
627.44140625,11.23046875,-46.875,409.1796875
999.51171875,113.76953125,21.484375,805.6640625
7.8125,11.23046875,-51.26953125,-217.28515625
-1000.0,-161.62109375,-180.17578125,-1000.0
-718.26171875,-158.69140625,-178.7109375,-659.66796875
473.6328125,-12.6953125,-65.91796875,357.421875
999.51171875,102.05078125,15.625,745.60546875
166.015625,23.4375,-45.8984375,-140.13671875
-1000.0,-170.41015625,-184.08203125,-1000.0
-840.33203125,-188.96484375,-194.3359375,-738.28125
325.1953125,-32.2265625,-81.54296875,194.82421875
999.51171875,99.609375,11.71875,799.31640625
317.87109375,43.9453125,-27.83203125,60.546875
-946.77734375,-148.92578125,-162.59765625,-1000.0
-970.21484375,-195.80078125,-186.5234375,-772.94921875
166.50390625,-49.31640625,-74.70703125,224.12109375
999.51171875,82.51953125,25.390625,853.02734375
455.078125,46.875,-1.953125,316.89453125
-803.22265625,-137.6953125,-144.53125,-766.11328125
-1000.0,-220.21484375,-199.21875,-888.18359375
7.8125,-85.44921875,-96.6796875,51.7578125
999.51171875,81.0546875,18.5546875,803.22265625
581.0546875,73.73046875,11.71875,379.39453125
-641.6015625,-112.3046875,-128.41796875,-693.84765625
-1000.0,-210.9375,-199.70703125,-938.4765625
-149.4140625,-89.35546875,-109.375,-78.125
999.51171875,75.68359375,5.37109375,772.94921875
693.359375,91.796875,7.8125,508.7890625
-498.046875,-77.1484375,-122.55859375,-585.44921875
-1000.0,-203.61328125,-211.9140625,-988.28125
-312.01171875,-115.72265625,-140.625,-216.796875
963.37890625,55.17578125,-19.04296875,737.3046875
820.80078125,102.05078125,13.18359375,637.20703125
-358.88671875,-54.19921875,-100.5859375,-470.703125
-1000.0,-204.1015625,-209.9609375,-1000.0
-457.51953125,-130.859375,-152.83203125,-193.359375
833.984375,44.43359375,-29.296875,899.4140625
938.96484375,102.05078125,13.671875,763.671875
-230.46875,-33.203125,-86.9140625,-396.97265625
-1000.0,-184.08203125,-204.1015625,-1000.0
-562.01171875,-139.6484375,-156.25,-370.60546875
688.96484375,21.484375,-30.2734375,645.5078125
999.51171875,106.4453125,20.5078125,760.7421875
-56.15234375,-9.27734375,-66.89453125,-196.77734375
-1000.0,-183.10546875,-192.3828125,-1000.0
-681.15234375,-161.62109375,-170.41015625,-526.3671875
523.92578125,-3.41796875,-54.19921875,628.90625
999.51171875,100.5859375,17.08984375,962.40234375
93.75,15.13671875,-46.38671875,-239.74609375
-1000.0,-168.45703125,-184.08203125,-1000.0
-789.55078125,-178.22265625,-188.96484375,-471.19140625
377.44140625,-14.6484375,-65.4296875,549.31640625
999.51171875,104.98046875,25.390625,867.67578125
260.7421875,35.15625,-32.2265625,100.5859375
-994.140625,-152.34375,-175.78125,-942.3828125
-921.875,-191.89453125,-194.3359375,-730.46875
227.05078125,-42.96875,-75.68359375,275.87890625
999.51171875,95.703125,20.01953125,910.64453125
407.2265625,59.5703125,-22.94921875,256.8359375
-856.4453125,-126.953125,-169.921875,-903.3203125
-1000.0,-189.453125,-217.7734375,-831.0546875
68.359375,-48.33984375,-115.234375,214.35546875
999.51171875,102.05078125,-7.32421875,969.7265625
541.9921875,97.16796875,-21.484375,423.828125
-696.2890625,-83.984375,-164.55078125,-776.85546875
-1000.0,-181.640625,-232.91015625,-869.62890625
-73.73046875,-59.5703125,-132.32421875,333.49609375
999.51171875,94.7265625,-10.7421875,999.51171875
655.76171875,92.28515625,-11.23046875,512.20703125
-538.57421875,-81.54296875,-144.04296875,-602.5390625
-1000.0,-191.89453125,-220.703125,-991.69921875
-250.0,-92.28515625,-135.25390625,-147.4609375
999.51171875,73.73046875,-10.7421875,921.38671875
780.76171875,107.91015625,8.30078125,665.0390625
-395.5078125,-55.6640625,-119.62890625,-539.55078125
-1000.0,-192.3828125,-212.40234375,-1000.0
-399.4140625,-115.72265625,-146.484375,-164.55078125
890.13671875,47.36328125,-29.296875,961.9140625
904.296875,104.98046875,5.37109375,737.79296875
-262.20703125,-33.69140625,-104.00390625,-431.640625
-1000.0,-188.96484375,-214.84375,-1000.0
-523.4375,-132.8125,-162.109375,-185.546875
746.58203125,34.1796875,-35.15625,976.07421875
999.51171875,104.98046875,19.53125,826.171875
-106.93359375,-19.04296875,-73.2421875,-286.1328125
-1000.0,-187.98828125,-194.3359375,-1000.0
-636.23046875,-155.76171875,-161.1328125,-413.57421875
585.44921875,9.27734375,-42.96875,661.62109375
999.51171875,103.02734375,21.484375,834.47265625
64.94140625,7.8125,-54.6875,-132.8125
-1000.0,-170.8984375,-184.5703125,-1000.0
-749.51171875,-171.38671875,-175.78125,-519.53125
434.08203125,-11.71875,-56.640625,681.640625
999.51171875,102.5390625,23.4375,960.44921875
237.79296875,28.80859375,-38.0859375,81.0546875
-1000.0,-157.71484375,-175.29296875,-918.45703125
-877.9296875,-183.59375,-184.5703125,-735.3515625
286.1328125,-31.73828125,-71.77734375,219.7265625
999.51171875,96.19140625,18.06640625,761.71875
386.71875,51.7578125,-25.390625,204.58984375
-884.765625,-134.765625,-168.45703125,-858.88671875
-1000.0,-197.75390625,-203.61328125,-787.59765625
137.20703125,-55.6640625,-94.23828125,428.7109375
999.51171875,90.8203125,15.625,999.51171875
487.3046875,62.01171875,-2.44140625,207.03125
-768.5546875,-122.0703125,-141.11328125,-1000.0
-1000.0,-200.68359375,-196.2890625,-756.34765625
2.44140625,-67.87109375,-97.65625,538.0859375
999.51171875,88.8671875,12.6953125,999.51171875
615.234375,84.47265625,6.34765625,407.2265625
-588.37890625,-96.6796875,-128.90625,-730.46875
-1000.0,-207.03125,-208.984375,-978.515625
-202.63671875,-92.28515625,-120.1171875,-181.15234375
999.51171875,73.73046875,7.32421875,679.19921875
730.46875,91.796875,21.97265625,467.7734375
-455.56640625,-77.1484375,-113.76953125,-579.1015625
-1000.0,-209.47265625,-216.796875,-1000.0
-368.65234375,-113.76953125,-138.671875,-267.578125
919.43359375,53.22265625,-9.765625,759.765625
858.88671875,95.703125,20.01953125,637.6953125
-318.84765625,-48.828125,-91.796875,-492.67578125
-1000.0,-197.265625,-198.2421875,-1000.0
-488.76953125,-131.34765625,-139.6484375,-350.5859375
787.59765625,41.9921875,-15.13671875,664.0625
981.4453125,112.79296875,30.2734375,741.2109375
-156.73828125,-19.04296875,-72.75390625,-340.33203125
-1000.0,-186.5234375,-199.70703125,-1000.0
-601.5625,-150.87890625,-167.96875,-469.7265625
634.27734375,19.04296875,-41.9921875,529.78515625
999.51171875,120.60546875,27.83203125,764.6484375
17.08984375,14.16015625,-57.12890625,-123.046875
-1000.0,-171.875,-186.5234375,-1000.0
-713.37890625,-167.48046875,-170.8984375,-545.41015625
483.88671875,-9.27734375,-52.734375,649.4140625
999.51171875,102.5390625,27.83203125,999.51171875
178.22265625,23.4375,-31.73828125,102.05078125
-1000.0,-161.1328125,-170.41015625,-1000.0
-819.82421875,-177.24609375,-184.5703125,-405.76171875
356.4453125,-20.5078125,-66.89453125,883.7890625
999.51171875,104.4921875,29.296875,999.51171875
314.94140625,45.8984375,-14.16015625,66.89453125
-949.70703125,-142.578125,-154.296875,-1000.0
-956.54296875,-189.94140625,-188.4765625,-766.6015625
190.4296875,-44.43359375,-79.58984375,390.625
999.51171875,95.703125,27.34375,999.51171875
453.125,61.5234375,-0.48828125,224.609375
-805.6640625,-127.9296875,-142.578125,-995.60546875
-1000.0,-204.58984375,-192.87109375,-824.70703125
38.0859375,-68.359375,-89.84375,194.3359375
999.51171875,87.890625,21.97265625,955.078125
578.125,80.078125,12.6953125,437.01171875
-643.5546875,-101.5625,-127.44140625,-805.17578125
-1000.0,-205.078125,-202.1484375,-888.671875
-144.04296875,-91.30859375,-105.95703125,50.29296875
999.51171875,67.3828125,12.20703125,862.79296875
682.12890625,84.47265625,14.16015625,623.046875
-510.7421875,-81.0546875,-115.234375,-580.56640625
-1000.0,-212.40234375,-199.21875,-1000.0
-323.2421875,-119.140625,-122.0703125,-256.8359375
957.03125,61.5234375,1.46484375,664.55078125
816.89453125,100.09765625,26.3671875,548.828125
-364.74609375,-63.96484375,-96.19140625,-490.234375
-1000.0,-204.1015625,-196.77734375,-1000.0
-436.5234375,-124.51171875,-134.27734375,-95.703125
850.5859375,43.9453125,-11.71875,999.51171875
931.640625,107.421875,33.69140625,615.72265625
-234.375,-23.92578125,-70.3125,-699.70703125
-1000.0,-181.15234375,-193.359375,-1000.0
-563.96484375,-138.671875,-152.34375,-427.24609375
690.4296875,30.2734375,-29.78515625,662.109375
999.51171875,107.91015625,28.80859375,866.69921875
-56.640625,-14.16015625,-55.6640625,-374.51171875
-1000.0,-182.12890625,-179.6875,-1000.0
-671.38671875,-167.96875,-162.109375,-430.17578125
536.62109375,-5.37109375,-43.9453125,677.24609375
999.51171875,105.46875,29.78515625,941.40625
111.328125,18.5546875,-41.50390625,-67.3828125
-1000.0,-166.015625,-177.734375,-1000.0
-783.69140625,-175.29296875,-175.78125,-572.75390625
389.6484375,-15.13671875,-57.6171875,492.1875
999.51171875,104.4921875,26.3671875,908.69140625
279.296875,33.203125,-20.01953125,74.70703125
-982.421875,-162.109375,-160.15625,-1000.0
-908.203125,-194.82421875,-179.19921875,-686.03515625
253.41796875,-40.52734375,-61.5234375,458.984375
999.51171875,93.26171875,31.25,999.51171875
426.26953125,61.03515625,-4.39453125,269.53125
-839.84375,-125.48828125,-147.4609375,-907.71484375
-1000.0,-191.89453125,-188.4765625,-765.13671875
99.12109375,-48.828125,-79.58984375,439.453125
999.51171875,97.65625,29.78515625,999.51171875
546.38671875,82.03125,18.06640625,351.5625
-687.01171875,-110.83984375,-126.953125,-856.93359375
-1000.0,-208.0078125,-195.80078125,-940.91796875
-68.84765625,-77.1484375,-99.609375,177.24609375
999.51171875,83.49609375,16.11328125,999.51171875
664.0625,88.8671875,17.578125,517.578125
-525.87890625,-84.9609375,-116.69921875,-642.578125
-1000.0,-202.63671875,-197.265625,-959.9609375
-236.328125,-98.14453125,-113.28125,185.546875
995.60546875,65.91796875,4.8828125,999.51171875
814.94140625,100.09765625,26.85546875,647.4609375
-340.8203125,-46.38671875,-78.125,-561.03515625
-1000.0,-177.24609375,-167.48046875,-1000.0
-479.98046875,-116.69921875,-120.60546875,-462.40234375
766.11328125,24.4140625,-23.4375,669.921875
914.55078125,71.77734375,14.6484375,778.3203125
-235.3515625,-40.52734375,-66.89453125,-616.2109375
-1000.0,-167.96875,-162.59765625,-1000.0
-592.28515625,-136.71875,-135.25390625,-407.71484375
620.1171875,-3.90625,-41.015625,432.12890625
999.51171875,74.21875,4.8828125,562.98828125
-43.45703125,-12.6953125,-60.546875,-248.53515625
-1000.0,-154.296875,-155.2734375,-907.2265625
-690.91796875,-140.13671875,-140.13671875,-502.44140625
492.1875,-8.7890625,-45.41015625,450.1953125
999.51171875,80.078125,19.53125,992.1875
120.60546875,5.859375,-33.69140625,-139.16015625
-1000.0,-152.34375,-146.97265625,-1000.0
-780.2734375,-158.203125,-150.87890625,-585.9375
372.0703125,-25.87890625,-62.01171875,467.28515625
999.51171875,80.56640625,10.25390625,999.51171875
280.76171875,25.390625,-24.4140625,87.40234375
-981.93359375,-150.390625,-145.5078125,-1000.0
-899.4140625,-180.17578125,-165.52734375,-706.54296875
259.765625,-38.0859375,-63.4765625,465.33203125
999.51171875,83.984375,27.83203125,999.51171875
380.37109375,38.0859375,1.953125,28.80859375
-890.13671875,-143.5546875,-132.8125,-1000.0
-991.2109375,-200.1953125,-174.31640625,-654.296875
144.04296875,-57.12890625,-65.91796875,468.75
999.51171875,88.37890625,43.45703125,999.51171875
509.27734375,63.96484375,21.97265625,214.84375
-742.1875,-119.62890625,-123.046875,-1000.0
-1000.0,-204.58984375,-184.08203125,-779.296875
1.46484375,-74.21875,-88.8671875,436.5234375
999.51171875,82.03125,26.85546875,999.51171875
627.44140625,83.49609375,22.4609375,586.42578125
-571.2890625,-90.33203125,-111.328125,-584.9609375
-1000.0,-200.68359375,-182.6171875,-885.7421875
-172.8515625,-96.19140625,-96.19140625,230.95703125
999.51171875,66.40625,16.6015625,999.51171875
745.60546875,90.8203125,29.296875,683.59375
-427.734375,-74.21875,-90.33203125,-513.18359375
-1000.0,-210.9375,-182.6171875,-972.65625
-335.44921875,-128.90625,-110.83984375,187.01171875
935.05859375,44.43359375,9.27734375,999.51171875
871.09375,98.14453125,40.0390625,697.265625
-291.50390625,-53.22265625,-62.5,-449.70703125
-1000.0,-209.9609375,-168.9453125,-1000.0
-510.25390625,-149.90234375,-117.1875,-330.56640625
767.578125,15.13671875,8.7890625,725.09765625
972.16796875,83.0078125,56.15234375,781.73828125
-183.10546875,-48.33984375,-46.875,-451.66015625
-1000.0,-220.21484375,-165.0390625,-1000.0
-617.67578125,-181.15234375,-122.55859375,-289.0625
611.81640625,-15.13671875,-2.9296875,802.24609375
999.51171875,69.82421875,54.6875,885.25390625
-16.6015625,-31.25,-20.5078125,-112.3046875
-1000.0,-208.984375,-141.11328125,-1000.0
-734.86328125,-204.1015625,-135.25390625,-565.91796875
443.359375,-39.55078125,-24.4140625,512.6953125
999.51171875,78.61328125,59.08203125,962.890625
172.8515625,4.8828125,-3.41796875,-30.76171875
-1000.0,-179.6875,-146.97265625,-1000.0
-836.9140625,-199.70703125,-160.64453125,-613.28125
325.68359375,-45.41015625,-44.43359375,473.6328125
999.51171875,85.44921875,46.38671875,975.5859375
325.1953125,31.73828125,2.9296875,258.7890625
-935.546875,-152.83203125,-132.32421875,-826.66015625
-965.8203125,-198.73046875,-168.45703125,-760.25390625
169.921875,-60.546875,-63.96484375,252.44140625
999.51171875,81.54296875,43.9453125,833.984375
474.609375,57.6171875,16.6015625,314.453125
-778.80859375,-128.41796875,-125.9765625,-745.1171875
-1000.0,-208.984375,-178.22265625,-858.3984375
14.16015625,-71.2890625,-78.125,64.94140625
999.51171875,92.7734375,33.69140625,810.05859375
604.4921875,86.9140625,32.71484375,454.1015625
-607.421875,-97.16796875,-102.05078125,-648.92578125
-1000.0,-204.1015625,-180.17578125,-925.29296875
-158.203125,-94.7265625,-96.19140625,-31.73828125
999.51171875,65.91796875,24.4140625,827.63671875
715.8203125,90.8203125,43.9453125,591.30859375
-467.28515625,-74.21875,-85.44921875,-530.76171875
-1000.0,-202.63671875,-177.734375,-961.9140625
-309.5703125,-109.86328125,-103.02734375,-141.11328125
948.73046875,57.12890625,15.625,765.625
858.3984375,101.07421875,42.48046875,662.109375
-294.921875,-49.31640625,-70.3125,-407.71484375
-1000.0,-199.21875,-176.7578125,-991.69921875
-458.0078125,-122.0703125,-120.60546875,-293.9453125
812.98828125,49.31640625,5.859375,676.7578125
965.33203125,109.86328125,49.8046875,745.1171875
-162.59765625,-17.578125,-53.7109375,-271.97265625
-1000.0,-185.05859375,-177.734375,-989.2578125
-582.51953125,-149.4140625,-141.6015625,-405.2734375
657.71484375,20.99609375,-14.6484375,569.3359375
999.51171875,109.86328125,44.43359375,792.48046875
1.953125,5.859375,-38.57421875,-108.3984375
-1000.0,-168.45703125,-165.0390625,-959.9609375
-696.77734375,-160.64453125,-152.34375,-520.01953125
504.39453125,0.9765625,-32.2265625,454.58984375
999.51171875,110.3515625,53.22265625,813.96484375
149.4140625,26.3671875,-11.23046875,37.109375
-1000.0,-156.73828125,-156.73828125,-922.36328125
-812.5,-173.33984375,-163.57421875,-630.37109375
353.02734375,-21.97265625,-48.828125,356.93359375
999.51171875,108.3984375,42.48046875,847.65625
317.3828125,51.7578125,0.48828125,197.265625
-948.73046875,-140.625,-139.16015625,-856.93359375
-926.7578125,-174.8046875,-163.57421875,-723.14453125
229.98046875,-24.90234375,-57.12890625,265.625
999.51171875,107.421875,40.0390625,852.05078125
464.84375,70.3125,13.18359375,325.1953125
-798.828125,-119.140625,-127.44140625,-764.16015625
-1000.0,-198.73046875,-181.640625,-822.265625
89.84375,-67.87109375,-75.68359375,135.25390625
999.51171875,85.44921875,38.0859375,834.47265625
572.75390625,71.2890625,17.08984375,414.55078125
-651.85546875,-108.88671875,-124.0234375,-682.6171875
-1000.0,-203.61328125,-190.91796875,-902.34375
-75.68359375,-82.03125,-95.21484375,14.6484375
999.51171875,81.54296875,24.4140625,837.40234375
679.6875,92.7734375,32.71484375,537.109375
-504.39453125,-79.58984375,-94.7265625,-582.51953125
-1000.0,-203.61328125,-181.640625,-960.9375
-244.62890625,-101.5625,-102.05078125,-106.4453125
995.1171875,71.77734375,17.578125,816.40625
800.78125,104.4921875,37.59765625,651.3671875
-362.3046875,-57.12890625,-82.03125,-462.890625
-1000.0,-193.359375,-185.05859375,-1000.0
-412.59765625,-118.1640625,-120.1171875,-264.16015625
872.55859375,43.9453125,6.8359375,721.6796875
902.83203125,101.5625,43.45703125,694.3359375
-264.6484375,-42.48046875,-67.87109375,-383.30078125
-1000.0,-199.21875,-180.6640625,-1000.0
-542.96875,-141.11328125,-127.9296875,-402.83203125
715.8203125,28.3203125,2.44140625,587.40234375
999.51171875,105.46875,51.26953125,735.3515625
-96.6796875,-20.5078125,-51.26953125,-248.046875
-1000.0,-189.453125,-183.59375,-1000.0
-628.90625,-160.15625,-154.78515625,-502.9296875
591.796875,6.8359375,-27.34375,521.484375
999.51171875,107.91015625,37.109375,822.265625
91.796875,13.18359375,-36.1328125,-59.08203125
-1000.0,-168.45703125,-168.9453125,-983.88671875
-737.79296875,-163.0859375,-162.59765625,-585.44921875
455.078125,-1.953125,-41.015625,429.19921875
999.51171875,112.3046875,42.48046875,852.5390625
235.3515625,35.15625,-17.08984375,115.72265625
-1000.0,-157.71484375,-157.2265625,-914.0625
-876.46484375,-188.96484375,-172.8515625,-708.0078125
283.69140625,-43.9453125,-67.87109375,293.45703125
999.51171875,92.7734375,28.80859375,847.16796875
389.6484375,47.36328125,-3.90625,244.140625
-881.8359375,-141.11328125,-143.5546875,-837.890625
-989.74609375,-194.82421875,-180.6640625,-793.45703125
148.92578125,-55.17578125,-80.078125,189.94140625
999.51171875,97.16796875,27.83203125,858.3984375
517.08984375,73.73046875,10.7421875,375.0
-731.93359375,-126.953125,-132.32421875,-744.140625
-1000.0,-206.0546875,-187.98828125,-875.9765625
2.44140625,-63.4765625,-79.58984375,71.77734375
999.51171875,86.9140625,40.0390625,848.6328125
628.41796875,78.125,35.15625,492.1875
-573.73046875,-100.09765625,-103.515625,-625.48828125
-1000.0,-209.9609375,-182.6171875,-935.546875
-177.24609375,-98.14453125,-96.19140625,-64.94140625
999.51171875,69.3359375,27.34375,796.38671875
737.3046875,97.65625,42.96875,592.7734375
-439.453125,-75.68359375,-91.796875,-503.90625
-1000.0,-209.9609375,-187.5,-977.05078125
-330.078125,-119.140625,-108.3984375,-185.546875
939.94140625,54.19921875,18.06640625,745.60546875
865.72265625,105.46875,48.828125,671.38671875
-292.96875,-50.78125,-71.2890625,-390.625
-1000.0,-208.0078125,-182.12890625,-1000.0
-470.21484375,-138.671875,-125.0,-324.70703125
805.6640625,40.52734375,3.41796875,649.4140625
976.5625,107.421875,53.7109375,743.65234375
-149.90234375,-27.83203125,-48.33984375,-251.953125
-1000.0,-195.80078125,-171.875,-1000.0
-584.9609375,-159.1796875,-137.6953125,-439.94140625
656.25,14.16015625,-10.7421875,546.38671875
999.51171875,110.3515625,58.59375,790.0390625
18.06640625,0.0,-34.1796875,-105.46875
-1000.0,-183.10546875,-173.828125,-972.16796875
-687.98828125,-168.9453125,-152.83203125,-534.1796875
514.16015625,-2.44140625,-23.4375,455.078125
999.51171875,109.375,61.5234375,829.1015625
203.125,27.34375,-8.7890625,75.68359375
-1000.0,-157.2265625,-157.71484375,-899.4140625
-800.78125,-168.45703125,-158.69140625,-616.69921875
388.671875,-13.671875,-32.71484375,373.53515625
999.51171875,113.76953125,53.22265625,864.74609375
372.0703125,66.40625,-2.9296875,253.41796875
-907.2265625,-122.55859375,-145.01953125,-792.96875
-925.29296875,-171.875,-168.9453125,-693.84765625
253.90625,-16.11328125,-51.7578125,279.78515625
999.51171875,122.55859375,51.26953125,884.27734375
493.1640625,86.9140625,21.484375,393.06640625
-764.16015625,-104.00390625,-124.51171875,-713.8671875
-1000.0,-186.5234375,-175.29296875,-795.41015625
74.70703125,-48.828125,-63.96484375,159.66796875
999.51171875,104.98046875,52.24609375,868.65234375
585.44921875,89.35546875,34.1796875,488.28125
-631.34765625,-103.02734375,-117.67578125,-634.27734375
-1000.0,-201.66015625,-188.4765625,-904.78515625
-115.234375,-73.73046875,-87.890625,-1.953125
999.51171875,93.26171875,41.50390625,833.984375
700.68359375,106.93359375,47.8515625,583.984375
-480.95703125,-65.4296875,-96.19140625,-535.15625
-1000.0,-188.96484375,-185.546875,-947.75390625
-275.87890625,-96.6796875,-94.7265625,-125.0
979.00390625,68.359375,33.69140625,769.04296875
818.359375,116.69921875,57.6171875,666.9921875
-345.703125,-45.8984375,-72.75390625,-415.0390625
-1000.0,-202.1484375,-186.5234375,-989.2578125
-417.48046875,-123.046875,-117.1875,-261.71875
860.3515625,57.12890625,20.99609375,703.125
943.359375,118.65234375,60.546875,743.1640625
-192.3828125,-22.4609375,-54.19921875,-283.203125
-1000.0,-180.17578125,-175.29296875,-985.3515625
-529.78515625,-136.23046875,-132.8125,-374.51171875
727.5390625,34.1796875,-0.9765625,614.2578125
999.51171875,115.72265625,59.08203125,803.22265625
-24.4140625,-4.39453125,-34.66796875,-142.578125
-1000.0,-178.7109375,-161.1328125,-972.65625
-657.71484375,-158.203125,-137.20703125,-494.62890625
558.59375,11.71875,-13.18359375,496.09375
999.51171875,119.140625,61.03515625,839.35546875
126.46484375,21.97265625,-7.8125,28.3203125
-1000.0,-170.8984375,-148.92578125,-929.6875
-781.25,-177.24609375,-152.83203125,-604.4921875
399.4140625,-9.765625,-31.25,383.7890625
999.51171875,109.86328125,55.17578125,839.84375
285.15625,35.15625,-3.90625,168.45703125
-973.14453125,-157.2265625,-150.390625,-868.65234375
-904.78515625,-197.75390625,-171.875,-728.02734375
256.8359375,-48.828125,-51.26953125,250.48828125
999.51171875,95.21484375,55.6640625,827.63671875
423.828125,55.6640625,20.5078125,294.921875
-843.26171875,-140.13671875,-127.9296875,-780.76171875
-1000.0,-205.078125,-177.734375,-829.1015625
116.2109375,-54.19921875,-69.3359375,128.41796875
999.51171875,102.5390625,51.26953125,822.265625
544.921875,77.1484375,30.76171875,401.3671875
-688.96484375,-123.53515625,-124.51171875,-688.4765625
-1000.0,-221.19140625,-196.2890625,-907.2265625
-54.19921875,-78.61328125,-92.28515625,-3.90625
999.51171875,97.16796875,32.2265625,809.08203125
648.4375,102.05078125,30.2734375,514.16015625
-546.38671875,-85.44921875,-107.91015625,-591.796875
-1000.0,-204.1015625,-192.3828125,-951.66015625
-223.14453125,-94.23828125,-105.46875,-101.5625
999.51171875,85.9375,27.83203125,789.0625
765.625,114.2578125,43.45703125,606.93359375
-408.69140625,-67.3828125,-93.26171875,-489.74609375
-1000.0,-205.078125,-188.96484375,-992.1875
-368.65234375,-117.67578125,-112.79296875,-242.1875
903.80859375,56.640625,24.4140625,718.75
896.97265625,117.67578125,62.01171875,707.03125
-255.37109375,-29.78515625,-66.89453125,-353.515625
-1000.0,-188.4765625,-187.01171875,-1000.0
-506.34765625,-130.37109375,-126.953125,-354.00390625
760.7421875,40.52734375,12.6953125,630.859375
999.51171875,119.140625,65.4296875,769.53125
-104.00390625,-10.25390625,-47.8515625,-206.0546875
-1000.0,-183.59375,-175.78125,-990.234375
-626.953125,-150.390625,-136.71875,-458.0078125
597.65625,18.06640625,-11.23046875,530.2734375
999.51171875,119.62890625,58.10546875,821.77734375
56.15234375,21.484375,-22.94921875,-32.71484375
-1000.0,-163.0859375,-165.52734375,-953.61328125
-727.05078125,-165.0390625,-156.73828125,-575.68359375
462.890625,-4.39453125,-30.2734375,419.921875
999.51171875,116.69921875,57.12890625,834.9609375
231.4453125,36.62109375,-3.90625,113.76953125
-1000.0,-160.64453125,-149.90234375,-899.4140625
-845.703125,-180.6640625,-161.62109375,-687.5
329.58984375,-19.53125,-37.109375,300.78125
999.51171875,109.86328125,56.640625,835.44921875
388.671875,62.98828125,12.6953125,252.9296875
-882.32421875,-130.859375,-137.6953125,-817.87109375
-975.09765625,-194.82421875,-176.7578125,-791.015625
174.8046875,-41.50390625,-59.08203125,183.59375
999.51171875,107.421875,52.24609375,838.37890625
509.27734375,71.77734375,21.97265625,368.1640625
-741.69921875,-125.0,-126.46484375,-727.5390625
-1000.0,-208.0078125,-182.6171875,-867.67578125
31.25,-67.87109375,-77.63671875,68.84765625
999.51171875,94.7265625,45.8984375,836.9140625
621.09375,87.40234375,36.1328125,488.28125
-580.078125,-98.6328125,-104.98046875,-627.9296875
-1000.0,-209.47265625,-178.7109375,-927.24609375
-160.15625,-93.75,-85.44921875,-45.8984375
999.51171875,79.58984375,37.109375,812.98828125
726.07421875,97.65625,39.0625,582.03125
-451.171875,-82.03125,-93.26171875,-528.3203125
-1000.0,-208.984375,-183.59375,-979.4921875
-317.3828125,-108.88671875,-102.05078125,-183.59375
949.70703125,58.59375,27.83203125,752.9296875
848.14453125,100.5859375,53.7109375,665.52734375
-316.89453125,-58.59375,-74.70703125,-407.71484375
-1000.0,-205.56640625,-188.4765625,-1000.0
-484.86328125,-130.37109375,-127.44140625,-351.5625
792.48046875,40.0390625,-0.9765625,619.62890625
952.1484375,104.00390625,43.45703125,683.10546875
-207.03125,-40.0390625,-62.98828125,-328.125
-1000.0,-208.49609375,-187.98828125,-1000.0
-616.2109375,-165.0390625,-145.01953125,-518.06640625
624.0234375,5.37109375,-9.27734375,481.93359375
999.51171875,97.65625,50.78125,718.26171875
-77.1484375,-16.6015625,-49.31640625,-206.54296875
-1000.0,-209.47265625,-189.453125,-1000.0
-747.55859375,-203.125,-168.9453125,-640.13671875
426.7578125,-34.66796875,-39.0625,330.56640625
999.51171875,77.1484375,41.9921875,708.0078125
83.0078125,-13.18359375,-27.34375,-82.03125
-1000.0,-199.21875,-169.43359375,-995.1171875
-833.49609375,-210.44921875,-177.734375,-714.84375
310.546875,-55.6640625,-50.29296875,251.46484375
999.51171875,79.1015625,51.26953125,765.625
290.52734375,30.2734375,-5.37109375,132.8125
-963.37890625,-161.62109375,-160.15625,-887.6953125
-940.4296875,-204.58984375,-184.5703125,-782.71484375
199.70703125,-51.7578125,-58.10546875,199.70703125
999.51171875,95.703125,47.8515625,817.3828125
458.0078125,61.5234375,10.25390625,297.36328125
-804.19921875,-136.71875,-137.6953125,-773.4375
-1000.0,-210.44921875,-185.05859375,-850.09765625
67.3828125,-61.03515625,-71.2890625,98.14453125
999.51171875,92.28515625,42.48046875,825.68359375
572.265625,69.3359375,24.90234375,432.12890625
-654.78515625,-122.55859375,-119.62890625,-669.921875
-1000.0,-221.6796875,-193.84765625,-915.0390625
-84.47265625,-87.40234375,-90.8203125,-13.671875
999.51171875,83.49609375,42.96875,814.94140625
678.7109375,90.8203125,45.41015625,541.50390625
-505.37109375,-92.7734375,-95.703125,-567.87109375
-1000.0,-213.8671875,-179.19921875,-965.33203125
-270.99609375,-108.3984375,-96.19140625,-141.6015625
983.88671875,62.5,29.78515625,770.99609375
797.8515625,91.796875,46.38671875,623.53515625
-373.53515625,-72.75390625,-79.1015625,-464.84375
-1000.0,-208.0078125,-176.7578125,-1000.0
-413.0859375,-125.9765625,-117.1875,-281.73828125
863.76953125,45.41015625,14.16015625,690.4296875
924.31640625,112.3046875,63.4765625,716.30859375
-219.23828125,-32.2265625,-55.6640625,-323.73046875
-1000.0,-200.1953125,-182.6171875,-1000.0
-511.71875,-139.16015625,-128.41796875,-377.9296875
757.32421875,32.71484375,12.20703125,631.34765625
999.51171875,108.88671875,65.91796875,788.57421875
-62.5,-10.25390625,-30.2734375,-163.57421875
-1000.0,-191.40625,-165.52734375,-992.1875
-641.6015625,-167.96875,-145.01953125,-502.9296875
575.68359375,6.8359375,-11.23046875,495.1171875
999.51171875,120.60546875,70.3125,824.21875
114.2578125,26.85546875,-6.8359375,3.41796875
-1000.0,-168.45703125,-153.80859375,-951.66015625
-769.53125,-176.26953125,-153.3203125,-618.65234375
409.66796875,-11.23046875,-24.4140625,384.765625
999.51171875,120.1171875,72.265625,843.75
269.04296875,52.734375,14.16015625,160.64453125
-986.328125,-151.3671875,-142.08984375,-875.48828125
-889.6484375,-186.5234375,-164.0625,-708.984375
272.4609375,-28.80859375,-43.9453125,277.34375
999.51171875,110.3515625,60.546875,846.6796875
407.71484375,62.5,20.01953125,291.50390625
-858.3984375,-140.13671875,-134.27734375,-792.48046875
-1000.0,-204.1015625,-175.29296875,-809.5703125
120.1171875,-53.7109375,-58.59375,152.83203125
999.51171875,101.07421875,56.15234375,838.37890625
532.71484375,75.68359375,32.71484375,408.203125
-707.51953125,-115.234375,-113.76953125,-694.82421875
-1000.0,-206.54296875,-176.26953125,-890.13671875
-45.41015625,-76.66015625,-71.77734375,36.1328125
999.51171875,81.0546875,53.22265625,835.44921875
640.625,76.171875,45.41015625,516.11328125
-560.05859375,-104.00390625,-97.16796875,-599.12109375
-1000.0,-215.8203125,-176.26953125,-948.73046875
-205.56640625,-104.98046875,-86.9140625,-87.40234375
999.51171875,71.2890625,45.8984375,800.78125
763.671875,105.95703125,66.40625,613.76953125
-406.25,-62.5,-73.2421875,-486.328125
-1000.0,-201.171875,-180.17578125,-989.74609375
-349.12109375,-109.86328125,-101.5625,-222.65625
918.9453125,68.359375,31.25,742.1875
894.04296875,111.81640625,66.40625,714.84375
-250.9765625,-41.9921875,-49.31640625,-352.5390625
-1000.0,-201.66015625,-166.9921875,-998.046875
-482.421875,-144.04296875,-115.234375,-329.58984375
782.71484375,34.1796875,14.16015625,665.0390625
999.51171875,116.69921875,67.3828125,797.36328125
-88.8671875,-15.625,-32.71484375,-197.75390625
-1000.0,-190.4296875,-160.64453125,-981.93359375
-593.75,-152.34375,-127.44140625,-420.8984375
644.04296875,22.94921875,6.8359375,587.890625
999.51171875,122.0703125,80.078125,856.4453125
68.359375,8.7890625,-11.71875,-28.80859375
-1000.0,-182.12890625,-152.34375,-932.12890625
-708.0078125,-176.26953125,-142.578125,-524.4140625
492.67578125,-8.30078125,-17.578125,471.6796875
999.51171875,108.3984375,71.77734375,875.48828125
241.69921875,26.3671875,2.9296875,131.34765625
-1000.0,-170.41015625,-145.99609375,-872.55859375
-827.1484375,-192.87109375,-149.90234375,-632.32421875
357.91015625,-26.85546875,-22.94921875,356.4453125
999.51171875,118.65234375,75.68359375,880.37109375
385.7421875,61.5234375,24.4140625,278.3203125
-886.23046875,-146.484375,-129.39453125,-800.78125
-956.0546875,-198.2421875,-158.203125,-745.1171875
204.1015625,-47.8515625,-37.109375,244.62890625
999.51171875,96.6796875,66.89453125,878.90625
503.90625,67.87109375,36.1328125,392.08984375
-745.60546875,-127.9296875,-111.328125,-719.7265625
-1000.0,-210.44921875,-166.9921875,-841.30859375
38.57421875,-64.94140625,-56.15234375,118.1640625
999.51171875,94.7265625,60.546875,873.046875
616.69921875,89.35546875,44.921875,519.04296875
-588.8671875,-96.19140625,-104.00390625,-614.74609375
-1000.0,-207.03125,-177.24609375,-918.45703125
-134.765625,-85.9375,-80.56640625,-22.4609375
999.51171875,88.37890625,45.41015625,835.44921875
724.12109375,103.515625,57.12890625,596.6796875
-448.73046875,-78.125,-80.56640625,-529.296875
-1000.0,-206.0546875,-178.22265625,-972.16796875
-295.8984375,-112.79296875,-94.23828125,-166.50390625
959.9609375,60.546875,42.96875,778.3203125
841.30859375,110.3515625,71.2890625,690.91796875
-316.89453125,-53.22265625,-61.03515625,-412.109375
-1000.0,-206.0546875,-177.24609375,-1000.0
-444.82421875,-132.8125,-117.67578125,-294.43359375
829.58984375,44.43359375,18.06640625,689.453125
953.125,115.234375,70.3125,751.953125
-183.10546875,-29.78515625,-47.8515625,-280.76171875
-1000.0,-197.75390625,-175.29296875,-1000.0
-566.40625,-148.4375,-129.8828125,-404.296875
678.22265625,21.97265625,4.39453125,596.6796875
999.51171875,109.86328125,72.265625,815.91796875
-12.6953125,-7.32421875,-20.5078125,-112.3046875
-1000.0,-188.96484375,-160.15625,-972.65625
-676.26953125,-159.66796875,-138.18359375,-502.9296875
527.34375,14.16015625,-5.859375,500.9765625
999.51171875,120.60546875,75.1953125,846.6796875
161.1328125,23.92578125,-3.41796875,49.31640625
-1000.0,-173.33984375,-149.4140625,-922.8515625
-792.48046875,-182.12890625,-143.5546875,-626.953125
386.23046875,-13.671875,-27.34375,371.58203125
999.51171875,115.234375,61.03515625,861.328125
301.7578125,40.0390625,11.71875,185.546875
-958.0078125,-163.57421875,-141.6015625,-880.37109375
-936.5234375,-208.0078125,-164.0625,-772.4609375
225.5859375,-53.22265625,-34.66796875,220.21484375
999.51171875,88.37890625,66.40625,777.34375
362.79296875,48.828125,21.97265625,221.19140625
-827.63671875,-150.87890625,-125.0,-790.52734375
-1000.0,-231.4453125,-174.8046875,-866.69921875
46.38671875,-80.56640625,-62.01171875,64.94140625
999.51171875,77.1484375,53.7109375,778.80859375
542.48046875,55.6640625,36.1328125,358.88671875
-690.91796875,-135.7421875,-106.93359375,-704.58984375
-1000.0,-237.3046875,-178.7109375,-932.12890625
-112.79296875,-109.375,-80.56640625,-46.875
999.51171875,63.4765625,47.36328125,799.8046875
673.33984375,72.265625,49.31640625,508.7890625
-520.99609375,-111.328125,-95.703125,-596.19140625
-1000.0,-228.02734375,-179.6875,-965.33203125
-257.8125,-117.1875,-85.44921875,-131.34765625
986.81640625,52.734375,49.8046875,780.76171875
783.69140625,84.9609375,73.2421875,625.9765625
-392.08984375,-84.47265625,-65.91796875,-470.703125
-1000.0,-229.00390625,-177.24609375,-1000.0
-417.48046875,-133.7890625,-101.07421875,-254.8828125
861.81640625,48.828125,43.9453125,724.609375
908.69140625,104.4921875,83.984375,729.4921875
-250.9765625,-48.33984375,-41.9921875,-331.0546875
-1000.0,-213.8671875,-170.8984375,-1000.0
-541.50390625,-160.15625,-120.60546875,-391.11328125
713.8671875,19.04296875,18.06640625,610.3515625
999.51171875,111.328125,76.171875,778.3203125
-77.1484375,-14.16015625,-31.25,-192.87109375
-1000.0,-191.89453125,-167.96875,-1000.0
-641.6015625,-166.015625,-134.27734375,-495.60546875
575.1953125,7.32421875,-0.9765625,523.92578125
999.51171875,112.3046875,72.265625,835.44921875
94.7265625,7.8125,-6.8359375,-25.87890625
-1000.0,-179.6875,-148.4375,-968.26171875
-755.37109375,-182.6171875,-148.92578125,-607.421875
427.734375,-15.13671875,-24.4140625,416.015625
999.51171875,116.69921875,70.3125,854.00390625
256.34765625,38.57421875,8.30078125,121.58203125
-993.65234375,-164.0625,-143.5546875,-910.15625
-876.46484375,-193.359375,-157.2265625,-719.23828125
288.57421875,-27.34375,-31.25,282.71484375
999.51171875,110.83984375,62.98828125,848.6328125
407.71484375,55.6640625,16.11328125,274.90234375
-851.5625,-142.578125,-125.48828125,-803.22265625
-1000.0,-211.9140625,-158.69140625,-822.75390625
104.4921875,-71.2890625,-41.015625,137.20703125
999.51171875,83.49609375,74.70703125,848.14453125
516.6015625,58.10546875,55.17578125,396.484375
-727.5390625,-142.578125,-91.30859375,-719.7265625
-1000.0,-234.86328125,-157.2265625,-891.6015625
-52.24609375,-102.05078125,-56.15234375,43.45703125
999.51171875,59.08203125,74.21875,851.5625
625.0,58.59375,73.73046875,512.6953125
-582.51953125,-129.8828125,-79.58984375,-613.28125
-1000.0,-247.55859375,-160.15625,-948.73046875
-206.0546875,-130.37109375,-58.59375,-70.3125
999.51171875,46.38671875,75.1953125,835.44921875
744.62890625,73.73046875,81.54296875,629.39453125
-433.59375,-103.515625,-61.5234375,-499.51171875
-1000.0,-234.375,-163.0859375,-979.98046875
-354.98046875,-131.8359375,-81.54296875,-185.546875
917.96875,39.55078125,56.640625,766.6015625
870.60546875,86.42578125,83.49609375,716.30859375
-292.48046875,-69.3359375,-48.33984375,-366.69921875
-1000.0,-231.4453125,-166.9921875,-1000.0
-483.3984375,-166.015625,-106.93359375,-309.5703125
784.1796875,21.484375,34.1796875,684.08203125
982.421875,104.4921875,88.8671875,799.8046875
-137.6953125,-34.66796875,-30.76171875,-212.40234375
-1000.0,-206.54296875,-168.9453125,-995.1171875
-595.703125,-165.0390625,-122.55859375,-436.5234375
639.6484375,7.8125,16.11328125,573.73046875
999.51171875,105.95703125,84.9609375,841.30859375
24.4140625,-10.25390625,-9.27734375,-65.4296875
-1000.0,-198.73046875,-153.3203125,-980.46875
-707.03125,-177.24609375,-130.37109375,-552.24609375
487.3046875,-1.953125,-2.44140625,478.02734375
999.51171875,117.1875,78.61328125,872.55859375
201.66015625,34.66796875,10.25390625,91.796875
-1000.0,-164.0625,-143.06640625,-929.19921875
-832.51953125,-191.40625,-151.85546875,-669.921875
340.8203125,-30.2734375,-19.04296875,394.53125
999.51171875,107.421875,80.56640625,947.75390625
356.93359375,53.22265625,26.85546875,252.44140625
-909.1796875,-142.578125,-130.859375,-858.88671875
-952.63671875,-191.89453125,-166.9921875,-776.85546875
198.2421875,-46.875,-47.8515625,237.79296875
999.51171875,101.07421875,58.59375,913.57421875
481.93359375,72.75390625,24.90234375,371.09375
-772.4609375,-122.0703125,-123.53515625,-764.6484375
-1000.0,-197.265625,-166.9921875,-860.3515625
46.38671875,-51.7578125,-46.875,111.81640625
999.51171875,103.515625,70.3125,917.48046875
595.21484375,85.9375,47.8515625,461.42578125
-620.1171875,-107.421875,-105.46875,-717.28515625
-1000.0,-213.37890625,-182.6171875,-933.10546875
-124.0234375,-85.44921875,-80.078125,36.62109375
999.51171875,85.44921875,54.19921875,955.078125
708.0078125,97.16796875,58.59375,599.12109375
-471.6796875,-83.0078125,-88.8671875,-606.4453125
-1000.0,-211.42578125,-176.26953125,-982.421875
-288.57421875,-108.88671875,-81.54296875,-89.35546875
967.7734375,69.3359375,48.33984375,894.04296875
819.3359375,111.81640625,69.82421875,704.58984375
-349.609375,-63.96484375,-68.359375,-479.00390625
-1000.0,-215.8203125,-181.640625,-1000.0
-437.01171875,-126.953125,-110.3515625,-186.5234375
838.8671875,51.26953125,24.4140625,877.44140625
943.84765625,111.328125,69.3359375,791.9921875
-197.75390625,-33.69140625,-44.921875,-369.140625
-1000.0,-199.21875,-175.29296875,-1000.0
-555.6640625,-147.94921875,-131.34765625,-336.9140625
700.68359375,28.3203125,6.34765625,778.80859375
999.51171875,119.140625,69.82421875,881.34765625
-52.734375,-5.859375,-28.80859375,-224.609375
-1000.0,-191.89453125,-167.96875,-1000.0
-662.59765625,-171.875,-144.04296875,-486.328125
540.52734375,-5.37109375,-13.671875,615.234375
999.51171875,104.98046875,67.87109375,960.9375
149.90234375,10.7421875,-7.8125,-20.01953125
-1000.0,-181.640625,-153.80859375,-1000.0
-779.78515625,-190.91796875,-147.94921875,-584.9609375
402.34375,-24.90234375,-17.578125,538.57421875
999.51171875,110.3515625,78.125,997.55859375
303.22265625,41.50390625,14.6484375,151.3671875
-959.47265625,-158.203125,-142.578125,-958.0078125
-904.78515625,-192.87109375,-165.0390625,-720.703125
261.71875,-27.34375,-40.0390625,380.859375
999.51171875,116.2109375,68.84765625,978.515625
440.91796875,64.94140625,31.73828125,321.77734375
-818.84765625,-137.20703125,-122.0703125,-804.19921875
-1000.0,-208.49609375,-172.36328125,-836.9140625
98.14453125,-58.10546875,-53.7109375,155.2734375
999.51171875,98.6328125,67.87109375,900.390625
560.05859375,73.73046875,40.52734375,419.921875
-670.41015625,-118.1640625,-117.1875,-723.6328125
-1000.0,-211.9140625,-185.05859375,-907.71484375
-51.26953125,-77.1484375,-75.68359375,84.9609375
999.51171875,88.8671875,55.6640625,949.21875
668.9453125,92.28515625,55.17578125,559.5703125
-519.04296875,-94.7265625,-94.7265625,-608.88671875
-1000.0,-224.12109375,-182.6171875,-977.5390625
-219.23828125,-113.28125,-93.26171875,-39.55078125
999.51171875,67.3828125,38.57421875,949.70703125
779.296875,103.02734375,63.96484375,665.0390625
-387.20703125,-73.2421875,-72.265625,-524.4140625
-1000.0,-221.19140625,-178.22265625,-1000.0
-378.90625,-128.41796875,-99.609375,-139.16015625
895.01953125,58.10546875,37.59765625,924.8046875
900.87890625,109.375,76.66015625,733.88671875
-250.48828125,-58.10546875,-49.31640625,-435.05859375
-1000.0,-222.16796875,-174.31640625,-1000.0
-509.27734375,-153.80859375,-117.67578125,-297.8515625
750.48828125,28.3203125,20.99609375,708.0078125
999.51171875,115.234375,74.21875,782.71484375
-88.37890625,-14.16015625,-30.2734375,-228.02734375
-1000.0,-191.40625,-163.57421875,-1000.0
-612.3046875,-153.80859375,-131.34765625,-449.21875
614.74609375,21.97265625,2.9296875,614.2578125
999.51171875,120.60546875,74.70703125,859.375
85.44921875,15.625,-8.7890625,-130.37109375
-1000.0,-172.8515625,-159.66796875,-1000.0
-738.76953125,-172.36328125,-158.69140625,-596.6796875
449.70703125,-3.41796875,-23.92578125,504.8828125
999.51171875,113.28125,67.87109375,994.62890625
234.375,26.85546875,0.9765625,15.13671875
-1000.0,-169.921875,-148.92578125,-1000.0
-853.02734375,-184.5703125,-157.71484375,-652.83203125
313.96484375,-22.94921875,-28.3203125,399.4140625
999.51171875,107.91015625,74.70703125,919.921875
394.53125,57.6171875,32.2265625,267.578125
-874.0234375,-142.578125,-126.46484375,-856.93359375
-981.4453125,-202.63671875,-172.36328125,-774.90234375
159.1796875,-54.19921875,-58.59375,335.9375
999.51171875,99.609375,53.7109375,977.05078125
513.671875,78.125,31.25,416.9921875
-728.02734375,-117.1875,-115.72265625,-729.98046875
-1000.0,-212.890625,-176.26953125,-874.0234375
-5.859375,-84.9609375,-70.3125,269.04296875
999.51171875,77.63671875,52.734375,999.51171875
626.953125,80.078125,49.31640625,492.1875
-576.66015625,-104.4921875,-96.6796875,-719.23828125
-1000.0,-217.28515625,-179.6875,-958.984375
-171.875,-95.703125,-81.54296875,62.98828125
999.51171875,79.58984375,53.22265625,964.84375
737.79296875,97.65625,66.40625,576.171875
-436.5234375,-82.51953125,-79.1015625,-556.15234375
-1000.0,-214.84375,-179.6875,-1000.0
-346.19140625,-121.58203125,-95.703125,-216.796875
920.8984375,49.8046875,35.64453125,745.60546875
854.98046875,101.07421875,66.89453125,661.62109375
-308.10546875,-59.5703125,-59.5703125,-420.41015625
-1000.0,-211.9140625,-171.38671875,-1000.0
-472.65625,-139.6484375,-112.3046875,-361.81640625
798.33984375,39.55078125,22.94921875,626.46484375
973.14453125,114.2578125,70.80078125,717.7734375
-150.87890625,-25.87890625,-41.015625,-323.2421875
-1000.0,-197.265625,-168.9453125,-1000.0
-575.1953125,-147.4609375,-133.7890625,-361.328125
669.43359375,35.64453125,4.39453125,824.21875
999.51171875,120.1171875,72.265625,882.8125
16.6015625,-2.9296875,-23.4375,-276.85546875
-1000.0,-183.59375,-162.109375,-1000.0
-690.91796875,-169.43359375,-141.6015625,-559.5703125
509.765625,0.0,-8.30078125,507.8125
999.51171875,116.2109375,77.63671875,999.51171875
186.5234375,32.2265625,4.39453125,99.12109375
-1000.0,-165.52734375,-152.34375,-1000.0
-774.90234375,-177.24609375,-153.3203125,-628.90625
419.43359375,-11.23046875,-23.92578125,483.3984375
999.51171875,113.28125,67.87109375,984.86328125
348.14453125,52.734375,22.4609375,156.73828125
-919.921875,-147.4609375,-132.32421875,-979.4921875
-933.10546875,-196.2890625,-165.52734375,-738.76953125
229.00390625,-42.96875,-44.43359375,402.83203125
999.51171875,104.98046875,63.96484375,999.51171875
480.46875,72.265625,33.69140625,322.265625
-776.3671875,-128.41796875,-121.09375,-855.95703125
-1000.0,-202.63671875,-175.78125,-850.5859375
67.87109375,-55.17578125,-56.15234375,243.65234375
999.51171875,98.6328125,64.94140625,999.51171875
585.9375,80.078125,51.26953125,465.33203125
-632.32421875,-115.72265625,-100.09765625,-721.19140625
-1000.0,-218.75,-176.26953125,-938.4765625
-110.3515625,-97.16796875,-71.77734375,-30.2734375
999.51171875,72.75390625,59.5703125,881.8359375
682.12890625,89.35546875,58.59375,563.96484375
-505.37109375,-98.14453125,-89.84375,-605.46875
-1000.0,-223.6328125,-182.12890625,-987.3046875
-299.31640625,-122.0703125,-92.7734375,-160.15625
958.49609375,53.7109375,41.9921875,809.08203125
806.640625,97.65625,64.94140625,644.04296875
-366.2109375,-68.359375,-72.265625,-493.65234375
-1000.0,-215.33203125,-188.96484375,-1000.0
-428.7109375,-129.39453125,-114.74609375,-278.80859375
848.14453125,58.10546875,28.80859375,784.1796875
931.640625,121.09375,71.2890625,760.7421875
-209.9609375,-30.2734375,-48.33984375,-363.76953125
-1000.0,-201.171875,-172.8515625,-1000.0
-541.9921875,-144.04296875,-122.0703125,-407.2265625
710.44921875,36.62109375,16.11328125,650.390625
999.51171875,122.0703125,77.63671875,832.51953125
-35.15625,-2.44140625,-24.90234375,-207.51953125
-1000.0,-183.10546875,-162.59765625,-1000.0
-657.71484375,-160.15625,-140.13671875,-512.20703125
554.19921875,6.8359375,-9.27734375,546.38671875
999.51171875,115.72265625,77.63671875,883.30078125
119.140625,22.4609375,-4.8828125,-26.3671875
-1000.0,-172.36328125,-156.73828125,-1000.0
-769.53125,-185.05859375,-151.85546875,-620.1171875
410.64453125,-14.6484375,-24.4140625,437.01171875
999.51171875,115.72265625,71.77734375,906.73828125
279.296875,42.48046875,12.6953125,150.87890625
-972.16796875,-153.3203125,-141.6015625,-915.0390625
-895.99609375,-192.3828125,-158.69140625,-727.5390625
264.6484375,-33.203125,-34.1796875,298.33984375
999.51171875,108.3984375,72.75390625,892.578125
412.59765625,59.08203125,37.109375,289.55078125
-848.6328125,-140.13671875,-111.328125,-820.80078125
-1000.0,-207.03125,-151.85546875,-810.546875
96.19140625,-58.59375,-41.9921875,181.15234375
999.51171875,90.8203125,62.01171875,888.18359375
540.0390625,67.87109375,38.57421875,416.50390625
-697.75390625,-121.09375,-110.83984375,-717.7734375
-1000.0,-215.8203125,-176.7578125,-891.6015625
-50.29296875,-79.58984375,-72.265625,66.40625
999.51171875,88.8671875,56.15234375,909.1796875
653.80859375,93.75,57.6171875,547.8515625
-539.0625,-90.8203125,-92.28515625,-618.1640625
-1000.0,-212.890625,-178.22265625,-964.84375
-228.515625,-100.09765625,-83.0078125,-68.359375
999.51171875,76.171875,48.33984375,894.53125
765.625,105.46875,62.01171875,649.90234375
-411.62109375,-72.265625,-77.63671875,-532.2265625
-1000.0,-214.84375,-182.6171875,-1000.0
-377.9296875,-122.55859375,-102.05078125,-206.54296875
894.53125,55.6640625,42.96875,823.73046875
888.18359375,111.81640625,76.66015625,743.1640625
-270.99609375,-47.8515625,-54.6875,-408.203125
-1000.0,-204.58984375,-174.31640625,-1000.0
-505.37109375,-136.71875,-114.74609375,-337.890625
759.27734375,37.59765625,23.92578125,731.4453125
991.2109375,113.76953125,71.2890625,821.2890625
-121.58203125,-14.16015625,-41.50390625,-265.13671875
-1000.0,-192.3828125,-177.734375,-1000.0
-617.67578125,-162.109375,-141.11328125,-468.26171875
611.81640625,20.99609375,0.9765625,604.00390625
999.51171875,117.67578125,70.3125,874.51171875
43.45703125,3.90625,-15.13671875,-103.515625
-1000.0,-183.10546875,-157.71484375,-1000.0
-733.88671875,-181.640625,-150.390625,-571.77734375
452.1484375,-16.11328125,-18.06640625,500.48828125
999.51171875,104.00390625,73.2421875,933.59375
218.75,23.4375,13.671875,90.33203125
-1000.0,-172.8515625,-138.18359375,-970.21484375
-836.9140625,-198.2421875,-155.2734375,-656.73828125
335.44921875,-30.76171875,-26.3671875,430.17578125
999.51171875,109.86328125,73.73046875,969.23828125
370.60546875,60.05859375,24.4140625,268.06640625
-893.5546875,-138.18359375,-131.34765625,-859.86328125
-961.42578125,-197.265625,-175.78125,-770.99609375
185.546875,-42.48046875,-66.40625,241.69921875
999.51171875,112.79296875,48.33984375,896.97265625
516.6015625,84.9609375,22.94921875,382.32421875
-731.4453125,-119.62890625,-130.37109375,-744.140625
-1000.0,-213.37890625,-180.6640625,-865.72265625
47.8515625,-73.2421875,-64.94140625,93.75
999.51171875,93.26171875,55.6640625,876.46484375
626.953125,86.42578125,48.33984375,500.48828125
-573.73046875,-102.05078125,-96.19140625,-636.23046875
-1000.0,-208.984375,-177.24609375,-936.5234375
-116.69921875,-85.44921875,-74.21875,-17.08984375
999.51171875,89.84375,56.15234375,895.99609375
731.93359375,106.4453125,58.59375,611.81640625
-435.546875,-73.73046875,-82.03125,-560.05859375
-1000.0,-199.70703125,-180.17578125,-986.328125
-284.66796875,-103.02734375,-94.7265625,-152.83203125
959.47265625,72.265625,45.41015625,834.9609375
848.6328125,121.09375,69.82421875,713.8671875
-301.7578125,-41.015625,-63.4765625,-433.59375
-1000.0,-191.89453125,-173.828125,-1000.0
-450.1953125,-121.09375,-109.86328125,-276.3671875
816.40625,48.828125,21.97265625,744.140625
961.9140625,115.234375,68.359375,782.2265625
-158.69140625,-20.99609375,-45.41015625,-297.8515625
-1000.0,-187.01171875,-172.8515625,-1000.0
-564.94140625,-140.625,-126.46484375,-416.9921875
680.6640625,37.109375,11.71875,616.2109375
999.51171875,128.90625,74.70703125,825.1953125
1.46484375,9.27734375,-21.484375,-152.83203125
-1000.0,-173.828125,-159.66796875,-1000.0
-681.640625,-154.296875,-142.08984375,-538.57421875
520.99609375,12.20703125,-15.13671875,506.34765625
999.51171875,120.1171875,64.94140625,866.2109375
163.0859375,27.83203125,-5.859375,25.87890625
-1000.0,-170.41015625,-155.76171875,-960.9375
-800.29296875,-186.5234375,-157.2265625,-642.578125
373.53515625,-22.94921875,-23.92578125,392.08984375
999.51171875,110.3515625,76.171875,894.04296875
316.40625,44.921875,20.01953125,173.828125
-939.453125,-155.76171875,-138.671875,-907.71484375
-926.7578125,-198.2421875,-167.48046875,-744.62890625
222.16796875,-44.921875,-49.31640625,307.12890625
999.51171875,102.05078125,59.5703125,981.4453125
445.80078125,66.40625,28.3203125,323.2421875
-813.96484375,-129.8828125,-124.0234375,-862.79296875
-1000.0,-202.1484375,-175.78125,-843.75
80.56640625,-59.08203125,-59.08203125,119.62890625
999.51171875,100.5859375,63.96484375,855.46875
574.21875,84.47265625,44.43359375,417.48046875
-650.390625,-113.28125,-108.88671875,-711.9140625
-1000.0,-206.0546875,-177.734375,-916.50390625
-71.2890625,-76.66015625,-75.1953125,-1.953125
999.51171875,87.890625,48.33984375,845.21484375
684.08203125,102.5390625,52.734375,534.1796875
-498.046875,-79.58984375,-87.890625,-599.609375
-1000.0,-200.68359375,-174.8046875,-966.30859375
-236.328125,-101.07421875,-81.0546875,-92.7734375
993.65234375,66.40625,49.8046875,869.140625
799.31640625,112.3046875,71.77734375,703.61328125
-363.76953125,-50.29296875,-61.5234375,-458.984375
-1000.0,-196.2890625,-174.31640625,-997.55859375
-354.00390625,-107.91015625,-101.5625,-180.17578125
899.4140625,72.75390625,36.62109375,824.70703125
927.24609375,134.765625,73.2421875,795.8984375
-191.89453125,-12.6953125,-52.24609375,-327.63671875
-1000.0,-178.22265625,-171.38671875,-1000.0
-483.3984375,-124.51171875,-112.79296875,-289.55078125
772.4609375,54.6875,19.53125,760.25390625
999.51171875,132.8125,72.75390625,856.93359375
-40.52734375,5.859375,-31.73828125,-221.19140625
-1000.0,-172.36328125,-170.41015625,-1000.0
-617.1875,-150.390625,-137.6953125,-325.68359375
610.83984375,21.484375,-0.48828125,806.640625
999.51171875,122.55859375,74.70703125,935.05859375
113.28125,16.11328125,-12.20703125,-78.61328125
-1000.0,-171.875,-161.1328125,-1000.0
-735.83984375,-169.921875,-152.83203125,-578.125
457.51953125,-1.46484375,-22.94921875,459.9609375
999.51171875,119.62890625,68.84765625,999.51171875
290.0390625,39.55078125,10.25390625,34.1796875
-973.6328125,-148.92578125,-142.578125,-1000.0
-854.4921875,-178.7109375,-160.15625,-612.3046875
330.078125,-21.97265625,-33.203125,457.51953125
999.51171875,124.0234375,69.3359375,999.51171875
431.640625,74.21875,24.90234375,416.015625
-840.8203125,-126.953125,-128.41796875,-877.9296875
-974.609375,-190.91796875,-167.96875,-695.3125
185.05859375,-48.33984375,-48.33984375,539.0625
999.51171875,100.5859375,73.2421875,999.51171875
527.34375,78.61328125,50.78125,215.8203125
-712.40234375,-115.72265625,-107.91015625,-1000.0
-1000.0,-208.0078125,-176.26953125,-868.1640625
-6.8359375,-73.2421875,-71.77734375,222.65625
999.51171875,87.890625,57.6171875,999.51171875
625.9765625,83.0078125,58.10546875,285.15625
-578.61328125,-101.5625,-93.26171875,-1000.0
-1000.0,-208.49609375,-177.734375,-909.66796875
-173.33984375,-94.7265625,-83.0078125,-76.171875
999.51171875,79.58984375,52.734375,854.00390625
747.55859375,104.00390625,68.359375,579.58984375
-422.8515625,-79.58984375,-74.21875,-650.87890625
-1000.0,-215.8203125,-171.38671875,-999.0234375
-335.9375,-117.67578125,-91.30859375,-208.984375
929.6875,59.5703125,41.015625,799.8046875
860.3515625,108.88671875,72.75390625,755.859375
-300.78125,-48.33984375,-58.10546875,-397.94921875
-1000.0,-201.171875,-178.22265625,-1000.0
-478.515625,-124.51171875,-114.74609375,-279.296875
788.57421875,55.6640625,24.4140625,796.875
983.3984375,120.1171875,76.171875,808.10546875
-133.30078125,-24.4140625,-30.76171875,-279.296875
-1000.0,-199.21875,-164.0625,-1000.0
-575.1953125,-156.73828125,-131.34765625,-142.578125
665.0390625,18.5546875,10.25390625,999.51171875
999.51171875,113.76953125,84.9609375,887.20703125
27.34375,4.8828125,-10.7421875,-230.46875
-1000.0,-178.7109375,-155.2734375,-1000.0
-679.6875,-167.96875,-141.11328125,-291.9921875
525.390625,-3.41796875,-12.6953125,939.453125
999.51171875,111.328125,71.77734375,947.75390625
176.26953125,22.4609375,-4.39453125,-134.27734375
-1000.0,-176.26953125,-157.2265625,-1000.0
-821.2890625,-193.359375,-159.1796875,-720.21484375
350.5859375,-32.2265625,-26.3671875,235.3515625
999.51171875,104.00390625,68.359375,839.35546875
329.1015625,48.828125,9.765625,79.1015625
-932.12890625,-144.53125,-138.671875,-999.0234375
-945.3125,-196.2890625,-166.9921875,-768.5546875
198.2421875,-46.38671875,-49.31640625,365.72265625
999.51171875,101.5625,62.5,999.51171875
462.40234375,63.96484375,33.203125,290.52734375
-789.55078125,-126.46484375,-121.58203125,-844.7265625
-1000.0,-206.0546875,-180.17578125,-889.16015625
15.625,-75.68359375,-66.40625,76.66015625
999.51171875,87.40234375,56.640625,932.6171875
583.49609375,83.984375,45.8984375,421.38671875
-638.671875,-106.4453125,-98.6328125,-765.625
-1000.0,-212.890625,-174.31640625,-945.3125
-134.765625,-84.47265625,-77.63671875,-46.38671875
999.51171875,89.35546875,50.29296875,855.95703125
706.0546875,96.6796875,58.59375,539.55078125
-474.609375,-90.8203125,-79.1015625,-606.93359375
-1000.0,-217.28515625,-173.33984375,-998.046875
-300.29296875,-114.74609375,-88.37890625,-191.40625
957.03125,61.03515625,46.38671875,782.2265625
824.21875,95.703125,66.89453125,639.16015625
-341.796875,-71.77734375,-56.15234375,-476.5625
-1000.0,-212.890625,-164.55078125,-1000.0
-431.640625,-135.25390625,-105.95703125,-313.4765625
840.33203125,36.62109375,33.203125,696.77734375
937.01171875,106.93359375,82.03125,731.93359375
-202.63671875,-32.71484375,-35.15625,-315.91796875
-1000.0,-202.63671875,-162.109375,-1000.0
-554.19921875,-155.76171875,-113.76953125,-439.94140625
693.359375,22.94921875,21.97265625,562.98828125
999.51171875,117.1875,82.03125,782.71484375
-35.64453125,-5.37109375,-15.13671875,-155.2734375
-1000.0,-185.546875,-150.87890625,-1000.0
-658.203125,-163.0859375,-125.0,-528.80859375
553.7109375,9.27734375,12.20703125,530.2734375
999.51171875,117.67578125,83.984375,847.16796875
134.765625,21.97265625,1.46484375,-5.37109375
-1000.0,-166.9921875,-142.08984375,-965.8203125
-780.76171875,-182.12890625,-142.578125,-663.0859375
396.97265625,-25.390625,-17.08984375,335.44921875
999.51171875,104.00390625,75.1953125,826.66015625
303.22265625,41.015625,19.04296875,162.109375
-957.51953125,-149.4140625,-128.90625,-880.859375
-896.97265625,-182.6171875,-149.90234375,-759.765625
268.5546875,-33.203125,-32.71484375,212.890625
999.51171875,103.515625,71.77734375,808.59375
436.5234375,59.5703125,31.25,293.45703125
-826.66015625,-138.18359375,-119.62890625,-811.5234375
-1000.0,-206.54296875,-164.55078125,-789.55078125
120.60546875,-57.12890625,-55.6640625,368.65234375
999.51171875,91.796875,57.6171875,999.51171875
553.7109375,67.87109375,37.59765625,390.13671875
-675.78125,-110.83984375,-107.421875,-850.5859375
-1000.0,-203.61328125,-170.8984375,-903.3203125
-55.6640625,-83.984375,-65.91796875,61.5234375
999.51171875,82.03125,63.96484375,936.5234375
652.83203125,84.47265625,63.4765625,539.0625
-543.45703125,-103.02734375,-82.03125,-671.875
-1000.0,-218.26171875,-166.015625,-984.375
-215.8203125,-108.88671875,-75.68359375,-66.40625
999.51171875,66.40625,52.734375,960.9375
774.90234375,96.19140625,69.82421875,620.60546875
-393.5546875,-78.125,-71.77734375,-597.16796875
-1000.0,-220.21484375,-175.29296875,-1000.0
-372.0703125,-134.765625,-95.703125,-250.9765625
896.97265625,40.52734375,37.109375,725.09765625
899.90234375,101.07421875,79.1015625,712.890625
-248.53515625,-45.8984375,-35.64453125,-385.7421875
-1000.0,-199.70703125,-159.66796875,-1000.0
-498.046875,-134.27734375,-115.72265625,-366.2109375
764.6484375,32.71484375,20.99609375,700.68359375
999.51171875,106.4453125,82.51953125,854.98046875
-99.609375,-20.5078125,-23.4375,-214.84375
-1000.0,-188.4765625,-155.2734375,-1000.0
-615.72265625,-158.203125,-121.09375,-494.62890625
609.86328125,6.8359375,11.71875,504.8828125
999.51171875,108.3984375,83.49609375,812.98828125
72.265625,7.32421875,-2.44140625,-28.3203125
-1000.0,-179.6875,-145.5078125,-963.37890625
-732.91015625,-179.6875,-136.71875,-604.98046875
454.1015625,-20.99609375,-12.20703125,398.4375
999.51171875,100.09765625,78.61328125,839.84375
248.046875,31.73828125,20.01953125,130.859375
-1000.0,-158.203125,-130.859375,-939.453125
-847.65625,-185.546875,-147.94921875,-652.83203125
328.61328125,-24.4140625,-24.4140625,499.51171875
999.51171875,110.83984375,80.56640625,991.2109375
380.37109375,56.640625,33.203125,287.109375
-882.8125,-141.11328125,-125.9765625,-836.9140625
-978.515625,-208.984375,-165.0390625,-804.19921875
160.15625,-57.6171875,-49.8046875,208.984375
999.51171875,104.4921875,65.4296875,943.84765625
506.34765625,77.1484375,42.96875,373.53515625
-741.69921875,-124.0234375,-113.76953125,-827.63671875
-1000.0,-208.49609375,-175.78125,-848.6328125
16.11328125,-74.21875,-61.03515625,331.0546875
999.51171875,86.9140625,62.01171875,999.51171875
617.1875,86.42578125,54.6875,528.80859375
-584.9609375,-99.12109375,-88.37890625,-624.51171875
-1000.0,-206.0546875,-170.41015625,-952.1484375
-158.69140625,-91.796875,-82.51953125,-81.54296875
999.51171875,75.68359375,48.828125,841.30859375
707.03125,94.7265625,57.12890625,541.9921875
-476.07421875,-81.54296875,-86.9140625,-622.0703125
-1000.0,-222.16796875,-184.08203125,-1000.0
-357.91015625,-127.9296875,-104.4921875,-188.4765625
917.96875,49.31640625,28.3203125,806.15234375
833.49609375,87.40234375,55.17578125,616.2109375
-348.14453125,-74.70703125,-68.359375,-506.8359375
-1000.0,-224.12109375,-177.24609375,-1000.0
-489.2578125,-151.85546875,-116.69921875,-386.23046875
783.69140625,22.94921875,17.578125,707.51953125
956.0546875,94.23828125,66.40625,750.48828125
-192.3828125,-37.59765625,-43.9453125,-400.87890625
-1000.0,-204.1015625,-168.9453125,-1000.0
-585.44921875,-159.66796875,-124.0234375,-462.890625
651.3671875,14.16015625,9.765625,546.38671875
999.51171875,105.46875,76.66015625,807.12890625
-7.32421875,-7.32421875,-9.27734375,-145.01953125
-1000.0,-188.96484375,-148.92578125,-1000.0
-686.5234375,-167.48046875,-135.7421875,-531.25
513.18359375,7.8125,-8.7890625,567.87109375
999.51171875,111.81640625,70.3125,930.17578125
164.0625,13.671875,-1.953125,33.203125
-1000.0,-174.31640625,-145.5078125,-982.91015625
-806.15234375,-184.5703125,-145.5078125,-676.26953125
366.2109375,-20.5078125,-22.94921875,380.37109375
999.51171875,111.81640625,66.40625,966.30859375
333.0078125,49.31640625,16.11328125,254.8828125
-934.08203125,-145.99609375,-129.39453125,-867.1875
-925.78125,-190.91796875,-160.64453125,-770.5078125
232.421875,-41.50390625,-42.96875,201.171875
999.51171875,101.07421875,63.96484375,825.1953125
462.890625,63.4765625,32.2265625,325.68359375
-793.9453125,-133.7890625,-119.140625,-767.08984375
-1000.0,-210.44921875,-174.8046875,-868.65234375
70.80078125,-64.453125,-59.08203125,134.765625
999.51171875,92.28515625,59.08203125,963.37890625
574.70703125,73.73046875,38.0859375,454.1015625
-648.92578125,-112.3046875,-111.81640625,-750.0
-1000.0,-204.58984375,-180.6640625,-919.921875
-84.9609375,-79.1015625,-78.61328125,49.31640625
999.51171875,80.078125,44.921875,947.265625
677.734375,93.26171875,51.7578125,604.00390625
-508.7890625,-83.984375,-82.51953125,-592.28515625
-1000.0,-210.9375,-167.96875,-983.3984375
-271.484375,-105.95703125,-80.078125,-105.95703125
975.5859375,62.98828125,41.9921875,884.27734375
800.29296875,102.05078125,60.05859375,694.3359375
-371.58203125,-53.7109375,-65.4296875,-496.09375
-1000.0,-201.171875,-172.8515625,-1000.0
-403.80859375,-125.0,-103.02734375,-196.2890625
869.140625,53.22265625,28.80859375,841.796875
916.50390625,110.83984375,72.265625,776.85546875
-231.93359375,-39.0625,-37.59765625,-398.4375
-1000.0,-200.68359375,-166.015625,-1000.0
-538.0859375,-145.5078125,-121.58203125,-262.6953125
718.75,31.73828125,14.6484375,881.8359375
999.51171875,112.3046875,73.2421875,877.9296875
-75.1953125,-14.6484375,-27.83203125,-220.703125
-1000.0,-188.96484375,-157.71484375,-1000.0
-638.18359375,-160.15625,-126.46484375,-491.69921875
577.63671875,7.32421875,1.953125,619.140625
999.51171875,109.375,78.125,910.64453125
87.890625,8.30078125,-1.953125,-62.98828125
-1000.0,-180.17578125,-142.08984375,-1000.0
-765.625,-182.12890625,-139.6484375,-621.09375
411.62109375,-16.6015625,-17.08984375,416.015625
999.51171875,107.421875,80.078125,867.67578125
270.01953125,38.0859375,22.94921875,99.609375
-982.421875,-151.3671875,-125.0,-963.37890625
-876.953125,-191.89453125,-144.53125,-709.47265625
290.0390625,-39.55078125,-29.296875,409.66796875
999.51171875,102.05078125,73.2421875,999.51171875
401.85546875,59.5703125,34.66796875,162.109375
-867.67578125,-137.6953125,-121.09375,-1000.0
-989.2578125,-202.63671875,-162.109375,-689.453125
147.94921875,-61.03515625,-47.8515625,553.22265625
999.51171875,90.8203125,63.96484375,999.51171875
532.2265625,75.1953125,45.41015625,285.15625
-708.984375,-111.81640625,-98.6328125,-970.703125
-1000.0,-201.171875,-162.59765625,-852.05078125
-18.06640625,-77.63671875,-68.359375,324.70703125
999.51171875,78.61328125,47.8515625,999.51171875
644.53125,83.984375,46.875,548.33984375
-554.6875,-104.4921875,-96.19140625,-648.4375
-1000.0,-217.28515625,-172.8515625,-948.2421875
-175.78125,-94.23828125,-72.75390625,17.578125
999.51171875,76.171875,57.12890625,937.01171875
762.6953125,105.46875,75.1953125,642.578125
-402.34375,-68.359375,-69.3359375,-541.9921875
-1000.0,-216.30859375,-178.22265625,-1000.0
-350.5859375,-125.9765625,-95.703125,-212.40234375
917.48046875,53.22265625,35.64453125,781.73828125
877.44140625,101.5625,69.82421875,703.125
-274.4140625,-51.7578125,-49.31640625,-391.11328125
-1000.0,-205.56640625,-168.9453125,-1000.0
-470.703125,-138.18359375,-111.328125,-356.93359375
794.921875,37.59765625,24.4140625,703.125
985.83984375,112.79296875,75.1953125,834.47265625
-122.0703125,-20.99609375,-32.71484375,-237.79296875
-1000.0,-201.171875,-160.64453125,-1000.0
-591.30859375,-164.0625,-125.0,-398.4375
644.04296875,7.8125,4.39453125,735.83984375
999.51171875,108.88671875,72.75390625,922.8515625
45.41015625,9.765625,-17.08984375,-97.16796875
-1000.0,-176.26953125,-158.203125,-1000.0
-702.1484375,-170.8984375,-141.6015625,-585.9375
496.09375,-7.8125,-14.6484375,436.5234375
999.51171875,104.4921875,75.1953125,857.91015625
214.84375,22.94921875,15.625,61.03515625
-1000.0,-167.48046875,-136.23046875,-984.86328125
-821.77734375,-183.59375,-148.92578125,-625.9765625
357.421875,-20.01953125,-25.87890625,450.1953125
999.51171875,110.3515625,73.73046875,890.13671875
371.09375,45.41015625,25.390625,184.08203125
-895.5078125,-150.390625,-129.39453125,-901.3671875
-955.56640625,-191.89453125,-163.57421875,-791.50390625
194.3359375,-43.45703125,-48.33984375,186.03515625
999.51171875,95.703125,52.734375,859.86328125
481.93359375,61.5234375,20.99609375,358.88671875
-768.5546875,-125.48828125,-124.51171875,-758.7890625
-1000.0,-199.21875,-169.43359375,-865.72265625
29.296875,-66.89453125,-54.6875,79.1015625
999.51171875,92.7734375,62.5,861.81640625
602.05078125,84.47265625,50.29296875,471.19140625
-611.328125,-113.76953125,-103.515625,-663.57421875
-1000.0,-217.28515625,-184.08203125,-941.89453125
-132.8125,-88.37890625,-82.51953125,-62.98828125
999.51171875,80.56640625,47.8515625,834.9609375
711.9140625,93.26171875,56.640625,597.65625
-468.26171875,-88.8671875,-82.03125,-547.36328125
-1000.0,-217.28515625,-173.828125,-984.86328125
-291.50390625,-109.375,-90.33203125,-146.484375
960.9375,69.82421875,37.109375,859.86328125
829.1015625,110.3515625,66.89453125,699.70703125
-335.9375,-54.6875,-63.4765625,-498.53515625
-1000.0,-201.66015625,-175.78125,-1000.0
-436.5234375,-123.53515625,-111.81640625,-139.16015625
833.49609375,49.31640625,20.01953125,928.7109375
950.1953125,111.328125,70.80078125,814.94140625
-181.15234375,-24.90234375,-41.9921875,-272.94921875
-1000.0,-187.98828125,-166.9921875,-1000.0
-564.94140625,-145.99609375,-118.65234375,-419.921875
682.6171875,30.76171875,16.11328125,658.203125
999.51171875,109.375,75.68359375,885.25390625
-30.2734375,-17.578125,-17.08984375,-148.92578125
-1000.0,-199.70703125,-152.34375,-1000.0
-675.29296875,-188.4765625,-127.9296875,-458.984375
557.12890625,-16.6015625,10.7421875,753.90625
999.51171875,86.42578125,87.40234375,936.5234375
49.8046875,-10.7421875,17.08984375,-133.30078125
-1000.0,-189.453125,-117.67578125,-1000.0
-790.52734375,-203.61328125,-120.60546875,-541.50390625
383.7890625,-47.8515625,1.46484375,691.40625
999.51171875,76.171875,89.35546875,989.74609375
264.6484375,9.765625,36.62109375,96.19140625
-978.515625,-187.01171875,-111.328125,-945.3125
-920.8984375,-222.16796875,-133.30078125,-783.203125
219.7265625,-63.96484375,-9.27734375,353.515625
999.51171875,73.73046875,93.26171875,999.51171875
416.9921875,29.78515625,55.17578125,164.55078125
-844.7265625,-158.69140625,-97.16796875,-1000.0
-1000.0,-220.703125,-146.484375,-806.15234375
88.8671875,-75.1953125,-28.3203125,348.14453125
999.51171875,79.58984375,88.8671875,999.51171875
534.66796875,57.6171875,65.91796875,212.40234375
-704.1015625,-140.625,-86.42578125,-1000.0
-1000.0,-232.421875,-152.34375,-786.62109375
-49.31640625,-96.6796875,-42.96875,470.703125
999.51171875,71.2890625,82.51953125,999.51171875
667.48046875,83.49609375,81.0546875,467.28515625
-518.5546875,-92.7734375,-60.05859375,-731.4453125
-1000.0,-210.44921875,-151.85546875,-1000.0
-225.09765625,-103.515625,-72.75390625,-228.02734375
999.51171875,70.80078125,60.05859375,801.7578125
791.50390625,102.05078125,81.0546875,541.50390625
-371.58203125,-65.91796875,-54.6875,-613.28125
-1000.0,-207.51953125,-155.2734375,-1000.0
-364.2578125,-122.0703125,-86.42578125,-382.8125
898.4375,56.640625,40.52734375,661.62109375
915.52734375,114.74609375,82.51953125,662.59765625
-217.7734375,-35.64453125,-39.55078125,-472.16796875
-1000.0,-199.70703125,-159.1796875,-1000.0
-498.046875,-143.5546875,-104.4921875,-410.15625
762.20703125,34.1796875,22.4609375,691.40625
999.51171875,118.1640625,77.63671875,801.7578125
-75.68359375,-14.6484375,-26.85546875,-321.2890625
-1000.0,-189.94140625,-159.66796875,-1000.0
-622.0703125,-152.34375,-124.0234375,-499.51171875
603.515625,18.06640625,11.71875,597.16796875
999.51171875,113.28125,90.33203125,893.06640625
77.1484375,3.41796875,0.9765625,-115.234375
-1000.0,-180.17578125,-144.53125,-1000.0
-735.3515625,-165.0390625,-127.44140625,-589.35546875
451.66015625,-3.41796875,1.953125,501.46484375
999.51171875,112.3046875,83.984375,950.1953125
249.0234375,38.0859375,15.625,86.9140625
-999.51171875,-151.3671875,-130.859375,-985.83984375
-857.91015625,-183.10546875,-145.5078125,-691.89453125
314.94140625,-29.78515625,-25.390625,393.06640625
999.51171875,110.83984375,71.2890625,980.46875
404.78515625,58.10546875,23.4375,249.0234375
-864.2578125,-144.04296875,-131.8359375,-899.4140625
-978.515625,-204.58984375,-174.31640625,-809.08203125
169.43359375,-53.22265625,-50.29296875,224.12109375
999.51171875,98.6328125,64.453125,963.37890625
529.296875,73.2421875,37.109375,397.4609375
-716.30859375,-115.234375,-109.86328125,-792.48046875
-1000.0,-199.21875,-166.50390625,-880.37109375
29.78515625,-65.91796875,-62.01171875,122.55859375
999.51171875,94.23828125,53.7109375,945.3125
628.90625,89.84375,48.33984375,520.01953125
-567.87109375,-95.21484375,-94.23828125,-654.296875
-1000.0,-204.58984375,-174.31640625,-957.03125
-161.62109375,-93.75,-81.54296875,-66.89453125
999.51171875,78.125,48.828125,852.05078125
754.39453125,109.375,65.4296875,605.46875
-412.59765625,-62.5,-71.77734375,-536.1328125
-1000.0,-202.1484375,-171.875,-1000.0
-297.8515625,-114.74609375,-94.23828125,-164.0625
950.68359375,59.5703125,42.96875,872.0703125
863.28125,107.421875,69.82421875,729.00390625
-284.66796875,-50.78125,-58.10546875,-467.28515625
-1000.0,-204.58984375,-166.50390625,-1000.0
-455.078125,-135.25390625,-109.375,-291.9921875
809.08203125,39.0625,20.99609375,753.90625
975.5859375,104.4921875,73.73046875,822.265625
-135.7421875,-27.83203125,-35.64453125,-281.73828125
-1000.0,-194.82421875,-168.45703125,-1000.0
-573.2421875,-154.78515625,-125.9765625,-414.55078125
669.921875,18.5546875,8.30078125,649.90234375
999.51171875,113.28125,76.171875,871.58203125
19.53125,-0.9765625,-11.71875,-121.58203125
-1000.0,-176.7578125,-151.3671875,-1000.0
-686.5234375,-157.2265625,-133.7890625,-498.53515625
514.6484375,3.41796875,-5.37109375,625.9765625
999.51171875,114.2578125,75.1953125,955.078125
196.77734375,21.97265625,-4.39453125,65.4296875
-1000.0,-176.7578125,-150.87890625,-962.890625
-811.5234375,-185.546875,-150.390625,-670.8984375
366.2109375,-20.01953125,-26.85546875,341.30859375
999.51171875,106.93359375,70.80078125,850.09765625
349.12109375,43.9453125,21.484375,198.73046875
-916.50390625,-152.83203125,-131.8359375,-871.09375
-936.5234375,-195.80078125,-160.64453125,-780.76171875
217.28515625,-40.0390625,-41.015625,217.28515625
999.51171875,104.00390625,67.3828125,855.95703125
485.83984375,73.73046875,37.59765625,338.37890625
-766.6015625,-117.67578125,-117.67578125,-760.7421875
-1000.0,-204.58984375,-177.734375,-860.3515625
58.10546875,-71.2890625,-65.91796875,107.91015625
999.51171875,88.37890625,55.6640625,876.953125
595.21484375,73.2421875,40.52734375,468.75
-619.62890625,-119.62890625,-109.86328125,-662.59765625
-1000.0,-219.23828125,-181.640625,-931.640625
-106.93359375,-91.30859375,-79.1015625,-26.85546875
999.51171875,80.56640625,54.19921875,861.328125
707.51953125,100.09765625,57.6171875,579.1015625
-469.7265625,-83.0078125,-87.40234375,-573.2421875
-1000.0,-213.8671875,-171.875,-978.515625
-251.46484375,-103.515625,-83.0078125,-127.9296875
984.375,73.2421875,50.29296875,845.703125
817.3828125,105.46875,70.80078125,692.87109375
-337.890625,-61.03515625,-65.4296875,-458.49609375
-1000.0,-208.0078125,-174.31640625,-1000.0
-416.9921875,-131.34765625,-106.93359375,-253.90625
855.46875,49.31640625,30.2734375,789.55078125
931.640625,111.328125,70.3125,783.69140625
-207.03125,-41.015625,-46.38671875,-348.14453125
-1000.0,-203.61328125,-164.55078125,-1000.0
-545.41015625,-150.87890625,-119.140625,-386.23046875
705.56640625,21.484375,9.765625,687.5
999.51171875,112.79296875,72.265625,863.76953125
-50.29296875,-8.7890625,-28.3203125,-199.21875
-1000.0,-191.89453125,-166.9921875,-1000.0
-652.83203125,-169.921875,-136.23046875,-472.65625
558.10546875,2.44140625,-3.90625,626.46484375
999.51171875,106.4453125,68.84765625,937.5
129.39453125,7.32421875,-12.6953125,-22.4609375
-1000.0,-179.19921875,-152.83203125,-1000.0
-773.4375,-182.12890625,-148.92578125,-598.14453125
405.76171875,-15.625,-23.4375,487.79296875
999.51171875,109.375,64.94140625,969.23828125
291.9921875,42.48046875,5.37109375,157.71484375
-965.33203125,-155.2734375,-148.92578125,-951.171875
-888.18359375,-194.82421875,-168.9453125,-713.37890625
279.78515625,-34.1796875,-38.57421875,347.16796875
999.51171875,98.6328125,65.91796875,950.68359375
428.22265625,50.29296875,24.90234375,315.91796875
-833.984375,-139.16015625,-125.0,-834.9609375
-1000.0,-205.56640625,-171.875,-815.4296875
120.1171875,-60.546875,-57.6171875,213.8671875
999.51171875,95.21484375,60.546875,955.078125
545.8984375,76.66015625,37.59765625,447.265625
-687.5,-113.76953125,-111.328125,-729.98046875
-1000.0,-205.56640625,-174.31640625,-891.6015625
-41.9921875,-67.3828125,-70.3125,129.8828125
999.51171875,93.26171875,52.734375,984.86328125
649.4140625,81.54296875,46.875,546.38671875
-543.9453125,-103.515625,-99.609375,-654.296875
-1000.0,-213.37890625,-179.6875,-965.33203125
-222.16796875,-98.14453125,-86.9140625,-50.29296875
999.51171875,78.125,44.921875,908.69140625
769.53125,111.81640625,65.91796875,657.71484375
-401.3671875,-61.5234375,-66.40625,-528.3203125
-1000.0,-200.1953125,-170.41015625,-1000.0
-379.8828125,-116.2109375,-99.12109375,-173.828125
889.16015625,59.5703125,35.64453125,862.79296875
888.671875,115.72265625,66.40625,751.46484375
-266.11328125,-41.015625,-61.03515625,-407.71484375
-1000.0,-207.51953125,-180.17578125,-1000.0
-493.65234375,-140.13671875,-122.0703125,-313.96484375
765.625,53.22265625,14.6484375,743.65234375
999.51171875,136.71875,63.96484375,833.0078125
-93.75,5.859375,-44.921875,-251.953125
-1000.0,-172.36328125,-180.17578125,-1000.0
-605.95703125,-132.32421875,-149.90234375,-464.35546875
623.53515625,45.8984375,-23.92578125,616.69921875
999.51171875,148.4375,46.875,892.08984375
76.66015625,43.45703125,-35.15625,-98.6328125
-1000.0,-145.5078125,-182.12890625,-1000.0
-705.56640625,-141.6015625,-176.26953125,-580.078125
492.1875,25.87890625,-47.8515625,490.234375
999.51171875,147.4609375,44.921875,917.96875
255.37109375,69.82421875,-19.53125,82.03125
-997.55859375,-122.55859375,-171.38671875,-963.8671875
-827.63671875,-145.99609375,-172.36328125,-672.36328125
355.46875,8.7890625,-39.0625,391.11328125
999.51171875,139.16015625,57.12890625,947.75390625
389.6484375,83.984375,11.71875,251.953125
-881.34765625,-112.79296875,-136.23046875,-876.953125
-950.68359375,-167.96875,-168.45703125,-771.97265625
213.8671875,-13.18359375,-45.8984375,277.83203125
999.51171875,131.34765625,60.05859375,968.75
521.484375,85.9375,31.25,399.4140625
-724.609375,-110.3515625,-120.1171875,-777.34375
-1000.0,-194.82421875,-181.640625,-861.81640625
49.8046875,-59.08203125,-68.359375,131.34765625
999.51171875,104.4921875,48.33984375,928.22265625
625.48828125,104.4921875,35.15625,514.6484375
-574.21875,-88.37890625,-108.88671875,-652.34375
-1000.0,-204.1015625,-189.453125,-941.89453125
-122.55859375,-77.63671875,-93.75,-15.625
999.51171875,90.33203125,36.62109375,899.4140625
729.98046875,99.609375,43.45703125,607.421875
-438.96484375,-80.56640625,-93.26171875,-560.546875
-1000.0,-206.54296875,-190.4296875,-988.76953125
-298.33984375,-104.98046875,-114.2578125,-153.80859375
954.58984375,66.89453125,25.87890625,840.8203125
843.26171875,112.3046875,57.6171875,705.078125
-314.94140625,-50.78125,-68.84765625,-443.84765625
-1000.0,-202.63671875,-183.10546875,-1000.0
-438.96484375,-124.0234375,-122.0703125,-302.734375
829.1015625,58.10546875,15.625,746.58203125
956.0546875,124.0234375,65.91796875,786.62109375
-167.48046875,-13.671875,-42.48046875,-312.98828125
-1000.0,-183.10546875,-170.8984375,-1000.0
-571.2890625,-154.296875,-134.765625,-415.52734375
672.8515625,25.390625,1.46484375,651.85546875
999.51171875,123.53515625,68.359375,856.93359375
-10.7421875,3.90625,-21.484375,-157.71484375
-1000.0,-182.12890625,-162.59765625,-1000.0
-684.5703125,-166.015625,-148.4375,-534.1796875
519.53125,6.34765625,-15.625,527.83203125
999.51171875,117.1875,69.3359375,888.671875
145.99609375,18.06640625,0.0,15.625
-1000.0,-169.43359375,-143.5546875,-975.5859375
-797.8515625,-171.38671875,-145.99609375,-645.5078125
373.53515625,-11.23046875,-22.4609375,387.6953125
999.51171875,108.3984375,70.80078125,892.578125
323.73046875,41.015625,18.5546875,184.08203125
-938.4765625,-146.97265625,-129.39453125,-901.85546875
-923.33984375,-193.359375,-154.296875,-742.1875
228.515625,-41.9921875,-41.50390625,309.5703125
999.51171875,107.91015625,59.08203125,970.703125
458.49609375,68.359375,29.296875,359.86328125
-800.78125,-128.90625,-116.69921875,-820.80078125
-1000.0,-198.2421875,-163.57421875,-829.1015625
83.984375,-58.10546875,-45.41015625,218.75
999.51171875,92.7734375,62.5,988.76953125
565.91796875,74.21875,40.0390625,458.0078125
-659.1796875,-115.234375,-104.98046875,-739.74609375
-1000.0,-215.33203125,-173.33984375,-912.59765625
-80.56640625,-86.42578125,-68.84765625,74.70703125
999.51171875,77.63671875,52.734375,961.9140625
679.6875,86.9140625,54.6875,577.1484375
-508.30078125,-88.37890625,-86.9140625,-625.0
-1000.0,-208.49609375,-176.26953125,-974.609375
-234.86328125,-100.5859375,-84.47265625,-47.8515625
992.67578125,67.87109375,47.8515625,933.10546875
801.7578125,101.5625,70.80078125,675.78125
-358.88671875,-66.40625,-60.546875,-522.94921875
-1000.0,-211.9140625,-166.50390625,-1000.0
-392.578125,-130.859375,-93.75,-168.9453125
878.90625,39.0625,34.66796875,889.6484375
909.1796875,99.12109375,70.3125,768.5546875
-237.79296875,-41.015625,-41.9921875,-385.7421875
-1000.0,-201.171875,-159.1796875,-1000.0
-530.76171875,-147.94921875,-113.28125,-358.88671875
725.5859375,21.97265625,12.6953125,728.02734375
999.51171875,108.3984375,75.1953125,847.16796875
-81.0546875,-14.16015625,-23.4375,-229.00390625
-1000.0,-195.80078125,-166.9921875,-1000.0
-649.90234375,-164.55078125,-138.18359375,-489.2578125
563.96484375,8.7890625,-3.90625,589.84375
999.51171875,108.88671875,67.3828125,889.6484375
79.58984375,2.9296875,-13.18359375,-70.3125
-1000.0,-182.12890625,-150.87890625,-1000.0
-752.44140625,-178.7109375,-142.08984375,-584.47265625
426.26953125,-8.30078125,-16.11328125,525.390625
999.51171875,113.28125,69.82421875,968.75
246.58203125,29.296875,7.32421875,97.65625
-995.60546875,-166.9921875,-136.23046875,-983.3984375
-878.90625,-197.265625,-154.78515625,-711.9140625
278.3203125,-41.015625,-35.64453125,346.19140625
999.51171875,100.09765625,69.3359375,982.91015625
406.73828125,57.12890625,32.71484375,267.578125
-860.3515625,-135.7421875,-122.55859375,-919.921875
-990.234375,-201.66015625,-169.43359375,-795.8984375
145.5078125,-56.15234375,-53.7109375,358.88671875
999.51171875,96.19140625,61.03515625,999.51171875
517.578125,74.21875,38.57421875,405.2734375
-726.5625,-123.53515625,-113.76953125,-777.34375
-1000.0,-214.35546875,-173.828125,-894.04296875
-10.7421875,-79.1015625,-64.453125,36.62109375
999.51171875,82.03125,64.94140625,842.7734375
645.01953125,85.9375,65.4296875,483.3984375
-549.31640625,-99.609375,-88.8671875,-643.06640625
-1000.0,-215.33203125,-176.7578125,-958.49609375
-185.546875,-98.14453125,-82.03125,-83.49609375
999.51171875,72.265625,43.9453125,863.28125
753.41796875,91.30859375,56.640625,622.55859375
-416.9921875,-83.984375,-72.265625,-554.19921875
-1000.0,-215.8203125,-172.36328125,-1000.0
-330.078125,-121.58203125,-97.65625,-160.64453125
929.6875,58.10546875,40.52734375,859.86328125
872.55859375,111.328125,74.21875,740.234375
-278.3203125,-44.43359375,-53.22265625,-390.13671875
-1000.0,-200.1953125,-171.38671875,-1000.0
-481.93359375,-137.20703125,-112.79296875,-330.078125
782.2265625,39.0625,26.85546875,751.46484375
979.4921875,113.28125,77.1484375,831.54296875
-134.27734375,-24.4140625,-32.71484375,-298.828125
-1000.0,-188.4765625,-163.57421875,-1000.0
-584.47265625,-146.484375,-127.44140625,-339.84375
651.85546875,19.04296875,8.30078125,756.8359375
999.51171875,120.1171875,79.58984375,875.0
36.62109375,15.625,-7.8125,-123.046875
-1000.0,-176.26953125,-154.296875,-1000.0
-707.03125,-170.41015625,-142.08984375,-494.62890625
489.74609375,-2.44140625,-9.765625,671.875
999.51171875,112.79296875,72.75390625,999.51171875
193.359375,28.3203125,4.8828125,-10.25390625
-1000.0,-165.0390625,-141.11328125,-1000.0
-814.94140625,-182.12890625,-144.04296875,-609.86328125
361.81640625,-23.92578125,-17.08984375,548.33984375
999.51171875,96.19140625,72.265625,999.51171875
358.88671875,38.57421875,20.5078125,157.71484375
-905.76171875,-149.4140625,-123.046875,-1000.0
-949.70703125,-203.125,-153.80859375,-724.609375
219.23828125,-53.7109375,-38.0859375,477.5390625
999.51171875,86.9140625,65.4296875,999.51171875
421.875,55.6640625,29.78515625,220.703125
-770.5078125,-126.46484375,-112.79296875,-929.19921875
-1000.0,-204.1015625,-161.1328125,-828.125
52.734375,-63.4765625,-51.26953125,340.8203125
999.51171875,91.796875,66.89453125,999.51171875
599.12109375,77.63671875,57.12890625,427.24609375
-617.1875,-117.67578125,-91.30859375,-816.40625
-1000.0,-218.26171875,-166.50390625,-936.03515625
-96.19140625,-93.26171875,-71.77734375,181.640625
999.51171875,78.125,53.7109375,999.51171875
708.0078125,94.23828125,60.546875,538.57421875
-465.8203125,-81.0546875,-79.58984375,-677.734375
-1000.0,-206.54296875,-168.45703125,-1000.0
-275.390625,-109.86328125,-85.44921875,-23.92578125
971.6796875,63.4765625,48.33984375,999.51171875
821.77734375,100.5859375,75.1953125,651.85546875
-339.84375,-63.4765625,-58.59375,-562.98828125
-1000.0,-210.9375,-171.875,-1000.0
-419.43359375,-130.859375,-108.3984375,-133.30078125
852.5390625,54.19921875,28.3203125,980.95703125
940.4296875,120.60546875,75.68359375,764.16015625
-195.3125,-30.76171875,-38.57421875,-414.55078125
-1000.0,-202.1484375,-167.96875,-1000.0
-544.43359375,-147.94921875,-124.0234375,-323.2421875
702.63671875,33.69140625,12.20703125,824.70703125
999.51171875,119.140625,75.1953125,870.1171875
-25.87890625,2.44140625,-20.5078125,-278.80859375
-1000.0,-178.22265625,-154.296875,-1000.0
-652.34375,-166.50390625,-130.859375,-419.921875
559.5703125,-0.9765625,-7.32421875,759.765625
999.51171875,107.421875,68.84765625,964.84375
127.9296875,19.04296875,-0.9765625,-95.703125
-1000.0,-166.9921875,-139.6484375,-1000.0
-786.62109375,-173.828125,-141.6015625,-561.5234375
388.671875,-17.578125,-21.484375,623.53515625
999.51171875,101.07421875,68.84765625,999.51171875
295.41015625,36.1328125,17.08984375,64.94140625
-960.44921875,-157.71484375,-128.41796875,-1000.0
-899.90234375,-192.3828125,-149.90234375,-680.6640625
260.7421875,-35.64453125,-32.71484375,507.32421875
999.51171875,95.703125,69.82421875,999.51171875
436.5234375,56.640625,37.59765625,232.421875
-825.68359375,-130.37109375,-112.79296875,-965.8203125
-1000.0,-204.58984375,-158.203125,-803.7109375
112.79296875,-67.87109375,-48.33984375,368.1640625
999.51171875,86.42578125,61.03515625,999.51171875
549.31640625,69.82421875,43.45703125,358.88671875
-681.15234375,-119.62890625,-104.00390625,-883.30078125
-1000.0,-210.44921875,-170.41015625,-911.62109375
-65.4296875,-81.0546875,-69.3359375,215.8203125
999.51171875,78.61328125,52.24609375,999.51171875
647.94921875,79.1015625,47.8515625,476.07421875
-551.26953125,-102.05078125,-97.16796875,-761.71875
-1000.0,-219.23828125,-178.22265625,-993.65234375
-235.3515625,-109.86328125,-86.9140625,77.63671875
991.69921875,66.89453125,41.015625,999.51171875
779.296875,103.515625,59.5703125,592.28515625
-391.11328125,-69.3359375,-74.21875,-625.0
-1000.0,-211.42578125,-178.22265625,-1000.0
-378.41796875,-119.140625,-103.02734375,-92.28515625
890.625,55.17578125,27.83203125,999.51171875
902.34375,110.3515625,62.98828125,709.47265625
-244.140625,-36.62109375,-53.22265625,-489.2578125
-1000.0,-203.125,-172.36328125,-1000.0
-516.11328125,-150.87890625,-121.09375,-243.65234375
747.0703125,22.94921875,14.16015625,921.38671875
999.51171875,104.4921875,70.80078125,818.84765625
-107.421875,-21.484375,-32.2265625,-360.83984375
-1000.0,-195.80078125,-161.1328125,-1000.0
-625.0,-162.59765625,-132.32421875,-372.55859375
597.65625,7.32421875,-5.37109375,818.359375
999.51171875,107.421875,67.3828125,931.15234375
62.5,2.9296875,-16.11328125,-196.77734375
-1000.0,-179.6875,-157.71484375,-1000.0
-729.4921875,-173.828125,-147.94921875,-517.08984375
456.54296875,-12.6953125,-16.6015625,675.78125
999.51171875,109.86328125,77.1484375,999.51171875
235.83984375,32.71484375,13.671875,-21.484375
-1000.0,-165.0390625,-137.6953125,-1000.0
-855.46875,-187.98828125,-149.90234375,-626.46484375
312.98828125,-31.73828125,-29.296875,569.3359375
999.51171875,98.6328125,65.4296875,999.51171875
379.8828125,49.8046875,27.34375,147.4609375
-883.7890625,-140.13671875,-119.140625,-1000.0
-973.6328125,-198.73046875,-159.66796875,-761.71875
162.109375,-53.22265625,-44.43359375,411.62109375
999.51171875,95.703125,68.84765625,999.51171875
516.6015625,72.265625,42.48046875,333.984375
-729.00390625,-122.0703125,-113.76953125,-884.27734375
-1000.0,-205.56640625,-172.8515625,-885.25390625
14.6484375,-73.73046875,-68.359375,244.62890625
999.51171875,73.2421875,50.29296875,999.51171875
618.65234375,73.73046875,53.22265625,455.078125
-587.40234375,-106.93359375,-88.37890625,-775.390625
-1000.0,-214.84375,-167.96875,-966.30859375
-157.2265625,-89.35546875,-70.3125,119.62890625
999.51171875,82.51953125,54.6875,999.51171875
727.05078125,97.16796875,62.5,560.546875
-448.73046875,-72.265625,-72.265625,-662.109375
-1000.0,-207.03125,-172.8515625,-1000.0
-333.49609375,-122.0703125,-94.7265625,-38.0859375
931.15234375,51.26953125,37.109375,999.51171875
849.12109375,91.796875,66.40625,672.36328125
-314.94140625,-65.4296875,-57.12890625,-532.2265625
-1000.0,-209.47265625,-167.48046875,-1000.0
-459.47265625,-132.32421875,-110.3515625,-190.4296875
807.6171875,44.43359375,18.5546875,956.54296875
966.30859375,118.65234375,64.453125,772.94921875
-156.73828125,-21.97265625,-50.29296875,-424.8046875
-1000.0,-197.75390625,-174.8046875,-1000.0
-582.03125,-149.90234375,-125.48828125,-350.5859375
656.73828125,21.484375,0.48828125,823.73046875
999.51171875,114.2578125,60.546875,894.04296875
6.8359375,3.90625,-24.90234375,-245.60546875
-1000.0,-178.22265625,-159.1796875,-1000.0
-683.59375,-161.62109375,-136.23046875,-462.890625
517.578125,7.32421875,-12.20703125,717.7734375
999.51171875,118.65234375,64.94140625,982.91015625
177.734375,28.80859375,-0.9765625,-75.1953125
-1000.0,-160.15625,-144.04296875,-1000.0
-809.08203125,-175.78125,-149.4140625,-594.23828125
365.234375,-16.6015625,-27.34375,589.35546875
999.51171875,110.3515625,67.87109375,999.51171875
329.1015625,44.43359375,18.06640625,111.328125
-934.5703125,-146.97265625,-133.7890625,-1000.0
-930.17578125,-187.01171875,-162.109375,-733.88671875
222.65625,-37.59765625,-41.50390625,392.578125
999.51171875,108.88671875,64.94140625,999.51171875
463.8671875,68.84765625,26.3671875,290.52734375
-789.0625,-135.25390625,-124.0234375,-903.3203125
-1000.0,-213.37890625,-170.8984375,-847.16796875
40.52734375,-64.453125,-55.6640625,287.59765625
999.51171875,98.6328125,65.4296875,999.51171875
580.078125,80.078125,48.33984375,426.26953125
-641.6015625,-107.421875,-96.6796875,-779.78515625
-1000.0,-211.42578125,-166.50390625,-937.98828125
-109.86328125,-94.23828125,-73.2421875,71.77734375
999.51171875,75.1953125,49.31640625,999.51171875
688.4765625,86.9140625,55.6640625,561.5234375
-497.0703125,-95.703125,-87.890625,-637.6953125
-1000.0,-220.21484375,-183.10546875,-991.2109375
-276.3671875,-111.81640625,-97.65625,-126.953125
969.23828125,63.96484375,38.57421875,868.1640625
812.01171875,100.5859375,65.91796875,649.90234375
-355.95703125,-60.546875,-64.453125,-519.53125
-1000.0,-207.51953125,-171.875,-1000.0
-405.2734375,-123.53515625,-103.02734375,-271.484375
865.72265625,54.6875,23.4375,780.76171875
924.8046875,102.5390625,56.640625,753.90625
-214.35546875,-43.9453125,-56.15234375,-376.46484375
-1000.0,-205.078125,-178.22265625,-1000.0
-545.8984375,-158.203125,-134.27734375,-432.6171875
702.63671875,17.08984375,2.9296875,610.83984375
999.51171875,106.93359375,66.89453125,828.61328125
-51.26953125,-13.18359375,-26.3671875,-232.421875
-1000.0,-190.91796875,-162.109375,-1000.0
-647.4609375,-161.1328125,-133.30078125,-478.515625
565.4296875,8.7890625,-2.44140625,612.79296875
999.51171875,108.88671875,66.89453125,923.33984375
119.140625,14.6484375,-7.32421875,-64.94140625
-1000.0,-168.9453125,-149.90234375,-1000.0
-764.16015625,-175.78125,-149.4140625,-592.28515625
418.45703125,-16.6015625,-24.90234375,532.2265625
999.51171875,109.375,66.40625,999.51171875
286.62109375,41.50390625,13.671875,96.19140625
-969.7265625,-152.83203125,-136.23046875,-1000.0
-880.859375,-187.01171875,-163.0859375,-659.1796875
289.0625,-30.76171875,-39.0625,520.99609375
999.51171875,102.05078125,66.40625,999.51171875
429.19921875,55.6640625,22.4609375,297.8515625
-835.9375,-132.8125,-127.44140625,-900.87890625
-992.67578125,-202.63671875,-164.55078125,-777.83203125
145.5078125,-64.453125,-49.31640625,426.26953125
999.51171875,90.33203125,66.40625,999.51171875
541.50390625,69.3359375,38.0859375,387.6953125
-692.3828125,-125.9765625,-118.65234375,-797.36328125
-1000.0,-214.35546875,-169.43359375,-901.3671875
-42.96875,-82.51953125,-64.94140625,74.21875
999.51171875,77.1484375,48.828125,916.50390625
654.78515625,78.61328125,53.7109375,516.6015625
-539.0625,-105.46875,-85.9375,-638.671875
-1000.0,-214.35546875,-171.38671875,-965.33203125
-202.63671875,-104.98046875,-86.9140625,-137.6953125
999.51171875,61.5234375,43.45703125,793.45703125
769.04296875,92.28515625,62.98828125,598.6328125
-398.92578125,-77.63671875,-81.54296875,-542.48046875
-1000.0,-213.37890625,-189.453125,-1000.0
-364.74609375,-122.55859375,-106.4453125,-175.78125
903.80859375,51.26953125,31.25,897.4609375
884.27734375,106.4453125,63.4765625,716.30859375
-272.94921875,-47.8515625,-55.6640625,-523.4375
-1000.0,-203.61328125,-168.9453125,-1000.0
-488.28125,-133.7890625,-108.88671875,-208.984375
771.484375,39.0625,21.484375,823.2421875
991.69921875,109.86328125,70.3125,806.15234375
-115.72265625,-17.578125,-33.69140625,-252.44140625
-1000.0,-187.01171875,-164.0625,-1000.0
-613.28125,-155.76171875,-125.9765625,-452.1484375
611.328125,16.6015625,7.32421875,619.140625
999.51171875,120.1171875,77.1484375,894.04296875
49.8046875,7.8125,-10.25390625,-118.65234375
-1000.0,-175.29296875,-148.92578125,-1000.0
-723.6328125,-166.9921875,-136.23046875,-567.87109375
463.8671875,-5.37109375,-9.765625,480.46875
999.51171875,111.81640625,79.58984375,964.84375
214.84375,31.25,14.6484375,54.19921875
-1000.0,-161.62109375,-139.6484375,-1000.0
-844.7265625,-190.91796875,-157.2265625,-690.4296875
320.3125,-39.55078125,-31.25,290.52734375
999.51171875,96.19140625,75.1953125,855.46875
366.2109375,43.9453125,30.76171875,242.67578125
-895.99609375,-143.06640625,-118.65234375,-853.02734375
-963.8671875,-194.3359375,-157.71484375,-775.390625
173.33984375,-53.22265625,-49.31640625,253.90625
999.51171875,97.16796875,59.08203125,958.984375
504.8828125,67.3828125,30.76171875,406.73828125
-740.72265625,-125.0,-119.62890625,-780.2734375
-1000.0,-206.54296875,-172.8515625,-858.3984375
13.671875,-63.4765625,-57.6171875,192.3828125
999.51171875,93.26171875,60.05859375,918.9453125
605.46875,75.68359375,41.9921875,431.15234375
-607.91015625,-107.421875,-106.4453125,-677.24609375
-1000.0,-209.9609375,-180.6640625,-944.3359375
-148.92578125,-88.37890625,-86.9140625,12.20703125
999.51171875,83.984375,41.50390625,937.5
719.23828125,99.12109375,52.24609375,584.47265625
-458.984375,-82.03125,-85.9375,-596.19140625
-1000.0,-210.9375,-180.6640625,-990.234375
-303.7109375,-111.81640625,-103.02734375,-179.19921875
950.1953125,62.5,32.2265625,827.1484375
835.9375,104.98046875,63.4765625,719.7265625
-326.171875,-52.734375,-60.546875,-449.70703125
-1000.0,-204.58984375,-172.8515625,-1000.0
-451.171875,-138.18359375,-114.2578125,-237.3046875
816.89453125,35.64453125,20.01953125,788.0859375
952.63671875,110.83984375,70.3125,775.87890625
-179.19921875,-25.87890625,-45.41015625,-302.24609375
-1000.0,-198.2421875,-174.31640625,-1000.0
-565.4296875,-148.4375,-128.41796875,-428.7109375
674.31640625,23.4375,8.7890625,620.60546875
999.51171875,109.86328125,73.73046875,854.00390625
-8.30078125,-1.46484375,-19.53125,-155.76171875
-1000.0,-178.7109375,-150.87890625,-1000.0
-675.78125,-160.64453125,-131.34765625,-516.6015625
525.390625,0.48828125,-8.30078125,551.26953125
999.51171875,104.98046875,68.84765625,917.48046875
173.33984375,18.06640625,-4.39453125,39.0625
-1000.0,-170.8984375,-142.578125,-965.8203125
-793.45703125,-180.6640625,-141.11328125,-627.44140625
387.20703125,-23.4375,-24.90234375,421.875
999.51171875,99.609375,63.96484375,921.875
304.6875,39.0625,12.6953125,166.9921875
-949.70703125,-155.76171875,-137.20703125,-929.6875
-917.96875,-195.80078125,-161.62109375,-745.1171875
233.3984375,-32.2265625,-39.55078125,331.0546875
999.51171875,105.46875,57.6171875,967.7734375
445.80078125,56.15234375,16.11328125,340.33203125
-810.05859375,-130.859375,-131.34765625,-801.26953125
-1000.0,-194.82421875,-181.15234375,-831.54296875
80.078125,-51.26953125,-67.87109375,179.19921875
999.51171875,104.00390625,59.5703125,945.3125
575.68359375,93.75,48.828125,470.21484375
-646.97265625,-104.98046875,-99.609375,-701.66015625
-1000.0,-206.54296875,-166.50390625,-911.62109375
-72.75390625,-77.1484375,-66.40625,68.84765625
999.51171875,88.37890625,51.26953125,956.0546875
674.31640625,96.6796875,50.29296875,576.171875
-513.671875,-92.28515625,-91.30859375,-623.53515625
-1000.0,-213.8671875,-181.15234375,-976.5625
-234.375,-101.07421875,-92.28515625,-96.19140625
994.140625,74.21875,41.015625,872.55859375
792.48046875,105.95703125,62.01171875,676.7578125
-372.0703125,-62.5,-63.4765625,-487.3046875
-1000.0,-205.56640625,-166.015625,-1000.0
-396.97265625,-127.44140625,-101.07421875,-231.93359375
869.140625,50.78125,33.203125,799.31640625
920.8984375,112.3046875,75.68359375,775.87890625
-214.84375,-38.57421875,-42.96875,-354.98046875
-1000.0,-199.70703125,-170.8984375,-1000.0
-532.71484375,-147.4609375,-128.90625,-390.13671875
725.09765625,23.92578125,4.39453125,687.5
999.51171875,113.28125,69.3359375,827.63671875
-82.51953125,-17.08984375,-31.73828125,-255.37109375
-1000.0,-208.984375,-168.45703125,-1000.0
-653.3203125,-177.24609375,-139.6484375,-522.4609375
558.10546875,-5.859375,-7.32421875,522.4609375
999.51171875,97.65625,68.84765625,855.46875
80.56640625,7.8125,-9.27734375,-92.28515625
-1000.0,-178.7109375,-153.3203125,-1000.0
-755.37109375,-186.03515625,-151.3671875,-604.4921875
423.33984375,-18.06640625,-25.87890625,478.515625
999.51171875,104.00390625,65.91796875,940.4296875
254.39453125,28.3203125,9.27734375,113.28125
-993.1640625,-169.921875,-138.18359375,-959.47265625
-865.72265625,-201.171875,-152.34375,-699.70703125
299.31640625,-41.9921875,-31.73828125,354.00390625
999.51171875,94.7265625,68.359375,940.91796875
409.66796875,51.26953125,22.4609375,278.80859375
-856.93359375,-140.625,-135.7421875,-851.5625
-986.328125,-197.75390625,-174.8046875,-809.5703125
151.85546875,-51.7578125,-55.17578125,185.05859375
999.51171875,95.21484375,59.08203125,881.8359375
520.99609375,70.3125,32.2265625,384.765625
-717.28515625,-115.234375,-115.72265625,-741.2109375
-1000.0,-198.2421875,-171.875,-888.18359375
-4.8828125,-71.77734375,-65.4296875,76.171875
999.51171875,85.9375,62.01171875,903.3203125
646.484375,85.9375,63.96484375,520.5078125
-547.8515625,-102.05078125,-83.49609375,-633.7890625
-1000.0,-217.28515625,-166.9921875,-954.1015625
-176.26953125,-103.02734375,-76.66015625,-66.89453125
999.51171875,74.21875,55.17578125,857.91015625
749.0234375,99.12109375,64.453125,607.421875
-420.41015625,-83.984375,-84.9609375,-540.52734375
-1000.0,-219.23828125,-179.6875,-998.53515625
-357.421875,-122.55859375,-99.609375,-209.47265625
909.1796875,58.10546875,38.0859375,775.87890625
866.2109375,108.88671875,70.3125,700.1953125
-294.43359375,-48.33984375,-58.59375,-407.71484375
-1000.0,-202.1484375,-168.45703125,-1000.0
-488.76953125,-135.7421875,-105.46875,-334.9609375
774.4140625,35.64453125,23.92578125,685.05859375
980.46875,111.81640625,73.2421875,777.34375
-135.7421875,-20.01953125,-34.66796875,-275.390625
-1000.0,-191.89453125,-164.55078125,-1000.0
-600.5859375,-156.25,-129.8828125,-458.49609375
630.37109375,13.671875,0.9765625,587.40234375
999.51171875,112.79296875,74.70703125,852.05078125
34.66796875,-1.953125,-20.01953125,-110.83984375
-1000.0,-184.5703125,-165.0390625,-1000.0
-695.3125,-165.0390625,-140.625,-553.7109375
501.46484375,1.953125,-8.30078125,488.28125
999.51171875,110.83984375,67.87109375,880.37109375
210.9375,20.5078125,-6.34765625,51.7578125
-1000.0,-171.875,-147.94921875,-962.890625
-829.1015625,-187.01171875,-151.3671875,-665.52734375
340.8203125,-27.83203125,-27.83203125,365.72265625
999.51171875,102.5390625,69.3359375,883.7890625
364.2578125,48.828125,23.4375,221.19140625
-902.34375,-143.5546875,-125.48828125,-866.69921875
-940.4296875,-198.73046875,-157.2265625,-759.27734375
214.84375,-46.38671875,-38.57421875,268.06640625
999.51171875,103.02734375,68.84765625,928.7109375
484.375,56.640625,32.71484375,380.37109375
-768.5546875,-139.16015625,-121.09375,-768.06640625
-1000.0,-204.58984375,-171.38671875,-841.796875
64.94140625,-69.3359375,-59.08203125,157.2265625
999.51171875,83.49609375,56.640625,934.5703125
620.1171875,80.078125,47.8515625,531.73828125
-585.9375,-102.05078125,-90.8203125,-642.578125
-1000.0,-208.0078125,-163.0859375,-904.78515625
-81.54296875,-84.9609375,-63.96484375,62.5
999.51171875,83.984375,65.4296875,934.5703125
721.19140625,92.28515625,66.89453125,656.25
-442.87109375,-85.9375,-76.171875,-525.390625
-1000.0,-205.56640625,-165.0390625,-969.7265625
-266.6015625,-108.3984375,-81.54296875,-79.58984375
971.19140625,61.03515625,55.6640625,882.8125
824.70703125,107.91015625,79.1015625,729.00390625
-332.51953125,-57.12890625,-62.98828125,-432.12890625
-1000.0,-208.0078125,-169.921875,-1000.0
-416.9921875,-125.48828125,-100.09765625,-219.23828125
848.14453125,54.6875,34.66796875,806.15234375
946.77734375,114.74609375,81.54296875,809.08203125
-176.26953125,-33.69140625,-31.25,-299.31640625
-1000.0,-191.89453125,-149.90234375,-1000.0
-546.875,-142.08984375,-105.95703125,-362.79296875
698.2421875,20.99609375,21.484375,690.4296875
999.51171875,111.81640625,84.47265625,873.046875
-19.53125,-1.953125,-10.7421875,-137.6953125
-1000.0,-177.24609375,-146.484375,-1000.0
-654.296875,-155.2734375,-126.46484375,-492.1875
559.08203125,12.6953125,-4.39453125,556.640625
999.51171875,121.09375,70.80078125,895.01953125
148.4375,28.80859375,1.46484375,22.94921875
-1000.0,-159.1796875,-137.6953125,-963.37890625
-773.4375,-166.50390625,-140.625,-611.328125
408.69140625,-12.20703125,-17.08984375,428.22265625
999.51171875,110.83984375,76.171875,917.96875
308.59375,44.921875,16.11328125,197.75390625
-951.171875,-157.2265625,-132.8125,-895.01953125
-894.53125,-199.21875,-150.390625,-718.26171875
270.01953125,-44.43359375,-33.69140625,313.96484375
999.51171875,96.6796875,72.75390625,917.48046875
444.3359375,51.26953125,35.15625,328.125
-816.89453125,-145.5078125,-120.60546875,-806.640625
-1000.0,-208.984375,-163.57421875,-815.4296875
117.1875,-59.5703125,-47.36328125,197.265625
999.51171875,85.9375,62.01171875,935.05859375
565.91796875,60.546875,41.50390625,462.40234375
-662.59765625,-123.046875,-104.4921875,-707.03125
-1000.0,-211.9140625,-169.921875,-887.20703125
-34.66796875,-86.42578125,-59.5703125,108.88671875
999.51171875,72.265625,71.77734375,938.96484375
655.76171875,72.265625,65.4296875,549.8046875
-530.76171875,-115.234375,-76.66015625,-612.3046875
-1000.0,-236.328125,-155.2734375,-970.21484375
-263.18359375,-132.32421875,-59.08203125,-101.07421875
983.3984375,33.69140625,73.73046875,856.4453125
760.7421875,59.08203125,86.42578125,638.18359375
-425.29296875,-114.74609375,-41.9921875,-518.5546875
-1000.0,-257.32421875,-139.6484375,-1000.0
-431.640625,-172.8515625,-64.94140625,-264.16015625
846.6796875,3.90625,68.359375,752.44140625
883.7890625,63.4765625,110.3515625,731.93359375
-291.9921875,-85.44921875,-8.7890625,-401.3671875
-1000.0,-246.58203125,-131.34765625,-1000.0
-553.22265625,-189.453125,-82.51953125,-383.7890625
703.61328125,-14.6484375,54.19921875,641.6015625
990.72265625,70.80078125,117.1875,781.73828125
-141.11328125,-54.19921875,7.8125,-251.953125
-1000.0,-225.5859375,-129.8828125,-1000.0
-640.13671875,-191.89453125,-105.95703125,-474.609375
567.87109375,-19.04296875,24.90234375,607.421875
999.51171875,87.890625,102.05078125,893.06640625
69.3359375,-9.765625,20.99609375,-63.96484375
-1000.0,-192.87109375,-123.046875,-1000.0
-737.3046875,-188.96484375,-110.83984375,-574.70703125
446.77734375,-24.4140625,13.671875,493.65234375
999.51171875,91.30859375,89.35546875,946.2890625
242.1875,17.578125,25.87890625,126.46484375
-996.09375,-164.55078125,-121.58203125,-956.0546875
-855.46875,-193.84765625,-139.6484375,-666.50390625
313.96484375,-47.8515625,-16.6015625,413.57421875
999.51171875,83.49609375,83.49609375,968.26171875
402.83203125,34.66796875,35.15625,286.1328125
-863.76953125,-158.203125,-114.2578125,-856.4453125
-974.609375,-214.35546875,-145.99609375,-785.64453125
169.921875,-61.5234375,-28.3203125,245.60546875
999.51171875,87.40234375,78.61328125,953.61328125
514.6484375,58.10546875,49.8046875,404.296875
-729.4921875,-136.23046875,-98.14453125,-765.13671875
-1000.0,-223.6328125,-159.66796875,-879.39453125
6.8359375,-80.078125,-49.31640625,94.7265625
999.51171875,88.8671875,76.66015625,935.546875
625.48828125,77.63671875,65.91796875,528.3203125
-578.125,-109.86328125,-77.1484375,-663.0859375
-1000.0,-215.33203125,-157.2265625,-941.40625
-168.45703125,-100.09765625,-67.87109375,-9.765625
999.51171875,66.89453125,56.640625,897.94921875
741.69921875,86.9140625,67.3828125,632.32421875
-430.6640625,-85.44921875,-68.84765625,-524.4140625
-1000.0,-211.42578125,-167.48046875,-989.2578125
-311.03515625,-109.86328125,-86.42578125,-145.5078125
940.91796875,69.3359375,44.921875,854.4921875
856.93359375,115.234375,76.171875,743.1640625
-293.45703125,-47.36328125,-51.26953125,-412.59765625
-1000.0,-209.47265625,-175.78125,-1000.0
-456.0546875,-148.92578125,-114.2578125,-244.62890625
810.05859375,31.73828125,31.25,814.94140625
971.6796875,108.3984375,75.68359375,828.61328125
-137.20703125,-26.85546875,-39.0625,-284.66796875
-1000.0,-193.84765625,-165.52734375,-1000.0
-571.2890625,-145.5078125,-123.046875,-383.7890625
668.45703125,26.3671875,8.7890625,691.89453125
999.51171875,116.2109375,72.75390625,904.296875
28.3203125,3.41796875,-11.71875,-114.2578125
-1000.0,-182.12890625,-150.390625,-1000.0
-671.875,-166.015625,-129.8828125,-494.140625
537.59765625,7.8125,0.0,613.76953125
999.51171875,117.1875,76.171875,958.984375
197.265625,22.94921875,2.44140625,48.828125
-1000.0,-171.38671875,-147.94921875,-994.62890625
-804.19921875,-187.01171875,-150.87890625,-628.41796875
377.9296875,-29.296875,-29.296875,476.5625
999.51171875,102.5390625,59.5703125,984.375
349.12109375,44.43359375,8.30078125,198.2421875
-918.45703125,-150.87890625,-143.06640625,-929.6875
-920.8984375,-198.73046875,-166.015625,-752.9296875
243.65234375,-45.8984375,-42.96875,272.94921875
999.51171875,103.02734375,61.03515625,885.7421875
481.4453125,64.94140625,27.83203125,317.87109375
-772.94921875,-136.71875,-127.44140625,-792.96875
-1000.0,-213.8671875,-180.17578125,-856.4453125
67.87109375,-73.2421875,-66.40625,124.0234375
999.51171875,82.51953125,48.828125,893.06640625
579.58984375,76.66015625,34.66796875,443.359375
-637.20703125,-107.421875,-110.83984375,-690.4296875
-1000.0,-212.890625,-182.6171875,-930.6640625
-103.02734375,-86.9140625,-81.54296875,-17.578125
999.51171875,82.51953125,45.8984375,855.95703125
689.453125,89.84375,49.31640625,550.29296875
-494.140625,-90.33203125,-89.84375,-586.42578125
-1000.0,-218.75,-181.640625,-979.4921875
-276.3671875,-118.1640625,-101.5625,-90.8203125
968.75,58.59375,30.2734375,899.4140625
801.7578125,93.75,53.7109375,694.3359375
-366.69921875,-66.89453125,-75.68359375,-489.2578125
-1000.0,-205.078125,-177.734375,-1000.0
-414.0625,-121.58203125,-107.421875,-242.67578125
855.95703125,52.734375,21.97265625,783.203125
926.7578125,106.4453125,63.96484375,781.73828125
-212.890625,-38.57421875,-46.38671875,-333.0078125
-1000.0,-199.21875,-167.96875,-1000.0
-533.69140625,-141.6015625,-120.1171875,-382.32421875
716.796875,36.62109375,12.6953125,666.9921875
