TP9,AF7,AF8,TP10
-550.78125,-1000.0,-1000.0,-126.46484375
-197.265625,-839.35546875,-562.5,-63.4765625
355.95703125,505.859375,784.66796875,34.66796875
353.02734375,999.51171875,999.51171875,35.64453125
-177.24609375,155.76171875,149.4140625,-56.15234375
-553.22265625,-1000.0,-1000.0,-128.90625
-262.20703125,-995.60546875,-784.1796875,-73.2421875
314.94140625,254.39453125,556.15234375,43.45703125
394.53125,999.51171875,999.51171875,48.33984375
-124.51171875,148.92578125,149.4140625,-62.5
-545.41015625,-1000.0,-1000.0,-131.34765625
-319.82421875,-1000.0,-995.60546875,-84.47265625
243.1640625,-105.46875,220.21484375,1.46484375
416.9921875,999.51171875,999.51171875,40.0390625
-47.8515625,312.5,181.15234375,-35.15625
-521.97265625,-999.51171875,-1000.0,-126.46484375
-376.46484375,-1000.0,-1000.0,-88.37890625
210.9375,32.71484375,34.66796875,19.04296875
451.171875,999.51171875,999.51171875,47.8515625
16.11328125,518.06640625,313.4765625,-40.52734375
-497.55859375,-816.89453125,-952.63671875,-134.27734375
-428.22265625,-1000.0,-1000.0,-108.88671875
147.94921875,-215.8203125,-161.1328125,-7.32421875
454.1015625,999.51171875,999.51171875,41.015625
101.5625,822.265625,525.390625,-21.484375
-429.6875,-511.71875,-826.171875,-120.60546875
-473.6328125,-1000.0,-1000.0,-113.76953125
65.91796875,-194.82421875,-202.63671875,-12.20703125
433.59375,960.44921875,999.51171875,46.38671875
160.64453125,999.51171875,841.30859375,-12.20703125
-366.69921875,126.46484375,-466.796875,-114.74609375
-511.71875,-1000.0,-1000.0,-133.30078125
6.8359375,-337.890625,-200.1953125,-33.69140625
453.125,965.33203125,999.51171875,51.26953125
226.07421875,999.51171875,948.2421875,-3.41796875
-337.40234375,6.8359375,-278.80859375,-124.51171875
-549.8046875,-1000.0,-1000.0,-154.296875
-65.4296875,-424.8046875,-263.671875,-63.96484375
421.875,883.7890625,969.23828125,17.08984375
275.390625,999.51171875,999.51171875,-9.765625
-262.6953125,193.84765625,-45.8984375,-101.5625
-540.0390625,-1000.0,-1000.0,-146.484375
-138.18359375,-687.98828125,-417.96875,-70.80078125
373.53515625,699.21875,884.765625,11.71875
320.3125,999.51171875,999.51171875,-6.8359375
-200.68359375,159.1796875,132.32421875,-92.28515625
-541.9921875,-1000.0,-1000.0,-143.5546875
-212.40234375,-992.1875,-657.2265625,-83.49609375
353.02734375,245.1171875,702.1484375,10.7421875
387.6953125,999.51171875,999.51171875,24.90234375
-124.0234375,281.25,164.55078125,-79.1015625
-536.62109375,-1000.0,-1000.0,-158.203125
-302.734375,-1000.0,-852.5390625,-106.4453125
276.85546875,171.875,464.84375,-6.34765625
397.94921875,999.51171875,999.51171875,19.53125
-87.40234375,279.296875,170.8984375,-65.4296875
-532.71484375,-1000.0,-1000.0,-144.04296875
-337.890625,-1000.0,-1000.0,-110.83984375
238.28125,104.98046875,215.33203125,-19.04296875
421.38671875,999.51171875,999.51171875,11.71875
-33.69140625,332.51953125,231.4453125,-70.3125
-513.18359375,-931.15234375,-996.58203125,-159.1796875
-377.9296875,-1000.0,-1000.0,-126.46484375
195.80078125,-187.5,-30.76171875,-13.18359375
427.24609375,999.51171875,999.51171875,30.2734375
51.26953125,985.3515625,470.703125,-49.31640625
-456.0546875,-223.6328125,-861.328125,-138.18359375
-463.37890625,-1000.0,-1000.0,-120.60546875
122.55859375,-209.47265625,-161.1328125,-20.99609375
458.49609375,999.51171875,999.51171875,39.0625
117.67578125,844.23828125,612.79296875,-14.16015625
-407.71484375,-480.46875,-743.65234375,-109.86328125
-478.515625,-1000.0,-1000.0,-114.74609375
75.1953125,-198.2421875,-200.68359375,-19.04296875
464.35546875,986.81640625,999.51171875,43.9453125
184.5703125,999.51171875,859.86328125,-18.06640625
-358.3984375,-72.75390625,-435.546875,-123.53515625
-518.5546875,-1000.0,-1000.0,-130.859375
-12.20703125,-245.60546875,-197.75390625,-33.69140625
434.08203125,966.796875,999.51171875,31.25
240.234375,999.51171875,996.09375,-5.37109375
-308.10546875,101.07421875,-173.33984375,-108.88671875
-539.0625,-1000.0,-1000.0,-144.53125
-67.3828125,-307.6171875,-276.3671875,-52.24609375
426.7578125,949.21875,954.58984375,33.203125
296.875,999.51171875,999.51171875,8.30078125
-245.1171875,207.51953125,53.22265625,-88.37890625
-555.6640625,-1000.0,-1000.0,-125.48828125
-172.36328125,-695.80078125,-481.4453125,-69.82421875
376.953125,689.94140625,849.609375,25.87890625
337.890625,999.51171875,999.51171875,28.3203125
-217.28515625,160.64453125,159.1796875,-87.40234375
-569.82421875,-1000.0,-1000.0,-146.484375
-254.8828125,-982.91015625,-687.5,-85.44921875
300.78125,264.16015625,672.8515625,15.13671875
369.62890625,999.51171875,999.51171875,28.3203125
-127.9296875,274.4140625,177.734375,-67.87109375
-537.59765625,-1000.0,-1000.0,-139.16015625
-306.15234375,-931.640625,-837.40234375,-88.8671875
273.4375,378.90625,481.93359375,12.6953125
403.3203125,999.51171875,999.51171875,28.3203125
-59.08203125,584.47265625,229.98046875,-61.5234375
-516.11328125,-725.5859375,-1000.0,-133.30078125
-372.55859375,-1000.0,-1000.0,-96.19140625
200.1953125,-184.5703125,129.8828125,-8.7890625
430.17578125,999.51171875,999.51171875,26.85546875
15.625,541.50390625,322.265625,-50.29296875
-508.7890625,-840.8203125,-952.63671875,-150.87890625
-434.08203125,-1000.0,-1000.0,-131.34765625
146.97265625,-205.078125,-76.171875,-24.4140625
439.453125,999.51171875,999.51171875,29.78515625
80.56640625,833.984375,520.5078125,-41.9921875
-446.2890625,-496.58203125,-823.2421875,-138.18359375
-478.02734375,-1000.0,-1000.0,-140.625
90.8203125,-193.84765625,-169.921875,-40.52734375
460.44921875,999.51171875,999.51171875,31.73828125
132.8125,924.8046875,691.89453125,-29.296875
-419.921875,-338.37890625,-653.3203125,-129.8828125
-519.53125,-1000.0,-1000.0,-131.8359375
6.8359375,-301.26953125,-204.58984375,-42.96875
421.38671875,960.44921875,999.51171875,22.94921875
185.546875,999.51171875,860.83984375,-21.97265625
-358.88671875,-121.58203125,-425.29296875,-121.09375
-535.15625,-1000.0,-1000.0,-132.8125
-45.8984375,-458.49609375,-274.4140625,-38.57421875
427.24609375,863.28125,982.91015625,40.0390625
263.671875,999.51171875,999.51171875,6.34765625
-300.78125,84.47265625,-179.19921875,-100.5859375
-582.03125,-1000.0,-1000.0,-150.390625
-155.2734375,-605.95703125,-415.0390625,-74.21875
373.53515625,760.25390625,892.08984375,19.53125
284.66796875,999.51171875,999.51171875,-0.48828125
-258.30078125,171.38671875,16.6015625,-99.609375
-562.5,-1000.0,-1000.0,-147.4609375
-212.40234375,-927.24609375,-645.01953125,-90.33203125
332.51953125,365.234375,702.63671875,7.8125
362.3046875,999.51171875,999.51171875,20.5078125
-166.9921875,196.77734375,108.3984375,-77.1484375
-549.31640625,-1000.0,-1000.0,-135.7421875
-287.109375,-1000.0,-886.71875,-80.56640625
268.06640625,63.4765625,405.76171875,13.18359375
378.41796875,999.51171875,999.51171875,35.64453125
-113.76953125,205.56640625,140.13671875,-61.5234375
-539.55078125,-1000.0,-1000.0,-140.625
-335.9375,-1000.0,-1000.0,-94.7265625
239.2578125,-105.46875,145.5078125,10.7421875
431.15234375,999.51171875,999.51171875,46.38671875
-36.62109375,315.91796875,172.36328125,-47.8515625
-525.87890625,-980.46875,-1000.0,-131.34765625
-378.90625,-1000.0,-1000.0,-99.609375
201.171875,-85.44921875,-13.671875,8.30078125
441.89453125,999.51171875,999.51171875,63.96484375
40.52734375,564.94140625,307.6171875,-13.18359375
-462.40234375,-791.9921875,-956.54296875,-110.3515625
-420.41015625,-1000.0,-1000.0,-88.8671875
144.53125,-221.19140625,-191.40625,16.6015625
471.6796875,999.51171875,999.51171875,79.1015625
121.09375,749.51171875,507.8125,19.04296875
-425.29296875,-618.65234375,-848.14453125,-104.4921875
-466.796875,-1000.0,-1000.0,-111.81640625
104.4921875,-178.22265625,-214.84375,-7.32421875
479.00390625,999.51171875,999.51171875,49.8046875
181.640625,999.51171875,768.06640625,-5.859375
-363.28125,-120.60546875,-566.89453125,-95.703125
-509.765625,-1000.0,-1000.0,-113.76953125
9.27734375,-303.22265625,-211.42578125,-28.80859375
462.890625,959.47265625,999.51171875,57.12890625
239.74609375,999.51171875,924.31640625,9.27734375
-320.80078125,-42.96875,-319.82421875,-94.7265625
-527.83203125,-1000.0,-1000.0,-114.74609375
-69.82421875,-499.0234375,-294.921875,-30.76171875
417.96875,832.03125,945.80078125,42.96875
293.45703125,999.51171875,999.51171875,17.08984375
-248.53515625,194.82421875,6.8359375,-78.61328125
-532.2265625,-1000.0,-1000.0,-127.44140625
-139.6484375,-754.8828125,-433.10546875,-54.19921875
378.90625,620.1171875,883.30078125,33.69140625
331.0546875,999.51171875,999.51171875,27.34375
-187.01171875,160.15625,127.44140625,-62.98828125
-525.87890625,-1000.0,-1000.0,-122.0703125
-214.84375,-973.14453125,-651.85546875,-56.640625
353.02734375,288.57421875,707.03125,45.41015625
401.3671875,999.51171875,999.51171875,47.36328125
-123.046875,240.234375,177.734375,-59.08203125
-528.3203125,-1000.0,-1000.0,-133.30078125
-261.71875,-686.03515625,-756.34765625,-86.42578125
321.77734375,690.4296875,589.35546875,21.484375
417.96875,999.51171875,999.51171875,38.57421875
-65.91796875,606.4453125,206.54296875,-70.80078125
-513.671875,-698.2421875,-1000.0,-146.97265625
-356.93359375,-1000.0,-1000.0,-104.98046875
233.88671875,-199.70703125,155.76171875,-6.8359375
435.546875,999.51171875,999.51171875,25.390625
-21.484375,437.5,266.6015625,-49.31640625
-506.34765625,-916.9921875,-980.95703125,-126.953125
-412.59765625,-1000.0,-1000.0,-104.00390625
177.734375,-217.28515625,-55.6640625,-2.9296875
454.1015625,999.51171875,999.51171875,55.17578125
59.08203125,814.94140625,462.40234375,-15.625
-459.9609375,-525.390625,-869.62890625,-115.234375
-466.30859375,-1000.0,-1000.0,-99.609375
118.1640625,-178.7109375,-166.9921875,13.671875
468.26171875,999.51171875,999.51171875,72.75390625
137.6953125,999.51171875,692.3828125,-4.39453125
-403.3203125,-141.6015625,-656.25,-116.69921875
-489.74609375,-1000.0,-1000.0,-117.67578125
47.36328125,-228.02734375,-204.58984375,-21.484375
446.77734375,958.49609375,999.51171875,40.52734375
203.125,999.51171875,852.05078125,-1.46484375
-342.7734375,182.6171875,-442.87109375,-101.5625
-529.296875,-1000.0,-1000.0,-123.53515625
-34.1796875,-458.984375,-225.09765625,-36.62109375
433.59375,888.671875,994.62890625,49.31640625
256.34765625,999.51171875,999.51171875,24.4140625
-282.71484375,199.21875,-137.6953125,-81.54296875
-536.1328125,-1000.0,-1000.0,-121.09375
-101.07421875,-527.34375,-316.89453125,-34.66796875
409.66796875,853.02734375,936.5234375,68.84765625
306.15234375,999.51171875,999.51171875,44.921875
-245.1171875,199.21875,73.73046875,-73.2421875
-555.17578125,-1000.0,-1000.0,-122.55859375
-151.3671875,-602.5390625,-479.98046875,-50.78125
390.13671875,785.64453125,854.98046875,48.828125
338.37890625,999.51171875,999.51171875,39.55078125
-196.2890625,163.57421875,144.04296875,-70.80078125
-550.29296875,-1000.0,-1000.0,-136.23046875
-252.44140625,-992.1875,-713.8671875,-80.078125
318.84765625,243.65234375,639.16015625,20.5078125
389.16015625,999.51171875,999.51171875,37.59765625
-121.09375,278.3203125,166.9921875,-49.8046875
-520.01953125,-980.46875,-1000.0,-116.69921875
-297.8515625,-1000.0,-926.26953125,-82.51953125
272.94921875,26.85546875,343.75,11.71875
434.08203125,999.51171875,999.51171875,45.41015625
-13.671875,657.2265625,237.79296875,-33.203125
-497.55859375,-670.8984375,-998.53515625,-116.69921875
-387.6953125,-1000.0,-1000.0,-99.12109375
207.51953125,-208.984375,67.3828125,6.8359375
419.921875,999.51171875,999.51171875,48.828125
-0.48828125,642.578125,239.2578125,-38.0859375
-465.8203125,-703.61328125,-941.89453125,-117.1875
-415.0390625,-1000.0,-1000.0,-95.703125
165.52734375,-195.80078125,-102.05078125,11.71875
469.23828125,999.51171875,999.51171875,65.4296875
105.46875,949.21875,541.9921875,-10.25390625
-421.875,-308.59375,-802.734375,-116.2109375
-465.8203125,-1000.0,-1000.0,-116.2109375
89.35546875,-182.12890625,-187.01171875,-8.7890625
450.1953125,999.51171875,999.51171875,60.05859375
166.50390625,999.51171875,772.4609375,1.953125
-380.859375,-160.15625,-560.05859375,-105.95703125
-523.4375,-1000.0,-1000.0,-124.0234375
16.11328125,-280.76171875,-192.87109375,-26.3671875
436.5234375,954.58984375,999.51171875,40.0390625
208.0078125,999.51171875,940.91796875,-3.41796875
-333.984375,18.5546875,-298.828125,-108.3984375
-541.015625,-1000.0,-1000.0,-145.01953125
-46.38671875,-189.453125,-198.2421875,-49.8046875
430.17578125,999.51171875,999.51171875,39.0625
261.23046875,999.51171875,999.51171875,13.671875
-279.296875,43.45703125,-81.0546875,-88.37890625
-545.41015625,-1000.0,-1000.0,-134.765625
-133.7890625,-688.4765625,-365.72265625,-61.03515625
386.71875,657.71484375,908.69140625,36.62109375
316.89453125,999.51171875,999.51171875,29.296875
-223.14453125,170.8984375,128.41796875,-72.75390625
-554.19921875,-1000.0,-1000.0,-128.41796875
-205.56640625,-902.34375,-580.56640625,-57.6171875
354.98046875,410.15625,776.3671875,40.0390625
376.953125,999.51171875,999.51171875,36.1328125
-148.92578125,188.96484375,179.6875,-62.98828125
-543.9453125,-1000.0,-1000.0,-123.53515625
-267.578125,-1000.0,-778.80859375,-76.171875
302.24609375,131.8359375,568.84765625,15.625
397.4609375,999.51171875,999.51171875,43.9453125
-106.93359375,187.01171875,167.96875,-51.26953125
-539.55078125,-1000.0,-1000.0,-130.859375
-318.84765625,-1000.0,-958.0078125,-74.21875
255.859375,81.0546875,290.52734375,20.99609375
433.10546875,999.51171875,999.51171875,38.57421875
-15.625,409.66796875,252.9296875,-46.875
-496.09375,-890.625,-992.1875,-125.0
-376.46484375,-1000.0,-1000.0,-105.46875
192.3828125,-229.98046875,26.3671875,-11.23046875
452.1484375,999.51171875,999.51171875,39.0625
51.26953125,559.5703125,380.37109375,-31.25
-482.421875,-826.66015625,-924.31640625,-128.41796875
-453.125,-1000.0,-1000.0,-119.62890625
135.25390625,-203.61328125,-124.0234375,-11.71875
457.03125,999.51171875,999.51171875,45.8984375
124.51171875,924.8046875,625.9765625,-20.5078125
-413.0859375,-355.95703125,-727.05078125,-98.6328125
-486.328125,-1000.0,-1000.0,-77.1484375
76.171875,-180.17578125,-171.38671875,22.94921875
459.47265625,999.51171875,999.51171875,90.8203125
173.33984375,999.51171875,827.1484375,43.9453125
-377.9296875,-174.8046875,-478.515625,-53.22265625
-526.3671875,-1000.0,-1000.0,-73.2421875
-11.23046875,-326.66015625,-199.21875,13.18359375
437.01171875,924.8046875,999.51171875,90.8203125
239.74609375,999.51171875,975.09765625,52.734375
-313.4765625,103.515625,-214.84375,-52.734375
-541.50390625,-1000.0,-1000.0,-83.49609375
-86.9140625,-520.01953125,-291.015625,6.34765625
416.9921875,840.33203125,945.3125,102.5390625
293.9453125,999.51171875,999.51171875,77.1484375
-264.16015625,207.03125,53.22265625,-35.15625
-567.3828125,-1000.0,-1000.0,-86.42578125
-155.2734375,-504.8828125,-405.76171875,-3.90625
387.20703125,867.1875,902.34375,94.23828125
321.2890625,999.51171875,999.51171875,73.73046875
-210.9375,176.7578125,128.90625,-35.64453125
-553.7109375,-1000.0,-1000.0,-88.8671875
-230.46875,-950.68359375,-667.48046875,-33.203125
334.47265625,335.9375,689.453125,62.01171875
382.8125,999.51171875,999.51171875,81.54296875
-147.94921875,148.92578125,164.55078125,-23.92578125
-550.29296875,-1000.0,-1000.0,-106.93359375
-294.921875,-1000.0,-858.3984375,-53.7109375
283.203125,153.80859375,453.125,50.29296875
414.55078125,999.51171875,999.51171875,71.77734375
-76.66015625,260.7421875,169.921875,-26.85546875
-524.4140625,-977.5390625,-1000.0,-115.234375
-336.9140625,-1000.0,-1000.0,-73.2421875
237.3046875,-89.35546875,138.18359375,25.87890625
426.7578125,999.51171875,999.51171875,41.015625
-2.44140625,559.08203125,276.3671875,-51.26953125
-477.5390625,-830.078125,-979.98046875,-130.37109375
-402.34375,-1000.0,-1000.0,-98.14453125
162.109375,-25.87890625,-38.0859375,-2.44140625
442.3828125,999.51171875,999.51171875,55.17578125
63.96484375,662.59765625,431.640625,-13.18359375
-456.0546875,-678.22265625,-884.765625,-115.234375
-456.0546875,-1000.0,-1000.0,-102.05078125
121.09375,-182.12890625,-192.87109375,-3.41796875
464.35546875,999.51171875,999.51171875,57.6171875
150.390625,999.51171875,669.43359375,0.0
-387.6953125,-146.484375,-682.12890625,-106.93359375
-496.58203125,-1000.0,-1000.0,-123.046875
46.875,-239.74609375,-191.40625,-29.296875
447.265625,949.70703125,999.51171875,54.6875
204.58984375,999.51171875,955.56640625,15.625
-316.89453125,215.33203125,-267.08984375,-75.1953125
-519.04296875,-1000.0,-1000.0,-101.5625
-30.76171875,-349.609375,-219.23828125,-24.90234375
434.5703125,955.56640625,999.51171875,53.7109375
255.37109375,999.51171875,999.51171875,24.4140625
-284.66796875,132.8125,-130.37109375,-80.078125
-542.48046875,-1000.0,-1000.0,-120.1171875
-116.2109375,-660.64453125,-351.5625,-36.1328125
396.484375,712.40234375,920.41015625,46.38671875
314.94140625,999.51171875,999.51171875,25.390625
-235.83984375,195.3125,72.265625,-80.56640625
-550.29296875,-1000.0,-1000.0,-128.41796875
-157.2265625,-476.07421875,-455.078125,-57.12890625
386.23046875,884.27734375,869.62890625,32.71484375
349.12109375,999.51171875,999.51171875,33.203125
-171.875,176.26953125,165.52734375,-63.96484375
-533.69140625,-1000.0,-1000.0,-122.0703125
-243.65234375,-967.7734375,-726.07421875,-66.40625
324.70703125,298.33984375,627.44140625,30.76171875
386.71875,999.51171875,999.51171875,39.55078125
-125.48828125,196.2890625,162.59765625,-60.546875
-541.9921875,-1000.0,-1000.0,-131.8359375
-326.66015625,-1000.0,-960.44921875,-83.984375
256.34765625,38.0859375,289.0625,28.3203125
425.29296875,999.51171875,999.51171875,69.82421875
-49.8046875,378.41796875,212.40234375,-17.578125
-526.3671875,-914.0625,-1000.0,-102.05078125
-384.27734375,-1000.0,-1000.0,-68.359375
190.91796875,-228.515625,24.90234375,34.1796875
429.6875,999.51171875,999.51171875,77.63671875
29.296875,598.14453125,344.23828125,-9.27734375
-468.75,-790.0390625,-943.84765625,-108.88671875
-401.3671875,-1000.0,-1000.0,-88.37890625
162.109375,-187.98828125,-116.69921875,16.6015625
434.08203125,999.51171875,999.51171875,60.05859375
104.00390625,999.51171875,618.1640625,-18.5546875
-421.38671875,-178.7109375,-732.91015625,-116.69921875
-461.9140625,-1000.0,-1000.0,-101.5625
116.2109375,-197.265625,-192.3828125,15.625
450.68359375,999.51171875,999.51171875,64.453125
137.6953125,945.80078125,739.74609375,-14.6484375
-384.765625,-297.8515625,-603.515625,-116.69921875
-498.046875,-1000.0,-1000.0,-116.2109375
5.859375,-277.34375,-193.359375,-19.04296875
430.17578125,944.82421875,999.51171875,53.22265625
228.02734375,999.51171875,950.68359375,23.92578125
-312.01171875,55.6640625,-272.4609375,-71.77734375
-510.7421875,-1000.0,-1000.0,-101.5625
-40.0390625,-372.55859375,-243.1640625,-17.578125
415.52734375,922.8515625,979.4921875,65.4296875
259.27734375,999.51171875,999.51171875,26.85546875
-275.87890625,140.13671875,-56.15234375,-85.44921875
-560.546875,-1000.0,-1000.0,-128.41796875
-147.4609375,-642.578125,-391.11328125,-53.7109375
395.01953125,734.375,901.85546875,44.43359375
323.73046875,999.51171875,999.51171875,43.45703125
-215.8203125,174.31640625,101.07421875,-74.21875
-556.15234375,-1000.0,-1000.0,-138.18359375
-226.07421875,-892.578125,-629.8828125,-64.94140625
344.7265625,431.640625,726.07421875,31.73828125
368.1640625,999.51171875,999.51171875,34.66796875
-164.55078125,134.27734375,152.83203125,-66.89453125
-547.8515625,-1000.0,-1000.0,-129.8828125
-283.69140625,-1000.0,-884.27734375,-62.01171875
300.29296875,-25.87890625,417.96875,48.33984375
424.31640625,999.51171875,999.51171875,59.5703125
-92.28515625,197.75390625,154.78515625,-47.8515625
-536.1328125,-1000.0,-1000.0,-133.30078125
-342.7734375,-1000.0,-1000.0,-90.8203125
228.515625,-120.60546875,163.0859375,8.7890625
424.8046875,999.51171875,999.51171875,34.1796875
15.13671875,978.02734375,304.19921875,-37.59765625
-468.26171875,-220.703125,-963.8671875,-113.76953125
-397.94921875,-1000.0,-1000.0,-102.5390625
175.29296875,-219.23828125,-43.9453125,-0.48828125
443.84765625,999.51171875,999.51171875,59.08203125
61.03515625,730.95703125,415.0390625,-25.390625
-463.8671875,-640.625,-904.296875,-130.37109375
-446.77734375,-1000.0,-1000.0,-111.328125
136.71875,-195.3125,-150.87890625,-8.7890625
459.47265625,999.51171875,999.51171875,46.875
124.51171875,932.6171875,640.13671875,-20.5078125
-417.48046875,-334.47265625,-711.9140625,-134.765625
-491.69921875,-1000.0,-1000.0,-137.6953125
60.05859375,-214.35546875,-191.40625,-28.80859375
437.01171875,975.09765625,999.51171875,41.50390625
187.5,999.51171875,884.765625,-2.9296875
-348.14453125,7.8125,-393.06640625,-100.09765625
-516.11328125,-1000.0,-1000.0,-120.60546875
-9.27734375,-521.97265625,-214.35546875,-32.71484375
426.7578125,846.19140625,999.51171875,50.29296875
238.28125,999.51171875,980.46875,14.16015625
-291.50390625,27.83203125,-206.54296875,-95.21484375
-538.57421875,-1000.0,-1000.0,-127.44140625
-95.21484375,-489.2578125,-293.45703125,-40.0390625
413.57421875,852.5390625,947.75390625,47.36328125
290.52734375,999.51171875,999.51171875,16.6015625
-246.58203125,177.734375,39.0625,-92.28515625
-548.33984375,-1000.0,-1000.0,-144.53125
-167.96875,-696.77734375,-446.2890625,-62.01171875
381.8359375,682.6171875,871.09375,39.0625
345.703125,999.51171875,999.51171875,31.25
-178.7109375,168.45703125,170.8984375,-67.87109375
-534.66796875,-1000.0,-1000.0,-119.62890625
-235.83984375,-1000.0,-687.01171875,-57.6171875
333.984375,188.4765625,672.36328125,24.4140625
387.6953125,999.51171875,999.51171875,36.1328125
-111.328125,704.58984375,186.03515625,-61.03515625
-525.87890625,-617.1875,-1000.0,-149.4140625
-321.2890625,-1000.0,-904.78515625,-104.00390625
260.25390625,-58.10546875,389.6484375,13.18359375
421.875,999.51171875,999.51171875,42.96875
-51.7578125,329.58984375,199.21875,-55.6640625
-522.94921875,-965.33203125,-1000.0,-137.6953125
-355.46875,-1000.0,-1000.0,-90.33203125
237.79296875,-129.8828125,160.15625,17.578125
452.63671875,999.51171875,999.51171875,54.6875
25.87890625,592.7734375,340.33203125,-32.2265625
-466.30859375,-825.68359375,-960.44921875,-125.9765625
-394.53125,-1000.0,-1000.0,-99.609375
170.41015625,85.44921875,40.52734375,0.0
440.4296875,999.51171875,999.51171875,43.45703125
83.49609375,765.13671875,529.296875,-17.08984375
-451.171875,-524.4140625,-798.33984375,-108.88671875
-469.7265625,-1000.0,-1000.0,-107.421875
108.3984375,-189.453125,-157.71484375,-0.9765625
451.66015625,999.51171875,999.51171875,59.5703125
153.80859375,968.26171875,744.62890625,3.90625
-391.11328125,-278.3203125,-590.8203125,-102.5390625
-503.90625,-1000.0,-1000.0,-124.51171875
44.43359375,-164.0625,-178.22265625,-20.5078125
470.21484375,974.609375,999.51171875,66.40625
237.3046875,999.51171875,971.19140625,18.06640625
-313.96484375,170.41015625,-232.91015625,-95.21484375
-523.92578125,-1000.0,-1000.0,-124.51171875
-33.69140625,-421.875,-205.078125,-37.59765625
438.96484375,905.2734375,990.234375,36.1328125
266.11328125,999.51171875,999.51171875,-10.25390625
-271.484375,202.63671875,-17.578125,-115.72265625
-524.90234375,-1000.0,-1000.0,-154.78515625
-105.46875,-596.19140625,-323.73046875,-82.03125
396.484375,788.57421875,933.59375,5.37109375
303.7109375,999.51171875,999.51171875,-23.4375
-220.21484375,220.703125,149.90234375,-135.7421875
-541.015625,-1000.0,-1000.0,-190.91796875
-192.87109375,-868.65234375,-527.34375,-124.51171875
385.25390625,478.02734375,825.1953125,-13.18359375
383.7890625,999.51171875,999.51171875,-16.6015625
-150.87890625,158.203125,184.5703125,-127.44140625
-520.99609375,-1000.0,-1000.0,-187.98828125
-238.76953125,-969.7265625,-698.2421875,-164.55078125
335.44921875,282.71484375,663.0859375,-107.91015625
411.62109375,999.51171875,999.51171875,-115.234375
-84.47265625,318.84765625,198.2421875,-218.26171875
-513.671875,-1000.0,-1000.0,-284.1796875
-299.31640625,-848.14453125,-831.0546875,-229.4921875
298.33984375,506.34765625,488.28125,-113.28125
437.98828125,999.51171875,999.51171875,-86.9140625
-16.6015625,449.21875,273.4375,-177.734375
-490.234375,-878.90625,-998.046875,-266.11328125
-375.9765625,-1000.0,-1000.0,-248.53515625
212.890625,7.8125,140.13671875,-153.3203125
439.94140625,999.51171875,999.51171875,-112.79296875
34.66796875,700.1953125,419.921875,-183.59375
-472.65625,-624.51171875,-890.13671875,-284.66796875
-445.3125,-1000.0,-1000.0,-285.15625
139.6484375,-194.82421875,-85.44921875,-187.5
450.1953125,999.51171875,999.51171875,-129.39453125
106.93359375,892.578125,611.328125,-177.734375
-421.875,-405.2734375,-733.3984375,-248.53515625
-488.76953125,-1000.0,-1000.0,-242.67578125
64.453125,-183.59375,-192.3828125,-145.99609375
440.91796875,990.72265625,999.51171875,-79.58984375
169.921875,999.51171875,829.58984375,-134.27734375
-362.79296875,-53.7109375,-481.93359375,-224.609375
-521.484375,-1000.0,-1000.0,-228.515625
9.765625,-181.15234375,-190.4296875,-127.44140625
442.3828125,999.0234375,999.51171875,-49.8046875
209.47265625,999.51171875,948.73046875,-96.19140625
-320.80078125,55.17578125,-265.625,-197.265625
-534.66796875,-1000.0,-1000.0,-214.35546875
-90.8203125,-513.671875,-272.94921875,-130.37109375
407.2265625,834.9609375,956.54296875,-43.45703125
282.71484375,999.51171875,999.51171875,-61.5234375
-261.71875,196.2890625,18.06640625,-164.0625
-556.640625,-1000.0,-1000.0,-212.890625
-162.109375,-731.4453125,-426.7578125,-135.25390625
378.90625,642.578125,882.32421875,-22.94921875
354.98046875,999.51171875,999.51171875,-22.94921875
-166.015625,244.62890625,176.26953125,-126.46484375
-542.48046875,-1000.0,-1000.0,-174.31640625
-213.37890625,-608.3984375,-574.21875,-96.6796875
344.7265625,792.96875,791.9921875,2.9296875
359.375,999.51171875,999.51171875,-2.9296875
-145.99609375,148.92578125,161.1328125,-93.26171875
-540.52734375,-1000.0,-1000.0,-134.27734375
-281.73828125,-1000.0,-872.0703125,-74.21875
296.38671875,46.875,432.6171875,24.90234375
414.55078125,999.51171875,999.51171875,43.45703125
-68.84765625,384.27734375,182.6171875,-37.59765625
-515.13671875,-930.17578125,-1000.0,-84.47265625
-345.21484375,-1000.0,-1000.0,-34.66796875
223.14453125,-72.75390625,184.5703125,49.8046875
421.875,999.51171875,999.51171875,92.28515625
-7.8125,503.90625,281.73828125,50.78125
-490.72265625,-849.12109375,-976.07421875,-18.06640625
-389.16015625,-1000.0,-1000.0,23.4375
173.33984375,-218.26171875,-32.2265625,138.671875
431.640625,999.51171875,999.51171875,184.08203125
63.96484375,722.65625,434.08203125,119.62890625
-447.75390625,-649.4140625,-885.25390625,32.2265625
-440.4296875,-1000.0,-1000.0,37.59765625
107.421875,-183.59375,-170.41015625,100.5859375
438.4765625,999.51171875,999.51171875,140.13671875
134.27734375,999.51171875,664.55078125,93.26171875
-409.1796875,-185.05859375,-686.5234375,-20.5078125
-504.8828125,-1000.0,-1000.0,-25.390625
45.41015625,-243.65234375,-199.21875,80.078125
423.33984375,999.51171875,999.51171875,-467.28515625
142.08984375,925.29296875,872.0703125,-1000.0
-374.51171875,-350.5859375,-415.0390625,-1000.0
-509.27734375,-1000.0,-1000.0,-854.98046875
-6.34765625,-280.2734375,-203.125,-534.66796875
424.31640625,952.63671875,999.51171875,-539.0625
242.67578125,999.51171875,999.51171875,-771.484375
-296.875,-19.53125,-154.296875,-960.44921875
-547.8515625,-1000.0,-1000.0,-1000.0
-109.86328125,-402.83203125,-292.96875,-993.65234375
377.9296875,894.04296875,949.21875,-998.53515625
288.57421875,999.51171875,999.51171875,-962.890625
-246.09375,164.0625,47.36328125,-932.12890625
-557.12890625,-1000.0,-1000.0,-887.6953125
-171.875,-744.62890625,-498.53515625,-804.6875
385.7421875,623.046875,837.40234375,-749.0234375
371.58203125,999.51171875,999.51171875,-723.14453125
-176.26953125,162.109375,144.53125,-704.1015625
-526.85546875,-1000.0,-1000.0,-666.015625
-220.703125,-956.0546875,-718.75,-603.02734375
333.49609375,303.7109375,632.32421875,-543.45703125
404.78515625,999.51171875,999.51171875,-519.53125
-98.14453125,303.7109375,162.59765625,-529.78515625
-531.25,-966.30859375,-1000.0,-517.578125
-320.3125,-1000.0,-962.40234375,-466.30859375
253.41796875,19.04296875,289.55078125,-409.1796875
407.71484375,999.51171875,999.51171875,-391.6015625
-50.29296875,356.4453125,193.359375,-401.85546875
-506.34765625,-937.01171875,-1000.0,-381.8359375
-367.1875,-1000.0,-1000.0,-332.51953125
208.984375,-148.4375,70.3125,-293.45703125
444.82421875,999.51171875,999.51171875,-284.66796875
32.71484375,707.51953125,344.23828125,-300.29296875
-476.5625,-669.43359375,-948.2421875,-303.22265625
-421.875,-1000.0,-1000.0,-262.20703125
145.99609375,-68.84765625,-66.89453125,-218.26171875
418.45703125,999.51171875,999.51171875,-208.984375
83.984375,869.62890625,518.5546875,-226.07421875
-420.8984375,-408.69140625,-818.84765625,-236.81640625
-461.9140625,-1000.0,-1000.0,-209.47265625
100.5859375,-182.6171875,-191.89453125,-164.0625
444.82421875,999.51171875,999.51171875,-153.80859375
142.578125,999.51171875,727.05078125,-183.59375
-368.65234375,-197.75390625,-619.140625,-191.40625
-487.3046875,-1000.0,-1000.0,-157.2265625
24.4140625,-161.1328125,-193.84765625,-122.0703125
444.82421875,976.5625,999.51171875,-114.74609375
210.44921875,999.51171875,934.08203125,-137.20703125
-328.125,203.125,-299.8046875,-166.50390625
-542.96875,-1000.0,-1000.0,-149.90234375
-75.1953125,-504.8828125,-256.8359375,-110.3515625
413.57421875,869.62890625,976.07421875,-98.6328125
259.27734375,999.51171875,999.51171875,-118.1640625
-291.50390625,152.34375,-75.1953125,-144.04296875
-560.05859375,-1000.0,-1000.0,-128.90625
-138.18359375,-575.1953125,-385.7421875,-89.35546875
384.27734375,804.19921875,898.92578125,-66.40625
300.78125,999.51171875,999.51171875,-85.9375
-236.81640625,169.43359375,128.41796875,-120.1171875
-567.3828125,-1000.0,-1000.0,-115.234375
-237.3046875,-951.66015625,-617.67578125,-77.63671875
322.265625,301.7578125,739.2578125,-54.6875
335.9375,999.51171875,999.51171875,-80.078125
-177.734375,419.43359375,168.45703125,-114.74609375
-548.33984375,-914.0625,-1000.0,-105.46875
-290.52734375,-1000.0,-854.00390625,-57.6171875
279.78515625,68.84765625,465.8203125,-38.0859375
397.4609375,999.51171875,999.51171875,-53.22265625
-91.30859375,236.328125,161.1328125,-68.359375
-531.73828125,-1000.0,-1000.0,-79.1015625
-357.421875,-1000.0,-970.703125,-70.3125
203.125,11.71875,263.671875,-46.38671875
383.7890625,999.51171875,999.51171875,-52.734375
-62.98828125,435.05859375,236.328125,-87.890625
-533.203125,-886.23046875,-996.58203125,-83.0078125
-409.66796875,-1000.0,-1000.0,-53.7109375
168.45703125,-179.6875,0.0,-38.57421875
414.0625,999.51171875,999.51171875,-37.59765625
51.26953125,953.61328125,425.29296875,-55.6640625
-440.91796875,-293.9453125,-892.08984375,-59.5703125
-440.91796875,-1000.0,-1000.0,-33.203125
112.3046875,-211.9140625,-142.08984375,-15.625
426.7578125,999.51171875,999.51171875,-20.01953125
98.14453125,714.84375,563.96484375,-44.43359375
-430.17578125,-657.71484375,-787.109375,-69.82421875
-482.421875,-1000.0,-1000.0,-58.10546875
60.05859375,-184.5703125,-199.70703125,-28.80859375
439.453125,988.28125,999.51171875,-21.97265625
189.453125,999.51171875,846.19140625,-42.48046875
-338.8671875,-65.4296875,-457.51953125,-59.5703125
-502.44140625,-1000.0,-1000.0,-34.66796875
-0.9765625,-319.82421875,-193.359375,-0.9765625
443.359375,924.31640625,999.51171875,10.25390625
251.953125,999.51171875,999.51171875,-18.5546875
-297.36328125,215.8203125,-113.76953125,-61.03515625
-545.8984375,-1000.0,-1000.0,-52.734375
-96.19140625,-442.87109375,-286.62109375,-23.92578125
404.78515625,906.73828125,960.9375,-9.27734375
296.875,999.51171875,999.51171875,-34.66796875
-257.8125,165.0390625,13.671875,-61.03515625
-560.05859375,-1000.0,-1000.0,-47.8515625
-146.484375,-759.27734375,-454.58984375,-28.3203125
382.8125,605.46875,867.67578125,-103.515625
322.265625,999.51171875,999.51171875,-177.24609375
-201.66015625,166.015625,127.9296875,-161.1328125
-536.62109375,-1000.0,-1000.0,-154.78515625
-229.00390625,-926.26953125,-654.78515625,-129.8828125
330.56640625,368.65234375,702.63671875,-108.88671875
385.7421875,999.51171875,999.51171875,-119.140625
-135.7421875,178.7109375,160.64453125,-130.37109375
-533.69140625,-1000.0,-1000.0,-110.3515625
-299.8046875,-1000.0,-921.38671875,-95.703125
265.625,-64.453125,356.4453125,-97.16796875
418.45703125,999.51171875,999.51171875,-70.3125
-50.78125,372.0703125,177.24609375,-51.7578125
-507.32421875,-960.9375,-1000.0,-68.359375
-338.8671875,-1000.0,-1000.0,-76.66015625
230.95703125,2.44140625,131.34765625,-76.66015625
430.6640625,999.51171875,999.51171875,-93.75
5.859375,504.8828125,279.296875,-95.21484375
-479.00390625,-832.03125,-967.7734375,-86.42578125
-414.0625,-1000.0,-1000.0,-76.66015625
145.99609375,-226.5625,-113.76953125,-86.42578125
436.5234375,999.51171875,999.51171875,-93.26171875
80.078125,722.65625,457.03125,-77.1484375
-432.6171875,-650.87890625,-875.9765625,-66.40625
-459.47265625,-1000.0,-1000.0,-58.10546875
98.6328125,-157.71484375,-189.453125,-52.734375
448.2421875,963.8671875,999.51171875,-60.546875
147.4609375,999.51171875,748.53515625,-45.41015625
-374.51171875,194.3359375,-589.35546875,-13.18359375
-493.65234375,-1000.0,-1000.0,16.6015625
25.87890625,-340.8203125,-200.1953125,54.6875
426.26953125,990.72265625,999.51171875,-9.765625
192.87109375,999.51171875,887.20703125,-81.54296875
-330.078125,-104.98046875,-388.18359375,-69.82421875
-514.6484375,-1000.0,-1000.0,-50.78125
-34.1796875,-390.13671875,-229.98046875,-30.2734375
417.96875,894.04296875,990.234375,-13.671875
235.83984375,999.51171875,999.51171875,-27.34375
-294.43359375,155.2734375,-116.2109375,-60.05859375
-541.50390625,-1000.0,-1000.0,-60.05859375
-113.76953125,-599.12109375,-344.7265625,-48.33984375
397.94921875,780.2734375,924.8046875,-50.29296875
301.26953125,999.51171875,999.51171875,-58.59375
-243.1640625,181.15234375,73.2421875,-67.87109375
-560.05859375,-1000.0,-1000.0,-61.5234375
-193.84765625,-849.609375,-539.55078125,-49.31640625
356.93359375,492.67578125,805.6640625,-43.9453125
352.5390625,999.51171875,999.51171875,-47.8515625
-172.36328125,161.62109375,155.2734375,-46.875
-538.57421875,-1000.0,-1000.0,-39.0625
-256.8359375,-948.2421875,-759.27734375,-34.1796875
318.84765625,326.171875,588.8671875,-31.73828125
391.6015625,999.51171875,999.51171875,-38.0859375
-123.046875,226.5625,160.64453125,-33.203125
-527.83203125,-979.4921875,-1000.0,-31.73828125
-312.01171875,-1000.0,-962.890625,-34.1796875
251.953125,-115.72265625,280.2734375,-28.80859375
416.9921875,999.51171875,999.51171875,-34.1796875
-20.99609375,472.16796875,221.6796875,-45.41015625
-479.98046875,-878.90625,-1000.0,-37.59765625
-358.88671875,-1000.0,-1000.0,-19.04296875
212.890625,-190.91796875,17.578125,-16.6015625
437.5,999.51171875,999.51171875,-33.69140625
41.9921875,999.51171875,396.484375,-41.50390625
-450.1953125,-202.1484375,-916.50390625,-21.97265625
-431.15234375,-1000.0,-1000.0,-28.3203125
137.20703125,-145.01953125,-103.02734375,103.02734375
445.80078125,999.51171875,999.51171875,350.5859375
107.421875,829.1015625,533.69140625,409.66796875
-412.109375,-483.3984375,-809.08203125,381.34765625
-464.84375,-1000.0,-1000.0,333.984375
77.63671875,-208.984375,-199.70703125,262.6953125
444.82421875,999.51171875,999.51171875,169.921875
156.25,999.51171875,780.76171875,12.6953125
-375.9765625,-187.98828125,-547.8515625,-75.1953125
-500.9765625,-1000.0,-1000.0,-42.48046875
-9.27734375,-395.01953125,-201.66015625,-3.41796875
409.1796875,910.64453125,999.51171875,-58.10546875
202.63671875,999.51171875,944.3359375,-146.97265625
-330.078125,-50.29296875,-287.59765625,-157.71484375
-539.55078125,-1000.0,-1000.0,-138.18359375
-54.19921875,-247.0703125,-250.0,-114.74609375
423.33984375,999.51171875,993.65234375,-122.0703125
232.91015625,999.51171875,999.51171875,-158.203125
-304.19921875,-135.25390625,-150.87890625,-161.62109375
-552.734375,-1000.0,-1000.0,-143.06640625
-176.7578125,-856.4453125,-488.28125,-135.25390625
347.16796875,402.34375,832.51953125,-135.7421875
310.546875,999.51171875,999.51171875,-129.8828125
-209.47265625,156.25,76.66015625,-118.1640625
-534.1796875,-1000.0,-1000.0,-104.00390625
-221.6796875,-985.83984375,-673.828125,-98.6328125
321.2890625,268.5546875,676.26953125,-97.65625
359.86328125,999.51171875,999.51171875,-96.19140625
-150.390625,187.5,155.76171875,-95.703125
-533.69140625,-1000.0,-1000.0,-79.1015625
-270.99609375,-1000.0,-845.21484375,-65.91796875
292.48046875,131.8359375,466.796875,-73.73046875
395.99609375,999.51171875,999.51171875,-80.078125
-59.5703125,657.71484375,195.3125,-80.078125
-501.46484375,-663.0859375,-1000.0,-72.265625
-352.5390625,-1000.0,-1000.0,-69.3359375
236.328125,-161.62109375,160.64453125,-74.70703125
434.08203125,999.51171875,999.51171875,-73.73046875
16.11328125,582.51953125,281.73828125,-62.98828125
-461.42578125,-799.8046875,-980.46875,-62.98828125
-379.8828125,-1000.0,-1000.0,-62.5
186.03515625,-179.19921875,-8.30078125,-60.546875
450.1953125,999.51171875,999.51171875,-62.5
77.63671875,810.05859375,466.796875,-64.453125
-437.5,-551.7578125,-870.60546875,-51.7578125
-434.08203125,-1000.0,-1000.0,-45.8984375
136.23046875,-44.43359375,-96.6796875,-44.43359375
457.03125,999.51171875,999.51171875,-39.0625
134.765625,868.65234375,647.94921875,-43.9453125
-392.578125,-398.92578125,-690.91796875,-44.43359375
-491.69921875,-1000.0,-1000.0,-42.48046875
37.59765625,-194.82421875,-197.75390625,-42.96875
432.6171875,999.51171875,999.51171875,-49.8046875
181.640625,999.51171875,851.5625,-44.921875
-345.703125,-147.4609375,-448.2421875,-32.71484375
-523.4375,-1000.0,-1000.0,-26.85546875
-31.73828125,-335.44921875,-208.984375,-32.71484375
442.3828125,922.36328125,999.51171875,-31.25
262.6953125,999.51171875,996.09375,-29.296875
-287.109375,87.40234375,-167.96875,-39.55078125
-521.484375,-1000.0,-1000.0,-27.83203125
-86.9140625,-776.3671875,-361.328125,-19.53125
408.203125,565.91796875,922.36328125,-20.99609375
304.6875,999.51171875,999.51171875,-27.83203125
-238.28125,157.71484375,5.859375,-32.2265625
-535.64453125,-1000.0,-1000.0,-24.90234375
-158.69140625,-817.87109375,-518.06640625,-22.4609375
370.60546875,515.625,814.453125,-21.484375
335.44921875,999.51171875,999.51171875,-29.296875
-182.12890625,291.9921875,160.64453125,-31.73828125
-527.34375,-1000.0,-1000.0,-16.6015625
-236.81640625,-1000.0,-728.515625,-19.53125
318.84765625,281.25,627.44140625,-33.203125
383.7890625,999.51171875,999.51171875,-40.0390625
-108.88671875,230.46875,157.71484375,-34.1796875
-507.8125,-982.421875,-1000.0,-28.3203125
-291.50390625,-1000.0,-958.0078125,-38.57421875
257.32421875,-97.16796875,293.9453125,-40.0390625
405.76171875,999.51171875,999.51171875,-32.71484375
-46.875,385.25390625,199.21875,-34.66796875
-506.8359375,-980.46875,-1000.0,-37.59765625
-354.00390625,-1000.0,-1000.0,-29.296875
212.890625,129.8828125,160.64453125,-28.3203125
414.55078125,999.51171875,999.51171875,-39.0625
18.06640625,627.9296875,333.984375,-43.9453125
-466.30859375,-690.4296875,-938.4765625,-26.3671875
-415.0390625,-1000.0,-1000.0,-14.6484375
151.3671875,-206.54296875,-116.2109375,-29.78515625
446.77734375,999.51171875,999.51171875,-41.015625
84.47265625,839.84375,513.18359375,-43.45703125
-421.875,-489.74609375,-833.0078125,-26.3671875
-465.33203125,-1000.0,-1000.0,-23.4375
60.05859375,-193.84765625,-194.3359375,-45.41015625
436.03515625,999.51171875,999.51171875,-37.109375
140.625,923.828125,719.23828125,-31.25
-396.484375,-338.8671875,-630.37109375,-31.25
-493.65234375,-1000.0,-1000.0,-21.97265625
19.53125,-300.29296875,-197.75390625,-27.83203125
428.22265625,947.265625,999.51171875,-40.0390625
222.16796875,999.51171875,909.66796875,-38.0859375
-320.80078125,-41.015625,-345.703125,-32.71484375
-525.87890625,-1000.0,-1000.0,-36.62109375
-32.2265625,-408.203125,-244.140625,-32.71484375
438.4765625,882.8125,975.09765625,-32.71484375
273.4375,999.51171875,999.51171875,-35.64453125
-255.859375,219.7265625,-50.78125,-21.484375
-535.64453125,-1000.0,-1000.0,-24.90234375
-143.06640625,-753.41796875,-388.18359375,-43.9453125
372.55859375,626.46484375,900.390625,-41.50390625
307.12890625,999.51171875,999.51171875,-40.52734375
-208.984375,178.7109375,133.7890625,-41.50390625
-525.87890625,-1000.0,-1000.0,-29.296875
-191.89453125,-815.4296875,-553.22265625,-28.3203125
353.515625,534.1796875,802.734375,-35.64453125
371.58203125,999.51171875,999.51171875,-35.64453125
-137.6953125,239.74609375,184.5703125,-27.34375
-518.06640625,-1000.0,-1000.0,-11.71875
-238.28125,-709.9609375,-718.26171875,-12.20703125
309.5703125,657.2265625,637.6953125,-19.53125
388.18359375,999.51171875,999.51171875,-21.484375
-67.3828125,491.2109375,197.265625,-22.4609375
-505.37109375,-837.890625,-1000.0,-23.92578125
-319.82421875,-1000.0,-979.4921875,-27.83203125
253.41796875,-53.22265625,261.71875,-31.73828125
419.921875,999.51171875,999.51171875,-46.875
-15.13671875,455.56640625,250.9765625,-50.29296875
-479.00390625,-886.23046875,-995.1171875,-33.203125
-370.1171875,-1000.0,-1000.0,-27.34375
197.75390625,-208.984375,29.296875,-35.64453125
443.84765625,999.51171875,999.51171875,-47.8515625
40.0390625,601.5625,376.46484375,-40.52734375
-463.37890625,-783.69140625,-919.43359375,-26.3671875
-432.6171875,-1000.0,-1000.0,-22.94921875
126.46484375,-171.38671875,-166.015625,-21.97265625
441.89453125,975.09765625,999.51171875,-28.3203125
134.765625,999.51171875,690.4296875,-28.80859375
-374.0234375,46.38671875,-660.64453125,-18.06640625
-448.73046875,-1000.0,-1000.0,-5.859375
89.35546875,-185.05859375,-188.4765625,20.99609375
457.51953125,995.60546875,999.51171875,70.80078125
190.4296875,999.51171875,845.703125,72.265625
-336.9140625,156.25,-453.125,50.29296875
-498.046875,-1000.0,-1000.0,73.73046875
-2.44140625,-357.91015625,-197.75390625,104.98046875
434.5703125,953.125,999.51171875,101.07421875
237.3046875,999.51171875,991.69921875,64.453125
-286.1328125,60.546875,-185.546875,41.50390625
-507.32421875,-1000.0,-1000.0,61.03515625
-85.44921875,-481.4453125,-266.6015625,66.89453125
364.74609375,856.93359375,957.03125,53.22265625
245.1171875,999.51171875,999.51171875,26.85546875
-296.875,208.0078125,57.12890625,-28.80859375
-609.375,-1000.0,-1000.0,-43.45703125
-211.9140625,-420.8984375,-385.7421875,7.32421875
315.4296875,913.57421875,911.1328125,34.1796875
267.578125,999.51171875,999.51171875,10.7421875
-244.140625,180.6640625,148.92578125,-41.9921875
-593.75,-1000.0,-1000.0,-45.8984375
-269.04296875,-964.84375,-660.15625,3.41796875
298.33984375,297.36328125,701.171875,36.62109375
348.14453125,999.51171875,999.51171875,25.390625
-135.7421875,247.55859375,169.43359375,-29.296875
-525.87890625,-1000.0,-1000.0,-38.57421875
-294.43359375,-1000.0,-861.328125,14.16015625
267.578125,160.64453125,446.77734375,46.875
389.6484375,999.51171875,999.51171875,19.53125
-51.7578125,769.53125,225.09765625,-30.76171875
-495.1171875,-520.99609375,-1000.0,-44.43359375
-356.93359375,-1000.0,-1000.0,3.41796875
226.5625,-129.8828125,159.1796875,54.19921875
437.98828125,999.51171875,999.51171875,39.0625
21.97265625,485.3515625,288.0859375,-7.8125
-467.7734375,-878.41796875,-969.23828125,-33.69140625
-397.4609375,-1000.0,-1000.0,-4.8828125
176.7578125,-213.8671875,-66.40625,40.52734375
445.3125,999.51171875,999.51171875,37.109375
83.49609375,775.87890625,479.98046875,-11.71875
-415.0390625,-575.68359375,-853.515625,-51.7578125
-449.70703125,-1000.0,-1000.0,-36.1328125
78.61328125,-196.77734375,-186.03515625,10.25390625
435.05859375,999.51171875,999.51171875,19.53125
136.71875,911.62109375,694.3359375,-28.3203125
-397.4609375,-362.3046875,-655.2734375,-69.82421875
-487.3046875,-1000.0,-1000.0,-39.55078125
45.41015625,-276.3671875,-192.87109375,17.08984375
447.75390625,931.640625,999.51171875,29.296875
205.56640625,999.51171875,943.84765625,-14.6484375
-333.49609375,130.37109375,-293.45703125,-65.91796875
-527.83203125,-1000.0,-1000.0,-51.26953125
-28.3203125,-216.796875,-205.56640625,-2.44140625
426.7578125,999.51171875,999.51171875,14.6484375
230.46875,999.51171875,999.51171875,-19.04296875
-296.875,58.10546875,-125.9765625,-74.70703125
-535.15625,-1000.0,-1000.0,-68.84765625
-118.1640625,-646.97265625,-350.09765625,-9.27734375
389.6484375,711.9140625,920.41015625,16.11328125
302.24609375,999.51171875,999.51171875,-30.76171875
-254.39453125,166.9921875,81.0546875,-90.33203125
-560.05859375,-1000.0,-1000.0,-81.54296875
-182.12890625,-872.55859375,-531.73828125,-29.296875
368.1640625,452.63671875,812.01171875,-1.953125
358.88671875,999.51171875,999.51171875,-34.66796875
-164.55078125,168.45703125,175.78125,-83.984375
-538.57421875,-1000.0,-1000.0,-87.890625
-264.16015625,-1000.0,-781.73828125,-43.45703125
305.6640625,23.4375,564.94140625,-4.39453125
405.2734375,999.51171875,999.51171875,-20.01953125
-88.37890625,277.83203125,164.55078125,-69.3359375
-524.4140625,-1000.0,-1000.0,-87.40234375
-316.40625,-1000.0,-942.3828125,-52.24609375
263.18359375,84.9609375,318.359375,-22.4609375
405.2734375,999.51171875,999.51171875,-55.6640625
-58.10546875,441.40625,228.515625,-110.3515625
-508.30078125,-891.11328125,-1000.0,-112.3046875
-376.953125,-1000.0,-1000.0,-70.80078125
195.80078125,-70.80078125,100.5859375,-41.9921875
424.8046875,999.51171875,999.51171875,-55.17578125
26.3671875,777.83203125,388.671875,-90.33203125
-467.28515625,-537.59765625,-910.15625,-95.703125
-428.22265625,-1000.0,-1000.0,-63.96484375
132.8125,-199.21875,-136.23046875,-27.83203125
437.01171875,999.51171875,999.51171875,-27.34375
101.07421875,892.08984375,563.4765625,-65.4296875
-408.69140625,-409.1796875,-788.57421875,-84.47265625
-449.21875,-1000.0,-1000.0,-54.19921875
87.890625,-186.5234375,-180.17578125,-18.5546875
451.66015625,999.51171875,999.51171875,-13.18359375
176.7578125,954.1015625,766.6015625,-49.8046875
-367.67578125,-289.0625,-562.98828125,-83.49609375
-510.7421875,-1000.0,-1000.0,-70.3125
4.8828125,-258.7890625,-188.4765625,-36.62109375
437.01171875,949.70703125,999.51171875,-25.87890625
221.19140625,999.51171875,970.703125,-62.5
-316.40625,72.265625,-229.00390625,-86.9140625
-520.99609375,-1000.0,-1000.0,-54.19921875
-44.921875,-345.703125,-234.86328125,-13.18359375
421.875,928.7109375,964.84375,-11.23046875
276.3671875,999.51171875,999.51171875,-42.96875
-241.2109375,218.26171875,78.61328125,-67.87109375
-523.4375,-1000.0,-1000.0,-48.828125
-102.5390625,-395.5078125,-347.16796875,-10.25390625
418.45703125,925.29296875,933.59375,1.46484375
330.56640625,999.51171875,999.51171875,-29.296875
-196.2890625,177.734375,145.99609375,-73.73046875
-533.203125,-1000.0,-1000.0,-74.70703125
-222.65625,-1000.0,-637.20703125,-43.45703125
322.265625,236.328125,723.14453125,-29.78515625
370.1171875,999.51171875,999.51171875,-49.31640625
-142.08984375,179.6875,173.33984375,-75.68359375
-537.109375,-1000.0,-1000.0,-72.75390625
-291.015625,-1000.0,-809.5703125,-47.36328125
266.6015625,215.33203125,524.4140625,-15.13671875
375.9765625,999.51171875,999.51171875,-22.94921875
-95.703125,259.765625,172.8515625,-65.91796875
-512.6953125,-965.8203125,-1000.0,-59.08203125
-324.21875,-1000.0,-1000.0,-20.5078125
236.81640625,-152.83203125,180.6640625,3.41796875
420.8984375,999.51171875,999.51171875,-3.90625
-13.18359375,584.9609375,282.71484375,-57.12890625
-499.51171875,-810.05859375,-979.98046875,-89.35546875
-403.3203125,-1000.0,-1000.0,-56.640625
172.36328125,-54.19921875,-1.46484375,-19.04296875
421.875,999.51171875,999.51171875,-31.25
40.52734375,795.8984375,453.125,-78.61328125
-462.890625,-511.71875,-867.67578125,-92.28515625
-470.703125,-1000.0,-1000.0,-65.4296875
90.33203125,-188.96484375,-160.64453125,-32.71484375
434.5703125,999.51171875,999.51171875,-24.4140625
120.1171875,969.7265625,670.8984375,-66.89453125
-431.15234375,-276.85546875,-678.22265625,-97.16796875
-517.578125,-1000.0,-1000.0,-73.2421875
25.87890625,-156.73828125,-185.546875,-32.71484375
409.66796875,972.16796875,999.51171875,-32.71484375
159.1796875,999.51171875,915.0390625,-75.1953125
-381.8359375,214.84375,-335.44921875,-110.83984375
-562.5,-1000.0,-1000.0,-93.26171875
-70.3125,-513.671875,-217.7734375,-45.8984375
392.08984375,878.41796875,999.51171875,-29.296875
223.14453125,999.51171875,999.51171875,-69.3359375
-312.5,64.453125,-166.50390625,-97.16796875
-550.29296875,-1000.0,-1000.0,-81.0546875
-111.328125,-481.4453125,-308.10546875,-41.50390625
386.71875,860.3515625,943.84765625,-18.06640625
283.203125,999.51171875,999.51171875,-41.015625
-247.0703125,200.1953125,35.15625,-70.80078125
-546.38671875,-1000.0,-1000.0,-67.3828125
-140.13671875,-406.73828125,-419.921875,-29.296875
390.625,918.9453125,888.18359375,-5.37109375
343.26171875,999.51171875,999.51171875,-24.90234375
-165.0390625,179.19921875,166.015625,-62.5
-541.9921875,-1000.0,-1000.0,-65.91796875
-260.25390625,-1000.0,-725.5859375,-20.99609375
310.546875,214.35546875,628.90625,11.23046875
383.30078125,999.51171875,999.51171875,-9.765625
-104.4921875,156.73828125,162.109375,-43.45703125
-508.7890625,-1000.0,-1000.0,-38.0859375
-286.62109375,-1000.0,-916.9921875,-10.7421875
291.50390625,157.2265625,366.69921875,9.765625
433.10546875,999.51171875,999.51171875,-7.32421875
-47.8515625,289.55078125,195.3125,-45.8984375
-487.3046875,-945.3125,-1000.0,-43.9453125
-340.33203125,-1000.0,-1000.0,-12.20703125
224.12109375,-239.74609375,43.9453125,17.578125
461.9140625,999.51171875,999.51171875,13.18359375
56.640625,600.09765625,331.0546875,-21.97265625
-430.6640625,-789.55078125,-951.66015625,-39.55078125
-377.9296875,-1000.0,-1000.0,-10.7421875
194.3359375,-173.828125,-93.75,22.94921875
472.16796875,985.83984375,999.51171875,6.8359375
109.86328125,999.51171875,605.95703125,-39.0625
-393.5546875,-36.62109375,-742.1875,-58.10546875
-440.4296875,-1000.0,-1000.0,-32.2265625
108.3984375,-191.89453125,-183.10546875,-3.41796875
466.796875,999.51171875,999.51171875,3.90625
178.7109375,999.51171875,774.4140625,-23.4375
-356.4453125,-80.56640625,-555.17578125,-42.96875
-478.515625,-1000.0,-1000.0,-5.37109375
46.38671875,-325.1953125,-192.87109375,55.17578125
467.7734375,943.84765625,999.51171875,57.6171875
233.88671875,999.51171875,942.3828125,-1.46484375
-322.265625,28.3203125,-291.9921875,-44.921875
-516.6015625,-1000.0,-1000.0,-29.78515625
-37.109375,-396.97265625,-234.375,17.578125
439.94140625,920.41015625,989.2578125,39.55078125
281.73828125,999.51171875,999.51171875,8.7890625
-259.765625,40.0390625,-97.16796875,-41.9921875
-522.94921875,-1000.0,-1000.0,-39.55078125
-112.79296875,-628.90625,-378.90625,13.18359375
410.15625,728.02734375,901.3671875,21.484375
317.3828125,999.51171875,999.51171875,-23.92578125
-220.21484375,184.08203125,124.51171875,-45.8984375
-541.015625,-1000.0,-1000.0,3.90625
-199.21875,-797.36328125,-593.75,131.8359375
359.86328125,566.89453125,766.11328125,244.140625
369.140625,999.51171875,999.51171875,229.4921875
-163.57421875,141.11328125,155.2734375,108.88671875
-545.41015625,-1000.0,-1000.0,41.9921875
-269.53125,-1000.0,-838.37890625,96.6796875
283.69140625,52.734375,482.91015625,166.015625
383.30078125,999.51171875,999.51171875,159.66796875
-98.6328125,255.37109375,168.9453125,83.0078125
-540.0390625,-1000.0,-1000.0,28.80859375
-333.49609375,-1000.0,-973.14453125,73.2421875
255.37109375,98.6328125,261.23046875,147.4609375
424.8046875,999.51171875,999.51171875,160.64453125
-2.9296875,683.59375,269.53125,95.21484375
-477.5390625,-625.0,-977.5390625,23.4375
-380.859375,-1000.0,-1000.0,62.5
186.03515625,-221.6796875,-25.390625,156.25
437.5,999.51171875,999.51171875,183.10546875
62.98828125,624.0234375,377.9296875,106.93359375
-449.70703125,-766.6015625,-926.26953125,23.92578125
-438.96484375,-1000.0,-1000.0,45.41015625
124.51171875,-194.82421875,-159.66796875,117.67578125
447.75390625,999.51171875,999.51171875,142.578125
130.859375,967.28515625,626.953125,86.42578125
-400.87890625,-285.64453125,-731.93359375,1.953125
-471.19140625,-1000.0,-1000.0,4.39453125
83.0078125,-162.59765625,-176.26953125,75.68359375
433.59375,999.51171875,999.51171875,94.23828125
157.71484375,972.65625,821.2890625,31.73828125
-370.60546875,-225.5859375,-486.81640625,-55.17578125
-522.94921875,-1000.0,-1000.0,-63.4765625
-10.25390625,-420.41015625,-212.40234375,22.94921875
428.22265625,880.37109375,999.51171875,81.54296875
243.65234375,999.51171875,980.46875,38.57421875
-304.6875,41.9921875,-209.47265625,-69.82421875
-544.921875,-1000.0,-1000.0,-14.6484375
-113.28125,-714.35546875,-292.96875,-436.5234375
357.91015625,638.671875,946.77734375,-1000.0
255.859375,999.51171875,999.51171875,-995.1171875
-267.08984375,130.37109375,40.52734375,-989.2578125
-557.12890625,-1000.0,-1000.0,-992.1875
-184.5703125,-866.69921875,-471.19140625,-1000.0
360.83984375,444.82421875,854.98046875,-951.66015625
377.9296875,999.51171875,999.51171875,-484.86328125
-112.3046875,264.6484375,158.203125,37.109375
-472.65625,-1000.0,-1000.0,307.12890625
-169.921875,-778.80859375,-681.640625,538.57421875
378.90625,622.0703125,679.19921875,717.7734375
396.484375,999.51171875,999.51171875,757.8125
-79.58984375,877.9296875,176.7578125,712.890625
-473.14453125,-391.11328125,-1000.0,690.4296875
-299.8046875,-1000.0,-902.83203125,724.609375
262.20703125,140.625,391.11328125,811.5234375
408.69140625,999.51171875,999.51171875,836.42578125
-61.5234375,432.12890625,195.80078125,736.81640625
-529.78515625,-891.6015625,-1000.0,640.13671875
-391.11328125,-1000.0,-1000.0,640.625
199.21875,-101.5625,133.7890625,699.21875
418.9453125,999.51171875,999.51171875,695.3125
-2.44140625,617.67578125,316.40625,577.1484375
-486.81640625,-795.41015625,-968.26171875,465.8203125
-411.1328125,-1000.0,-1000.0,468.75
170.41015625,105.95703125,4.8828125,546.875
445.80078125,999.51171875,999.51171875,554.6875
84.9609375,976.5625,523.4375,438.96484375
-440.4296875,-156.25,-805.6640625,327.1484375
-485.3515625,-1000.0,-1000.0,307.6171875
83.0078125,-198.73046875,-178.22265625,376.953125
428.22265625,999.51171875,999.51171875,397.4609375
135.25390625,940.91796875,716.30859375,305.6640625
-389.16015625,-309.5703125,-629.39453125,205.078125
-510.25390625,-1000.0,-1000.0,193.359375
8.7890625,-279.296875,-189.94140625,259.27734375
412.109375,930.6640625,999.51171875,288.57421875
198.2421875,999.51171875,964.84375,222.65625
-340.33203125,152.83203125,-243.65234375,122.0703125
-551.26953125,-1000.0,-1000.0,94.23828125
-71.77734375,-642.08984375,-252.9296875,164.0625
404.78515625,765.13671875,988.28125,219.7265625
252.44140625,999.51171875,999.51171875,165.52734375
-278.3203125,10.25390625,-119.140625,74.70703125
-527.34375,-1000.0,-1000.0,50.29296875
-114.74609375,-594.23828125,-336.42578125,122.0703125
397.4609375,750.48828125,919.43359375,200.1953125
320.80078125,999.51171875,999.51171875,161.1328125
-216.30859375,244.62890625,138.18359375,45.41015625
-551.7578125,-1000.0,-1000.0,9.765625
-213.8671875,-1000.0,-571.77734375,80.56640625
335.9375,268.5546875,788.57421875,152.83203125
335.9375,999.51171875,999.51171875,122.0703125
-178.22265625,154.296875,151.3671875,29.296875
-542.96875,-1000.0,-1000.0,-16.11328125
-277.83203125,-1000.0,-792.48046875,30.76171875
277.34375,70.80078125,544.921875,107.421875
373.046875,999.51171875,999.51171875,104.98046875
-116.2109375,264.16015625,171.875,16.6015625
-539.0625,-1000.0,-1000.0,-43.45703125
-316.89453125,-1000.0,-919.43359375,13.18359375
259.765625,139.6484375,352.5390625,103.515625
415.52734375,999.51171875,999.51171875,116.2109375
-44.921875,282.71484375,210.44921875,30.76171875
-511.71875,-968.75,-1000.0,-50.29296875
-371.58203125,-1000.0,-1000.0,-13.18359375
204.58984375,-96.6796875,39.55078125,79.1015625
443.84765625,999.51171875,999.51171875,106.93359375
43.45703125,521.484375,352.05078125,31.73828125
-462.890625,-832.51953125,-934.08203125,-59.5703125
-419.921875,-1000.0,-1000.0,-28.80859375
150.390625,-219.7265625,-146.97265625,73.73046875
461.9140625,999.51171875,999.51171875,103.515625
115.72265625,791.015625,562.98828125,31.25
-424.31640625,-559.5703125,-789.55078125,-51.7578125
-478.02734375,-1000.0,-1000.0,-46.38671875
69.3359375,-189.453125,-198.73046875,41.50390625
445.80078125,999.51171875,999.51171875,87.890625
173.33984375,967.7734375,773.92578125,24.90234375
-364.2578125,-279.78515625,-558.59375,-70.80078125
-506.8359375,-1000.0,-1000.0,-77.1484375
9.27734375,-155.76171875,-185.05859375,14.16015625
440.91796875,970.703125,999.51171875,75.68359375
227.5390625,999.51171875,983.88671875,28.80859375
-310.546875,232.91015625,-185.546875,-63.96484375
-537.109375,-1000.0,-1000.0,-84.9609375
-77.1484375,-570.80078125,-295.41015625,0.0
413.0859375,824.70703125,957.03125,64.94140625
273.92578125,999.51171875,999.51171875,24.4140625
-261.71875,162.109375,-18.06640625,-64.94140625
-548.33984375,-1000.0,-1000.0,-98.6328125
-146.97265625,-643.5546875,-414.55078125,-21.484375
387.6953125,740.234375,888.18359375,63.96484375
330.56640625,999.51171875,999.51171875,29.296875
-194.3359375,199.70703125,147.4609375,-62.5
-538.0859375,-1000.0,-1000.0,-90.33203125
-211.42578125,-576.171875,-580.078125,-30.76171875
342.28515625,814.453125,781.25,42.96875
363.76953125,999.51171875,999.51171875,33.203125
-151.85546875,149.90234375,160.64453125,-57.6171875
-531.25,-1000.0,-1000.0,-105.46875
-280.2734375,-1000.0,-876.953125,-54.19921875
271.484375,50.78125,426.7578125,25.390625
403.80859375,999.51171875,999.51171875,47.36328125
-69.82421875,218.75,166.9921875,-41.015625
-515.625,-999.51171875,-1000.0,-115.72265625
-349.609375,-1000.0,-1000.0,-72.75390625
221.19140625,-106.4453125,147.4609375,19.04296875
427.734375,999.51171875,999.51171875,41.9921875
14.6484375,638.18359375,309.08203125,-39.55078125
-483.3984375,-717.7734375,-961.9140625,-116.2109375
-413.0859375,-1000.0,-1000.0,-79.58984375
168.9453125,-210.9375,-54.19921875,13.18359375
442.87109375,999.51171875,999.51171875,39.0625
70.3125,789.0625,473.6328125,-41.50390625
-440.91796875,-562.01171875,-859.86328125,-122.0703125
-447.75390625,-1000.0,-1000.0,-104.98046875
104.4921875,-177.24609375,-171.38671875,-19.53125
443.359375,999.51171875,999.51171875,26.3671875
154.296875,999.51171875,716.30859375,-34.66796875
-377.44140625,-112.3046875,-628.41796875,-130.859375
-482.421875,-1000.0,-1000.0,-82.03125
38.0859375,-337.40234375,-197.265625,-79.1015625
417.96875,961.9140625,999.51171875,-333.0078125
174.8046875,999.51171875,891.11328125,-486.328125
-343.75,-133.7890625,-382.32421875,-475.5859375
-509.27734375,-1000.0,-1000.0,-404.296875
-17.578125,-395.01953125,-216.796875,-222.65625
438.96484375,885.25390625,994.62890625,-192.3828125
242.67578125,999.51171875,999.51171875,-362.3046875
-288.57421875,177.734375,-110.3515625,-386.23046875
-517.08984375,-1000.0,-1000.0,-341.796875
-73.2421875,-289.0625,-284.66796875,-305.17578125
425.78125,969.7265625,954.58984375,-204.1015625
314.453125,999.51171875,999.51171875,-187.5
-207.51953125,168.45703125,62.01171875,-266.6015625
-519.04296875,-1000.0,-1000.0,-287.59765625
-174.8046875,-961.9140625,-549.31640625,-269.53125
372.0703125,308.59375,795.41015625,-258.30078125
372.0703125,999.51171875,999.51171875,-250.9765625
-159.1796875,145.99609375,145.5078125,-237.79296875
-511.23046875,-1000.0,-1000.0,-222.65625
-218.75,-1000.0,-776.3671875,-190.4296875
333.984375,105.95703125,563.96484375,-127.9296875
410.64453125,999.51171875,999.51171875,-124.0234375
-69.3359375,402.34375,172.8515625,-153.3203125
-487.3046875,-918.45703125,-1000.0,-123.046875
-310.05859375,-1000.0,-955.078125,-120.60546875
256.8359375,-41.50390625,300.78125,-114.2578125
439.94140625,999.51171875,999.51171875,-27.83203125
-6.34765625,444.82421875,213.37890625,-23.92578125
-475.5859375,-898.4375,-1000.0,-77.1484375
-341.30859375,-1000.0,-1000.0,13.671875
219.23828125,-110.3515625,57.12890625,184.08203125
441.40625,999.51171875,999.51171875,291.50390625
54.6875,950.1953125,378.90625,283.203125
-450.68359375,-326.171875,-931.15234375,225.5859375
-411.62109375,-1000.0,-1000.0,279.78515625
170.41015625,5.859375,-62.01171875,409.66796875
451.66015625,999.51171875,999.51171875,448.73046875
94.7265625,729.00390625,518.5546875,371.58203125
-423.828125,-588.37890625,-814.94140625,282.2265625
-457.03125,-1000.0,-1000.0,291.015625
105.95703125,-182.12890625,-197.75390625,380.859375
466.796875,983.3984375,999.51171875,434.08203125
183.59375,999.51171875,802.734375,376.46484375
-349.12109375,-34.1796875,-518.5546875,261.23046875
-514.6484375,-1000.0,-1000.0,224.609375
-0.48828125,-171.38671875,-183.59375,301.26953125
434.5703125,983.3984375,999.51171875,366.69921875
219.7265625,999.51171875,976.07421875,322.75390625
-311.5234375,233.3984375,-210.9375,212.40234375
-541.50390625,-1000.0,-1000.0,152.83203125
-71.2890625,-473.6328125,-250.48828125,217.28515625
407.2265625,892.08984375,976.07421875,293.9453125
253.41796875,999.51171875,999.51171875,250.0
-272.4609375,139.6484375,-27.34375,125.0
-555.6640625,-1000.0,-1000.0,70.80078125
-161.1328125,-865.72265625,-414.0625,141.6015625
371.09375,455.56640625,884.27734375,232.91015625
330.078125,999.51171875,999.51171875,224.12109375
-204.1015625,168.45703125,162.109375,102.5390625
-555.6640625,-1000.0,-1000.0,30.2734375
-224.12109375,-886.23046875,-629.39453125,90.33203125
342.28515625,424.31640625,736.81640625,194.82421875
372.0703125,999.51171875,999.51171875,197.75390625
-149.90234375,256.34765625,166.015625,75.68359375
-551.7578125,-970.21484375,-1000.0,-2.9296875
-306.15234375,-1000.0,-881.8359375,44.921875
254.39453125,-62.5,421.875,98.6328125
379.8828125,999.51171875,999.51171875,100.09765625
-95.21484375,275.390625,173.828125,-74.70703125
-535.64453125,-980.46875,-1000.0,-251.46484375
-342.7734375,-1000.0,-1000.0,-129.8828125
214.84375,-190.91796875,182.12890625,36.62109375
397.4609375,999.51171875,999.51171875,96.6796875
-28.80859375,477.05078125,253.90625,26.85546875
-503.41796875,-891.6015625,-990.72265625,-46.875
-389.16015625,-1000.0,-1000.0,1.953125
179.19921875,-181.640625,-19.53125,103.02734375
432.6171875,999.51171875,999.51171875,150.87890625
69.3359375,856.93359375,465.33203125,71.2890625
-437.98828125,-459.47265625,-864.74609375,-43.45703125
-441.89453125,-1000.0,-1000.0,-22.4609375
115.72265625,-174.8046875,-152.34375,79.1015625
437.98828125,999.51171875,999.51171875,127.9296875
120.1171875,940.91796875,638.18359375,76.66015625
-400.390625,-311.5234375,-711.42578125,-28.80859375
-480.46875,-1000.0,-1000.0,-41.9921875
57.6171875,-241.69921875,-203.125,57.6171875
450.1953125,990.234375,999.51171875,125.9765625
193.359375,999.51171875,836.42578125,77.1484375
-335.44921875,-145.99609375,-470.21484375,-31.25
-495.1171875,-1000.0,-1000.0,-45.8984375
-5.37109375,-291.50390625,-197.75390625,50.78125
433.10546875,928.7109375,985.3515625,108.88671875
263.671875,999.51171875,999.51171875,66.89453125
-274.90234375,212.890625,-34.1796875,-48.828125
-551.26953125,-1000.0,-1000.0,-106.93359375
-120.60546875,-732.421875,-349.609375,-24.90234375
388.671875,653.3203125,937.5,73.2421875
290.52734375,999.51171875,999.51171875,50.29296875
-237.3046875,146.484375,20.5078125,-56.640625
-539.55078125,-1000.0,-1000.0,-109.375
-174.8046875,-789.0625,-505.859375,-37.109375
356.4453125,568.84765625,828.125,72.75390625
337.890625,999.51171875,999.51171875,59.5703125
-192.3828125,141.11328125,138.671875,-54.19921875
-562.98828125,-1000.0,-1000.0,-113.28125
-267.578125,-1000.0,-755.37109375,-51.26953125
296.875,56.15234375,589.84375,45.41015625
374.51171875,999.51171875,999.51171875,62.98828125
-134.765625,156.25,154.78515625,-27.34375
-534.1796875,-1000.0,-1000.0,-107.421875
-297.8515625,-1000.0,-920.41015625,-67.87109375
258.30078125,91.30859375,355.46875,29.78515625
392.578125,999.51171875,999.51171875,55.6640625
-66.89453125,306.15234375,187.98828125,-38.57421875
-513.18359375,-993.1640625,-1000.0,-113.28125
-367.1875,-1000.0,-1000.0,-78.61328125
211.9140625,108.3984375,128.90625,22.4609375
441.89453125,999.51171875,999.51171875,63.4765625
20.99609375,580.078125,316.89453125,-17.578125
-486.328125,-746.58203125,-949.21875,-104.4921875
-427.24609375,-1000.0,-1000.0,-84.47265625
150.87890625,-208.0078125,-116.69921875,15.13671875
449.21875,999.51171875,999.51171875,67.87109375
82.03125,864.2578125,527.34375,2.9296875
-455.078125,-455.078125,-818.84765625,-134.765625
-492.67578125,-1000.0,-1000.0,-209.9609375
72.75390625,-158.203125,-187.01171875,-92.7734375
428.7109375,971.6796875,999.51171875,10.7421875
151.3671875,999.51171875,791.50390625,-36.1328125
-371.58203125,155.76171875,-528.80859375,-119.140625
-520.5078125,-1000.0,-1000.0,-126.46484375
-9.27734375,-458.0078125,-204.58984375,-27.34375
418.9453125,919.921875,999.51171875,53.7109375
212.40234375,999.51171875,921.875,11.23046875
-329.1015625,-56.640625,-329.1015625,-94.7265625
-531.25,-1000.0,-1000.0,-106.4453125
-58.59375,-498.53515625,-264.16015625,-63.96484375
434.08203125,924.8046875,985.83984375,96.6796875
267.08984375,992.67578125,999.51171875,-313.96484375
-325.1953125,-359.375,-153.80859375,-1000.0
-565.91796875,-1000.0,-1000.0,-1000.0
-145.01953125,-937.01171875,-404.296875,-977.05078125
350.5859375,248.046875,891.11328125,-1000.0
291.015625,999.51171875,999.51171875,-990.72265625
-208.984375,155.2734375,65.91796875,-784.1796875
-505.37109375,-1000.0,-1000.0,-420.41015625
-147.4609375,-663.57421875,-596.19140625,-83.0078125
402.83203125,720.703125,751.953125,215.8203125
408.203125,999.51171875,999.51171875,318.359375
-129.8828125,152.34375,154.78515625,31.25
-529.296875,-1000.0,-1000.0,-229.4921875
-264.6484375,-1000.0,-854.98046875,-235.3515625
303.7109375,142.578125,459.9609375,-145.99609375
419.43359375,999.51171875,999.51171875,-68.84765625
-75.1953125,308.10546875,158.69140625,-50.78125
-505.37109375,-937.5,-1000.0,180.6640625
-339.84375,-1000.0,-1000.0,-216.796875
169.921875,-250.48828125,154.78515625,-1000.0
374.51171875,999.51171875,999.51171875,-999.0234375
-41.015625,339.35546875,223.14453125,-994.62890625
-505.859375,-970.21484375,-999.51171875,-953.125
-391.11328125,-1000.0,-1000.0,-900.87890625
156.25,-188.96484375,-59.08203125,-989.2578125
403.80859375,974.12109375,999.51171875,-1000.0
62.98828125,999.51171875,453.125,-903.3203125
-406.73828125,40.0390625,-879.8828125,-409.66796875
-398.4375,-1000.0,-1000.0,138.18359375
178.22265625,66.40625,-128.41796875,520.99609375
482.91015625,999.51171875,999.51171875,764.6484375
151.85546875,999.51171875,621.58203125,826.66015625
-368.1640625,83.49609375,-726.5625,796.38671875
-464.35546875,-1000.0,-1000.0,838.8671875
68.84765625,-186.5234375,-205.56640625,940.4296875
451.66015625,995.1171875,999.51171875,965.8203125
196.77734375,999.51171875,842.7734375,971.19140625
-342.7734375,160.64453125,-464.84375,901.85546875
-512.6953125,-1000.0,-1000.0,831.0546875
2.9296875,-204.1015625,-190.4296875,909.66796875
431.15234375,999.51171875,999.51171875,956.0546875
225.09765625,999.51171875,973.14453125,871.58203125
-305.6640625,69.82421875,-218.75,731.4453125
-543.45703125,-1000.0,-1000.0,655.76171875
-77.1484375,-282.2265625,-265.13671875,667.96875
435.05859375,999.51171875,973.14453125,877.44140625
247.55859375,759.765625,999.51171875,8.30078125
-359.375,-620.60546875,-48.828125,-1000.0
-608.88671875,-1000.0,-1000.0,-984.375
-203.61328125,-919.921875,-502.9296875,-943.84765625
325.1953125,265.625,821.2890625,-1000.0
335.44921875,999.51171875,999.51171875,-724.12109375
-139.6484375,125.48828125,136.23046875,-313.4765625
-524.90234375,-1000.0,-1000.0,-893.06640625
-273.92578125,-1000.0,-766.11328125,-1000.0
269.53125,-171.875,579.1015625,-969.7265625
337.890625,999.51171875,999.51171875,-1000.0
-165.0390625,172.36328125,146.97265625,-1000.0
-560.05859375,-1000.0,-1000.0,-1000.0
-321.77734375,-1000.0,-929.19921875,-1000.0
240.234375,-33.69140625,336.42578125,-1000.0
390.13671875,999.51171875,999.51171875,-1000.0
-55.6640625,706.54296875,201.171875,-1000.0
-507.32421875,-622.0703125,-1000.0,-1000.0
-368.1640625,-1000.0,-1000.0,-1000.0
189.453125,-212.890625,39.55078125,-1000.0
406.25,999.51171875,999.51171875,-1000.0
19.04296875,646.97265625,288.57421875,-1000.0
-468.26171875,-738.76953125,-968.75,-1000.0
-409.1796875,-1000.0,-1000.0,-1000.0
160.15625,-219.23828125,-135.7421875,-1000.0
452.63671875,999.51171875,999.51171875,-1000.0
84.9609375,741.69921875,445.80078125,-998.53515625
-435.546875,-628.90625,-888.18359375,-1000.0
-443.84765625,-1000.0,-1000.0,-971.19140625
107.91015625,-173.828125,-187.5,-907.2265625
439.453125,999.51171875,999.51171875,-859.375
153.3203125,999.51171875,698.2421875,-781.73828125
-359.86328125,-150.87890625,-652.34375,-575.1953125
-453.61328125,-1000.0,-1000.0,-361.328125
77.1484375,-188.4765625,-197.75390625,-249.0234375
454.58984375,982.91015625,999.51171875,-252.9296875
209.47265625,999.51171875,915.0390625,-402.34375
-327.63671875,89.84375,-337.40234375,-500.0
-518.5546875,-1000.0,-1000.0,-507.32421875
-49.8046875,-461.42578125,-255.859375,-497.0703125
403.80859375,873.53515625,978.02734375,-479.00390625
242.67578125,999.51171875,999.51171875,-475.5859375
-288.57421875,186.5234375,-94.23828125,-467.7734375
-541.50390625,-1000.0,-1000.0,-444.3359375
-129.8828125,-631.8359375,-380.859375,-417.96875
384.765625,755.859375,908.69140625,-392.578125
296.38671875,999.51171875,999.51171875,-393.06640625
-239.74609375,182.12890625,66.40625,-386.23046875
-534.1796875,-1000.0,-1000.0,-356.4453125
-188.4765625,-819.3359375,-592.28515625,-326.66015625
349.609375,509.27734375,756.34765625,-299.8046875
343.75,999.51171875,999.51171875,-295.8984375
-168.45703125,402.34375,156.73828125,-302.734375
-530.76171875,-924.31640625,-1000.0,-293.9453125
-271.484375,-1000.0,-844.23828125,-259.765625
277.34375,108.88671875,477.05078125,-242.67578125
372.0703125,999.51171875,999.51171875,-246.58203125
-110.3515625,333.0078125,149.4140625,-245.1171875
-526.85546875,-949.70703125,-1000.0,-229.00390625
-332.51953125,-1000.0,-1000.0,-211.9140625
235.83984375,-88.37890625,193.84765625,-192.3828125
418.9453125,999.51171875,999.51171875,-172.8515625
-3.90625,571.2890625,229.4921875,-177.24609375
-473.6328125,-841.796875,-1000.0,-176.7578125
-372.55859375,-1000.0,-1000.0,-145.5078125
203.61328125,87.40234375,65.4296875,-127.44140625
429.19921875,999.51171875,999.51171875,-143.5546875
7.32421875,537.59765625,334.47265625,-165.0390625
-480.95703125,-790.52734375,-937.01171875,-160.64453125
-427.734375,-1000.0,-1000.0,-133.7890625
134.765625,-198.2421875,-175.78125,-116.69921875
441.89453125,999.51171875,999.51171875,-119.140625
108.3984375,958.0078125,562.5,-126.46484375
-399.90234375,-293.9453125,-791.015625,-114.74609375
-463.37890625,-1000.0,-1000.0,-94.7265625
60.05859375,-191.89453125,-205.078125,-88.37890625
427.24609375,999.51171875,999.51171875,-95.21484375
178.7109375,999.51171875,800.29296875,-97.16796875
-353.02734375,-140.13671875,-522.4609375,-91.796875
-500.0,-1000.0,-1000.0,-86.42578125
5.859375,-345.703125,-206.0546875,-69.82421875
442.87109375,911.62109375,999.51171875,-54.6875
239.2578125,999.51171875,971.6796875,-69.3359375
-300.29296875,153.80859375,-223.6328125,-78.61328125
-516.6015625,-1000.0,-1000.0,-62.01171875
-75.1953125,-603.515625,-296.875,-43.45703125
402.83203125,757.8125,944.3359375,-37.59765625
278.80859375,999.51171875,999.51171875,-47.8515625
-231.4453125,351.07421875,44.43359375,-64.94140625
-524.90234375,-1000.0,-1000.0,-57.6171875
-156.25,-862.3046875,-448.73046875,-29.78515625
369.140625,528.80859375,875.48828125,-28.3203125
332.03125,999.51171875,999.51171875,-28.80859375
-183.59375,149.90234375,124.51171875,-37.59765625
-543.45703125,-1000.0,-1000.0,-46.38671875
-238.28125,-1000.0,-688.4765625,-29.296875
327.1484375,170.41015625,664.55078125,-14.16015625
378.90625,999.51171875,999.51171875,-22.94921875
-137.20703125,253.90625,173.33984375,-41.9921875
-530.2734375,-1000.0,-1000.0,-37.109375
-272.4609375,-773.92578125,-804.6875,-14.16015625
281.25,587.40234375,532.2265625,-9.765625
385.25390625,999.51171875,999.51171875,-19.53125
-75.68359375,416.015625,179.19921875,-40.52734375
-513.671875,-875.0,-1000.0,-41.9921875
-360.83984375,-1000.0,-1000.0,-29.78515625
204.58984375,-161.62109375,119.62890625,-22.94921875
415.52734375,999.51171875,999.51171875,-23.4375
-9.27734375,487.3046875,261.23046875,-44.921875
-489.74609375,-878.90625,-977.5390625,-55.6640625
-409.66796875,-1000.0,-1000.0,-40.0390625
138.18359375,-226.5625,-110.83984375,-23.92578125
419.43359375,999.51171875,999.51171875,-26.3671875
70.3125,750.0,448.73046875,-24.90234375
-450.68359375,-618.1640625,-882.32421875,-25.87890625
-457.51953125,-1000.0,-1000.0,-21.484375
107.421875,-180.17578125,-202.63671875,4.8828125
445.3125,999.51171875,999.51171875,3.90625
141.11328125,999.51171875,702.63671875,-31.73828125
-386.23046875,-145.5078125,-650.87890625,-40.0390625
-503.90625,-1000.0,-1000.0,-32.2265625
14.6484375,-241.69921875,-200.68359375,-31.25
411.62109375,947.75390625,999.51171875,-19.53125
179.19921875,999.51171875,883.7890625,-23.92578125
-325.1953125,227.5390625,-384.27734375,-30.76171875
-513.18359375,-1000.0,-1000.0,-21.484375
-57.12890625,-506.8359375,-240.234375,-18.06640625
411.1328125,895.01953125,999.0234375,-7.8125
249.51171875,999.51171875,996.09375,-16.6015625
-288.0859375,0.0,-181.15234375,-30.2734375
-520.01953125,-1000.0,-1000.0,-12.6953125
-101.07421875,-568.359375,-336.9140625,-0.9765625
387.20703125,779.296875,921.875,23.92578125
314.453125,999.51171875,999.51171875,13.671875
-189.94140625,197.265625,84.47265625,28.80859375
-501.46484375,-1000.0,-1000.0,522.94921875
-140.13671875,-291.015625,-430.6640625,973.14453125
370.60546875,967.7734375,888.18359375,952.1484375
328.61328125,999.51171875,999.51171875,958.984375
-173.33984375,224.609375,170.41015625,961.42578125
-560.05859375,-1000.0,-1000.0,726.07421875
-291.9921875,-1000.0,-752.9296875,656.73828125
290.0390625,231.4453125,597.16796875,905.2734375
371.09375,999.51171875,999.51171875,971.19140625
-114.2578125,361.328125,171.38671875,972.65625
-530.2734375,-956.0546875,-1000.0,895.99609375
-333.0078125,-1000.0,-918.45703125,761.71875
259.27734375,136.23046875,350.09765625,928.7109375
397.94921875,999.51171875,999.51171875,674.31640625
-51.26953125,906.73828125,303.22265625,422.36328125
-486.81640625,-317.3828125,-982.91015625,672.8515625
-377.9296875,-1000.0,-1000.0,850.5859375
195.80078125,-92.7734375,113.76953125,971.19140625
420.8984375,999.51171875,999.51171875,971.19140625
22.4609375,519.04296875,362.79296875,776.85546875
-476.07421875,-841.796875,-928.22265625,756.8359375
-416.50390625,-1000.0,-1000.0,948.2421875
142.578125,-216.796875,-112.79296875,970.21484375
423.33984375,999.51171875,999.51171875,931.640625
95.21484375,822.75390625,568.84765625,839.35546875
-413.57421875,-514.16015625,-779.78515625,700.1953125
-447.75390625,-1000.0,-1000.0,721.19140625
102.5390625,-182.6171875,-168.9453125,881.8359375
458.0078125,999.51171875,999.51171875,962.890625
172.8515625,999.51171875,814.453125,965.8203125
-358.3984375,-192.87109375,-497.0703125,961.9140625
-497.55859375,-1000.0,-1000.0,965.33203125
23.4375,-215.8203125,-184.5703125,962.890625
431.640625,978.515625,999.51171875,885.7421875
199.21875,999.51171875,993.1640625,729.4921875
-328.125,23.4375,-187.98828125,533.69140625
-531.73828125,-1000.0,-1000.0,411.1328125
-62.5,-279.78515625,-208.49609375,402.83203125
400.390625,964.35546875,988.76953125,432.12890625
257.32421875,999.51171875,999.51171875,393.06640625
-264.6484375,89.84375,2.9296875,300.78125
-541.50390625,-1000.0,-1000.0,260.7421875
-134.27734375,-712.890625,-384.27734375,378.90625
388.671875,641.6015625,904.78515625,513.671875
326.171875,999.51171875,999.51171875,611.81640625
-192.87109375,166.015625,152.34375,669.43359375
-532.2265625,-1000.0,-1000.0,676.7578125
-207.51953125,-938.96484375,-615.72265625,720.703125
341.796875,354.4921875,745.1171875,749.0234375
351.07421875,999.51171875,999.51171875,505.37109375
-187.01171875,138.18359375,179.6875,-221.6796875
-604.00390625,-1000.0,-1000.0,-939.453125
-340.8203125,-1000.0,-805.6640625,-1000.0
236.328125,-87.890625,531.25,-976.07421875
363.28125,999.51171875,999.51171875,-1000.0
-104.4921875,163.57421875,176.7578125,-1000.0
-530.2734375,-1000.0,-1000.0,-1000.0
-336.9140625,-1000.0,-994.140625,-1000.0
234.375,-10.7421875,226.07421875,-1000.0
416.9921875,999.51171875,999.51171875,-1000.0
-17.08984375,342.7734375,267.578125,-1000.0
-482.91015625,-935.05859375,-977.05078125,-1000.0
-381.8359375,-1000.0,-1000.0,-1000.0
166.50390625,-235.3515625,-42.96875,-1000.0
428.7109375,999.51171875,999.51171875,-1000.0
90.8203125,761.23046875,467.7734375,-993.1640625
-420.8984375,-601.07421875,-865.72265625,-990.234375
-447.75390625,-1000.0,-1000.0,-943.84765625
129.8828125,-155.2734375,-153.3203125,-442.87109375
494.140625,961.42578125,999.51171875,360.83984375
197.265625,999.51171875,687.01171875,820.3125
-336.9140625,205.56640625,-657.71484375,954.1015625
-458.0078125,-1000.0,-1000.0,960.44921875
76.66015625,-128.90625,-178.7109375,964.35546875
468.26171875,999.51171875,999.51171875,966.796875
202.1484375,999.51171875,886.23046875,966.30859375
-340.33203125,108.88671875,-384.765625,965.8203125
-525.390625,-1000.0,-1000.0,966.30859375
-19.04296875,-291.50390625,-205.56640625,966.30859375
445.80078125,954.1015625,998.046875,966.30859375
260.25390625,999.51171875,999.51171875,966.30859375
-273.4375,225.5859375,-104.98046875,965.8203125
-523.4375,-1000.0,-1000.0,966.30859375
-81.54296875,-497.0703125,-313.96484375,966.30859375
408.69140625,872.55859375,933.59375,966.30859375
309.08203125,999.51171875,999.51171875,965.8203125
-208.49609375,196.77734375,123.046875,967.28515625
-533.203125,-1000.0,-1000.0,961.9140625
-161.1328125,-764.16015625,-487.3046875,957.51953125
373.046875,608.3984375,854.4921875,962.890625
356.93359375,999.51171875,999.51171875,973.14453125
-148.92578125,164.0625,148.92578125,876.46484375
-508.7890625,-1000.0,-1000.0,744.62890625
-221.6796875,-937.98828125,-688.4765625,750.9765625
322.75390625,336.9140625,668.9453125,813.4765625
379.8828125,999.51171875,999.51171875,794.43359375
-103.02734375,286.1328125,176.7578125,661.1328125
-505.859375,-991.2109375,-1000.0,564.453125
-291.9921875,-1000.0,-872.0703125,606.93359375
278.3203125,124.0234375,432.6171875,670.8984375
424.8046875,999.51171875,999.51171875,631.34765625
-34.1796875,270.01953125,211.9140625,514.16015625
-498.046875,-1000.0,-1000.0,430.17578125
-348.14453125,-1000.0,-1000.0,453.125
234.375,141.6015625,192.3828125,534.66796875
447.265625,999.51171875,999.51171875,550.29296875
23.92578125,430.17578125,325.68359375,445.80078125
-483.88671875,-879.39453125,-949.21875,304.19921875
-422.8515625,-1000.0,-1000.0,198.73046875
145.99609375,-193.359375,-61.5234375,152.34375
438.96484375,999.51171875,999.51171875,56.15234375
64.453125,407.71484375,470.703125,-118.65234375
-460.9375,-926.7578125,-858.88671875,-180.17578125
-453.125,-1000.0,-1000.0,-138.671875
97.16796875,-239.74609375,-196.2890625,-49.8046875
432.6171875,999.51171875,999.51171875,1.46484375
154.78515625,978.02734375,776.85546875,-68.359375
-379.8828125,-251.953125,-554.19921875,-162.109375
-507.8125,-1000.0,-1000.0,-147.94921875
26.3671875,-287.109375,-187.01171875,-43.9453125
437.98828125,927.24609375,999.51171875,7.8125
221.6796875,999.51171875,976.5625,-34.1796875
-312.01171875,182.12890625,-213.37890625,-120.60546875
-528.80859375,-1000.0,-1000.0,-133.7890625
-54.6875,-540.0390625,-257.8125,-43.45703125
440.91796875,853.02734375,977.5390625,40.52734375
302.24609375,999.51171875,999.51171875,17.08984375
-255.37109375,101.07421875,-57.6171875,-91.796875
-535.64453125,-1000.0,-1000.0,-126.46484375
-130.859375,-628.41796875,-367.1875,-39.55078125
388.18359375,743.65234375,908.203125,49.31640625
321.2890625,999.51171875,999.51171875,32.71484375
-207.51953125,200.1953125,148.92578125,-61.5234375
-533.203125,-1000.0,-1000.0,-96.6796875
-176.26953125,-445.3125,-484.86328125,-20.01953125
371.09375,901.85546875,856.93359375,72.265625
370.1171875,999.51171875,999.51171875,60.05859375
-147.94921875,163.57421875,180.17578125,-55.17578125
-530.76171875,-1000.0,-1000.0,-123.046875
-267.578125,-1000.0,-800.29296875,-68.84765625
301.26953125,76.66015625,534.66796875,25.390625
415.0390625,999.51171875,999.51171875,43.9453125
-64.453125,396.97265625,193.359375,-45.41015625
-498.53515625,-968.75,-1000.0,-120.60546875
-313.96484375,-1000.0,-930.6640625,-83.0078125
278.3203125,201.66015625,337.890625,28.3203125
458.49609375,999.51171875,999.51171875,52.734375
15.13671875,531.73828125,295.41015625,-52.24609375
-475.09765625,-793.9453125,-976.07421875,-148.92578125
-380.859375,-1000.0,-1000.0,-128.41796875
198.2421875,-157.2265625,55.17578125,-31.73828125
439.453125,999.51171875,999.51171875,-1.953125
50.78125,725.5859375,465.33203125,-81.0546875
-460.9375,-631.34765625,-860.83984375,-160.15625
-443.359375,-1000.0,-1000.0,-135.25390625
136.71875,-160.15625,-118.65234375,-34.1796875
453.125,967.7734375,999.51171875,16.6015625
142.08984375,999.51171875,775.390625,-45.8984375
-388.18359375,142.08984375,-543.45703125,-140.625
-497.0703125,-1000.0,-1000.0,-155.76171875
53.22265625,-214.35546875,-173.33984375,-59.5703125
438.4765625,994.62890625,999.51171875,1.46484375
173.33984375,999.51171875,890.625,-53.22265625
-350.09765625,171.38671875,-375.48828125,-134.27734375
-526.3671875,-1000.0,-1000.0,-139.16015625
-36.1328125,-422.8515625,-192.3828125,-46.38671875
421.875,916.9921875,999.51171875,-73.2421875
231.93359375,999.51171875,999.51171875,-237.79296875
-322.265625,107.421875,-105.46875,-433.59375
-561.03515625,-1000.0,-1000.0,-588.8671875
-110.83984375,-604.98046875,-250.0,-820.80078125
366.69921875,770.01953125,967.28515625,-1000.0
253.41796875,999.51171875,999.51171875,-994.62890625
-267.578125,137.20703125,80.56640625,-997.55859375
-561.03515625,-1000.0,-1000.0,-1000.0
-184.08203125,-894.53125,-447.265625,-1000.0
343.75,387.20703125,871.58203125,-1000.0
320.3125,999.51171875,999.51171875,-1000.0
-179.19921875,410.64453125,188.96484375,-1000.0
-548.828125,-989.74609375,-1000.0,-1000.0
-269.53125,-962.40234375,-684.5703125,-1000.0
305.17578125,408.203125,685.546875,-1000.0
356.93359375,999.51171875,999.51171875,-1000.0
-145.01953125,159.66796875,171.38671875,-1000.0
-535.64453125,-1000.0,-1000.0,-1000.0
-321.2890625,-1000.0,-898.92578125,-1000.0
245.60546875,-10.7421875,395.5078125,-1000.0
400.390625,999.51171875,999.51171875,-998.046875
-66.40625,281.25,191.40625,-1000.0
-518.06640625,-973.6328125,-1000.0,-990.234375
-355.46875,-1000.0,-1000.0,-908.69140625
221.19140625,-128.41796875,115.234375,-836.42578125
431.15234375,999.51171875,999.51171875,-784.1796875
27.34375,954.58984375,383.7890625,-812.98828125
-456.0546875,-274.90234375,-918.9453125,-743.65234375
-410.15625,-1000.0,-1000.0,-553.7109375
156.73828125,-168.9453125,-97.65625,-374.0234375
450.68359375,990.234375,999.51171875,-209.47265625
130.37109375,999.51171875,521.484375,144.53125
-361.81640625,15.625,-822.265625,680.6640625
-428.7109375,-1000.0,-1000.0,929.6875
98.6328125,-188.96484375,-186.5234375,963.37890625
458.984375,999.51171875,999.51171875,960.9375
166.50390625,999.51171875,735.3515625,967.28515625
-378.41796875,33.69140625,-609.375,966.30859375
-496.58203125,-1000.0,-1000.0,966.30859375
38.57421875,-170.8984375,-176.7578125,966.30859375
433.10546875,993.65234375,999.51171875,966.30859375
197.265625,999.51171875,980.46875,965.8203125
-324.21875,201.171875,-212.40234375,965.8203125
-531.25,-1000.0,-1000.0,965.8203125
-56.15234375,-485.3515625,-230.46875,967.28515625
417.48046875,879.8828125,985.3515625,958.984375
254.39453125,999.51171875,999.51171875,979.00390625
-287.59765625,164.55078125,-45.41015625,921.875
-553.7109375,-1000.0,-1000.0,801.26953125
-117.67578125,-537.109375,-319.3359375,880.37109375
399.4140625,841.30859375,932.12890625,974.12109375
300.29296875,999.51171875,999.51171875,951.171875
-230.95703125,178.7109375,152.34375,832.03125
-552.24609375,-1000.0,-1000.0,750.0
-204.1015625,-905.76171875,-520.99609375,813.4765625
347.16796875,407.2265625,830.078125,879.8828125
361.81640625,999.51171875,999.51171875,842.28515625
-164.0625,165.0390625,183.10546875,717.7734375
-537.59765625,-1000.0,-1000.0,621.58203125
-259.27734375,-1000.0,-752.44140625,639.6484375
286.62109375,142.578125,598.6328125,703.125
371.58203125,999.51171875,999.51171875,685.05859375
-95.703125,542.96875,183.59375,562.98828125
-531.73828125,-784.66796875,-1000.0,457.51953125
-352.05078125,-1000.0,-1000.0,480.95703125
228.02734375,-179.19921875,210.44921875,559.08203125
420.41015625,999.51171875,999.51171875,571.2890625
-23.4375,480.46875,221.19140625,448.73046875
-513.671875,-887.20703125,-1000.0,283.203125
-425.29296875,-1000.0,-1000.0,273.4375
129.39453125,-239.2578125,-28.3203125,367.67578125
393.06640625,999.51171875,999.51171875,411.62109375
8.7890625,585.9375,361.81640625,332.51953125
-513.18359375,-815.4296875,-939.453125,215.33203125
-478.02734375,-1000.0,-1000.0,220.21484375
95.21484375,-166.015625,-130.859375,303.22265625
392.08984375,999.51171875,999.51171875,343.26171875
52.734375,642.08984375,508.7890625,285.64453125
-463.8671875,-722.65625,-834.47265625,177.734375
-512.20703125,-1000.0,-1000.0,166.9921875
41.9921875,-250.0,-220.21484375,267.08984375
432.12890625,999.51171875,999.51171875,326.66015625
160.15625,962.40234375,725.5859375,265.13671875
-382.8125,-285.15625,-623.046875,153.80859375
-522.94921875,-1000.0,-1000.0,119.140625
-22.94921875,-339.84375,-220.21484375,179.6875
422.8515625,907.71484375,999.51171875,240.72265625
231.93359375,999.51171875,964.84375,205.078125
-329.58984375,127.9296875,-240.72265625,83.49609375
-562.01171875,-1000.0,-1000.0,34.66796875
-103.515625,-615.234375,-348.14453125,125.0
396.484375,759.765625,941.89453125,211.9140625
281.73828125,999.51171875,999.51171875,176.26953125
-251.46484375,184.5703125,-93.75,68.84765625
-546.38671875,-1000.0,-1000.0,8.7890625
-157.71484375,-653.80859375,-484.375,61.5234375
365.72265625,729.4921875,834.47265625,152.83203125
307.6171875,999.51171875,999.51171875,129.39453125
-198.73046875,215.8203125,111.81640625,20.99609375
-549.31640625,-1000.0,-1000.0,-26.85546875
-258.30078125,-979.00390625,-751.46484375,23.4375
315.4296875,305.17578125,596.19140625,124.0234375
368.1640625,999.51171875,999.51171875,137.20703125
-167.96875,133.30078125,119.140625,32.71484375
-559.08203125,-1000.0,-1000.0,-44.921875
-320.3125,-1000.0,-967.28515625,-0.48828125
245.1171875,-64.94140625,272.4609375,91.30859375
406.25,999.51171875,999.51171875,111.81640625
-72.75390625,268.06640625,153.80859375,22.4609375
-525.390625,-1000.0,-1000.0,-56.640625
-354.00390625,-1000.0,-1000.0,-35.15625
218.75,20.5078125,101.5625,34.1796875
413.0859375,999.51171875,999.51171875,47.36328125
-20.99609375,418.9453125,224.609375,-30.76171875
-503.90625,-896.484375,-993.65234375,-120.1171875
-430.17578125,-1000.0,-1000.0,-145.01953125
144.04296875,-196.2890625,-120.1171875,-91.796875
435.546875,999.51171875,999.51171875,-98.6328125
51.7578125,578.61328125,367.1875,-235.3515625
-479.4921875,-797.8515625,-933.59375,-355.95703125
-461.42578125,-1000.0,-1000.0,-323.2421875
95.703125,-240.72265625,-230.46875,-227.05078125
438.4765625,999.51171875,999.51171875,-173.828125
147.4609375,920.8984375,618.65234375,-220.21484375
-394.53125,-365.72265625,-750.48828125,-308.59375
-497.55859375,-1000.0,-1000.0,-306.640625
26.3671875,-246.58203125,-213.8671875,-241.2109375
443.359375,986.81640625,999.51171875,-203.61328125
201.171875,999.51171875,797.8515625,-232.91015625
-350.09765625,-153.3203125,-520.99609375,-304.6875
-526.3671875,-1000.0,-1000.0,-395.01953125
-29.296875,-216.30859375,-247.55859375,-329.58984375
432.6171875,957.51953125,992.1875,-124.0234375
249.51171875,999.51171875,994.62890625,-81.54296875
-277.83203125,229.4921875,-179.19921875,-118.65234375
-524.4140625,-1000.0,-1000.0,-83.0078125
-105.46875,-538.0859375,-392.08984375,41.9921875
403.80859375,848.6328125,906.73828125,159.66796875
316.89453125,999.51171875,999.51171875,154.296875
-221.19140625,178.7109375,2.9296875,71.2890625
-545.41015625,-1000.0,-1000.0,32.71484375
-185.546875,-867.67578125,-588.8671875,106.93359375
367.1875,458.984375,750.48828125,209.47265625
367.67578125,999.51171875,999.51171875,214.35546875
-154.78515625,235.3515625,149.90234375,118.1640625
-539.0625,-1000.0,-1000.0,40.0390625
-246.58203125,-689.94140625,-726.07421875,99.12109375
328.61328125,706.0546875,629.8828125,199.21875
388.671875,999.51171875,999.51171875,201.66015625
-126.953125,170.41015625,155.2734375,90.8203125
-542.96875,-1000.0,-1000.0,9.27734375
-313.96484375,-1000.0,-970.703125,60.05859375
267.08984375,-64.94140625,266.6015625,154.296875
439.94140625,999.51171875,999.51171875,178.22265625
-18.06640625,389.6484375,222.16796875,92.7734375
-495.60546875,-932.12890625,-1000.0,-2.44140625
-361.328125,-1000.0,-1000.0,24.90234375
222.16796875,-129.39453125,91.30859375,127.9296875
451.171875,999.51171875,999.51171875,166.9921875
43.45703125,637.6953125,400.390625,85.44921875
-444.82421875,-725.09765625,-916.50390625,-13.671875
-393.06640625,-1000.0,-1000.0,11.23046875
163.0859375,-205.56640625,-52.734375,109.86328125
462.40234375,999.51171875,999.51171875,143.5546875
138.18359375,836.9140625,630.859375,70.80078125
-394.53125,-494.140625,-713.37890625,-29.78515625
-447.75390625,-1000.0,-1000.0,-14.16015625
116.69921875,-154.296875,-125.0,80.078125
461.9140625,964.84375,999.51171875,123.046875
188.96484375,999.51171875,923.828125,72.75390625
-323.2421875,221.19140625,-311.5234375,-17.08984375
-491.69921875,-1000.0,-1000.0,-52.24609375
8.7890625,-394.53125,-171.875,27.83203125
446.2890625,948.73046875,999.51171875,115.72265625
241.69921875,999.51171875,999.51171875,75.1953125
-280.2734375,30.2734375,-85.44921875,-39.55078125
-508.7890625,-1000.0,-1000.0,-62.01171875
-47.8515625,-461.42578125,-195.80078125,33.69140625
439.94140625,865.72265625,984.375,105.95703125
284.66796875,999.51171875,999.51171875,63.96484375
-253.90625,195.3125,114.74609375,-44.43359375
-550.29296875,-1000.0,-1000.0,-88.37890625
-115.72265625,-259.765625,-268.06640625,-10.7421875
411.62109375,982.421875,971.19140625,69.82421875
313.96484375,999.51171875,999.51171875,56.640625
-208.49609375,198.73046875,167.96875,-35.15625
-547.8515625,-1000.0,-1000.0,-104.00390625
-209.9609375,-874.0234375,-546.38671875,-41.9921875
344.7265625,440.4296875,809.5703125,51.26953125
356.4453125,999.51171875,999.51171875,42.96875
-147.4609375,259.27734375,190.4296875,-58.10546875
-538.0859375,-999.0234375,-1000.0,-123.046875
-287.109375,-1000.0,-778.3203125,-62.5
288.57421875,119.62890625,566.89453125,38.0859375
404.296875,999.51171875,999.51171875,59.5703125
-74.70703125,292.96875,193.84765625,-32.2265625
-512.6953125,-964.35546875,-1000.0,-111.81640625
-343.26171875,-1000.0,-993.1640625,-66.89453125
220.21484375,-104.98046875,227.5390625,35.64453125
419.43359375,999.51171875,999.51171875,65.91796875
-7.8125,480.95703125,274.4140625,-17.578125
-489.74609375,-874.51171875,-977.5390625,-96.19140625
-408.203125,-1000.0,-1000.0,-73.2421875
161.1328125,-178.7109375,-25.390625,28.80859375
430.6640625,999.51171875,999.51171875,80.078125
53.7109375,975.5859375,469.23828125,-13.18359375
-452.1484375,-238.28125,-862.3046875,-109.86328125
-446.2890625,-1000.0,-1000.0,-80.078125
104.00390625,-194.82421875,-149.90234375,20.01953125
436.5234375,999.51171875,999.51171875,82.03125
132.32421875,962.40234375,652.83203125,26.85546875
-402.34375,-285.15625,-696.2890625,-80.078125
-492.67578125,-1000.0,-1000.0,-91.796875
43.9453125,-200.68359375,-203.61328125,-0.48828125
431.640625,997.55859375,999.51171875,60.546875
180.6640625,999.51171875,846.19140625,7.8125
-355.46875,-106.4453125,-459.47265625,-93.26171875
-526.3671875,-1000.0,-1000.0,-102.05078125
-13.18359375,-165.52734375,-198.73046875,-11.23046875
419.921875,979.4921875,999.51171875,57.12890625
218.75,999.51171875,987.3046875,23.92578125
-293.45703125,224.12109375,-182.12890625,-75.1953125
-536.62109375,-1000.0,-1000.0,-105.46875
-109.375,-621.09375,-361.328125,-14.16015625
393.06640625,770.5078125,925.29296875,63.4765625
290.0390625,999.51171875,999.51171875,31.25
-246.58203125,178.22265625,-19.53125,-61.03515625
-559.5703125,-1000.0,-1000.0,-112.3046875
-195.3125,-787.59765625,-561.03515625,-40.52734375
338.8671875,574.70703125,778.3203125,57.12890625
343.26171875,999.51171875,999.51171875,41.9921875
-169.43359375,171.38671875,121.58203125,-56.640625
-555.6640625,-1000.0,-1000.0,-111.328125
-266.11328125,-1000.0,-837.40234375,-41.50390625
303.7109375,109.375,479.00390625,51.26953125
377.44140625,999.51171875,999.51171875,48.828125
-124.51171875,353.515625,143.06640625,-50.78125
-534.66796875,-947.75390625,-1000.0,-125.9765625
-333.984375,-1000.0,-1000.0,-82.51953125
223.6328125,-16.11328125,180.17578125,27.34375
384.27734375,999.51171875,999.51171875,47.36328125
-85.44921875,252.9296875,134.27734375,-52.734375
-531.73828125,-977.5390625,-1000.0,-122.55859375
-375.9765625,-1000.0,-1000.0,-78.61328125
175.29296875,-255.859375,-138.671875,24.90234375
413.0859375,999.51171875,999.51171875,57.12890625
-16.11328125,338.37890625,174.8046875,-33.203125
-532.71484375,-970.703125,-1000.0,-133.30078125
-441.89453125,-1000.0,-1000.0,-121.09375
130.37109375,-234.86328125,-238.28125,-9.765625
425.78125,999.51171875,999.51171875,43.9453125
71.77734375,759.27734375,318.359375,-24.4140625
-452.63671875,-605.46875,-972.16796875,-112.79296875
-466.796875,-1000.0,-1000.0,-111.328125
94.23828125,-214.84375,-252.9296875,-11.71875
446.2890625,999.51171875,999.51171875,49.31640625
122.55859375,688.96484375,452.63671875,-16.6015625
-417.48046875,-661.1328125,-888.671875,-113.28125
-511.71875,-1000.0,-1000.0,-112.79296875
-20.01953125,-499.0234375,-304.6875,-17.08984375
413.0859375,860.3515625,999.51171875,59.5703125
209.47265625,999.51171875,746.58203125,27.34375
-341.796875,-168.9453125,-604.00390625,-78.61328125
-524.90234375,-1000.0,-1000.0,-106.93359375
-60.05859375,-490.72265625,-354.4921875,-19.04296875
412.59765625,825.1953125,940.4296875,61.03515625
268.06640625,999.51171875,999.51171875,27.34375
-275.390625,194.82421875,-166.9921875,-86.9140625
-552.734375,-1000.0,-1000.0,-126.46484375
-150.87890625,-752.44140625,-510.25390625,-39.55078125
375.9765625,625.48828125,836.9140625,58.10546875
301.7578125,999.51171875,999.51171875,39.55078125
-249.0234375,154.296875,-47.8515625,-76.66015625
-550.78125,-1000.0,-1000.0,-123.53515625
-206.0546875,-858.3984375,-692.3828125,-56.640625
336.42578125,473.6328125,640.13671875,48.33984375
376.46484375,999.51171875,999.51171875,67.3828125
-137.6953125,151.3671875,109.375,-45.41015625
-524.4140625,-1000.0,-1000.0,-111.328125
-275.390625,-1000.0,-906.73828125,-56.15234375
284.66796875,64.453125,374.51171875,46.38671875
410.64453125,999.51171875,999.51171875,70.3125
-84.9609375,161.1328125,136.71875,-33.69140625
-515.13671875,-1000.0,-1000.0,-100.5859375
-310.546875,-1000.0,-1000.0,-55.6640625
250.9765625,-252.9296875,76.66015625,34.66796875
436.03515625,999.51171875,999.51171875,69.3359375
-0.48828125,454.1015625,202.1484375,-8.30078125
-473.14453125,-937.98828125,-1000.0,-90.33203125
-356.4453125,-1000.0,-1000.0,-64.453125
210.9375,-32.2265625,-33.69140625,21.484375
456.54296875,999.51171875,999.51171875,60.546875
55.6640625,497.55859375,319.3359375,-8.7890625
-439.453125,-845.703125,-949.70703125,-97.65625
-407.71484375,-1000.0,-1000.0,-84.9609375
145.01953125,-216.796875,-208.49609375,15.13671875
471.19140625,999.51171875,999.51171875,70.3125
137.20703125,831.0546875,558.10546875,0.9765625
-406.73828125,-503.90625,-803.22265625,-102.5390625
-465.33203125,-1000.0,-1000.0,-103.02734375
85.44921875,-159.66796875,-193.359375,-8.7890625
456.0546875,972.16796875,999.51171875,45.41015625
187.98828125,999.51171875,890.13671875,0.0
-345.21484375,130.37109375,-386.23046875,-91.796875
-507.32421875,-1000.0,-1000.0,-96.19140625
3.41796875,-265.625,-189.453125,1.953125
461.9140625,991.69921875,999.51171875,74.70703125
256.34765625,999.51171875,992.67578125,30.2734375
-291.50390625,36.1328125,-177.734375,-75.68359375
-511.23046875,-1000.0,-1000.0,-90.33203125
-66.89453125,-496.09375,-269.04296875,-6.8359375
418.45703125,844.7265625,956.0546875,52.734375
292.48046875,999.51171875,999.51171875,32.71484375
-236.81640625,177.734375,61.5234375,-61.5234375
-527.34375,-1000.0,-1000.0,-113.76953125
-149.4140625,-838.37890625,-423.828125,-48.828125
378.41796875,505.859375,888.671875,46.38671875
342.7734375,999.51171875,999.51171875,42.96875
-165.52734375,165.52734375,168.9453125,-55.6640625
-517.08984375,-1000.0,-1000.0,-108.3984375
-210.44921875,-915.52734375,-615.72265625,-46.38671875
343.26171875,382.32421875,747.0703125,46.875
387.6953125,999.51171875,999.51171875,48.828125
-105.46875,224.609375,181.15234375,-43.45703125
-505.37109375,-1000.0,-1000.0,-115.234375
-273.92578125,-1000.0,-834.9609375,-66.89453125
290.52734375,122.55859375,483.88671875,36.62109375
409.66796875,999.51171875,999.51171875,38.57421875
-62.01171875,558.59375,228.515625,-52.24609375
-514.6484375,-775.87890625,-1000.0,-121.09375
-374.51171875,-1000.0,-1000.0,-89.35546875
193.359375,-162.109375,146.484375,2.44140625
413.0859375,999.51171875,999.51171875,42.48046875
-14.16015625,373.046875,264.16015625,-29.296875
-504.39453125,-947.265625,-975.09765625,-104.98046875
-409.66796875,-1000.0,-1000.0,-73.2421875
151.3671875,-186.5234375,-108.88671875,20.5078125
434.5703125,999.51171875,999.51171875,63.96484375
84.47265625,958.49609375,487.3046875,-0.48828125
-435.05859375,-286.1328125,-855.95703125,-92.28515625
-464.35546875,-1000.0,-1000.0,-99.609375
95.703125,-199.21875,-185.05859375,-10.7421875
454.1015625,999.51171875,999.51171875,50.78125
142.578125,899.90234375,625.48828125,-4.39453125
-411.1328125,-379.39453125,-730.95703125,-91.796875
-513.671875,-1000.0,-1000.0,-80.078125
18.06640625,-285.64453125,-213.8671875,33.203125
429.6875,947.75390625,999.51171875,101.5625
193.84765625,999.51171875,840.33203125,48.33984375
-350.09765625,-12.6953125,-461.42578125,-57.6171875
-522.94921875,-1000.0,-1000.0,-61.5234375
-41.50390625,-348.6328125,-253.41796875,-22.4609375
413.57421875,935.546875,995.60546875,-47.8515625
250.0,999.51171875,984.86328125,-110.83984375
-288.57421875,60.05859375,-204.58984375,-204.58984375
-547.8515625,-1000.0,-1000.0,-203.125
-119.62890625,-485.83984375,-374.51171875,-113.28125
392.578125,860.83984375,911.62109375,-39.0625
291.50390625,999.51171875,999.51171875,-144.04296875
-248.53515625,128.90625,16.6015625,-316.40625
-551.26953125,-1000.0,-1000.0,-307.6171875
-203.61328125,-870.1171875,-610.3515625,-229.00390625
346.6796875,447.265625,736.328125,-155.76171875
352.5390625,999.51171875,999.51171875,-145.5078125
-184.5703125,139.16015625,121.09375,-216.30859375
-538.0859375,-1000.0,-1000.0,-268.06640625
-261.71875,-1000.0,-837.890625,-213.37890625
293.45703125,38.57421875,475.5859375,-104.00390625
393.06640625,999.51171875,999.51171875,-91.30859375
-104.98046875,250.9765625,157.2265625,-188.4765625
-518.5546875,-1000.0,-1000.0,-247.0703125
-309.08203125,-1000.0,-980.46875,-185.05859375
252.44140625,1.953125,243.1640625,-83.0078125
420.8984375,999.51171875,999.51171875,-64.453125
-11.71875,822.265625,258.30078125,-163.57421875
-497.0703125,-460.44921875,-989.74609375,-264.16015625
-414.0625,-1000.0,-1000.0,-260.7421875
175.78125,-194.3359375,13.671875,-183.10546875
437.01171875,999.51171875,999.51171875,-149.4140625
41.9921875,625.9765625,347.16796875,-164.0625
-455.56640625,-758.30078125,-938.96484375,-146.484375
-406.25,-1000.0,-1000.0,-48.828125
162.59765625,-215.8203125,-152.83203125,86.9140625
471.19140625,999.51171875,999.51171875,62.98828125
122.55859375,784.66796875,557.12890625,-166.015625
-426.26953125,-572.265625,-800.29296875,-407.71484375
-491.69921875,-1000.0,-1000.0,-565.91796875
64.94140625,-159.66796875,-169.43359375,-598.6328125
436.5234375,999.51171875,999.51171875,-619.62890625
164.55078125,999.51171875,795.8984375,-643.06640625
-367.1875,-77.63671875,-515.625,-606.4453125
-508.30078125,-1000.0,-1000.0,-525.87890625
14.16015625,-337.890625,-194.82421875,-366.69921875
449.21875,936.03515625,999.51171875,-255.37109375
244.62890625,999.51171875,973.6328125,-323.2421875
-298.828125,44.43359375,-220.21484375,-442.3828125
-518.5546875,-1000.0,-1000.0,-399.90234375
-57.6171875,-415.0390625,-250.0,-254.8828125
425.78125,894.04296875,967.7734375,-166.9921875
290.52734375,999.51171875,999.51171875,-206.0546875
-243.65234375,187.01171875,25.390625,-308.10546875
-538.0859375,-1000.0,-1000.0,-320.3125
-142.578125,-735.3515625,-418.9453125,-216.30859375
391.11328125,640.13671875,891.11328125,-133.7890625
333.984375,999.51171875,999.51171875,-143.06640625
-200.1953125,167.48046875,138.18359375,-192.87109375
-537.109375,-1000.0,-1000.0,-198.2421875
-214.35546875,-913.0859375,-631.34765625,-116.2109375
349.609375,365.234375,728.02734375,-2.9296875
394.53125,999.51171875,999.51171875,13.18359375
-106.4453125,456.0546875,182.6171875,-71.2890625
-509.765625,-916.9921875,-1000.0,-131.8359375
-291.9921875,-1000.0,-808.10546875,-82.51953125
280.76171875,198.2421875,525.87890625,22.4609375
409.66796875,999.51171875,999.51171875,45.41015625
-73.2421875,374.0234375,201.66015625,-40.52734375
-511.23046875,-934.08203125,-1000.0,-106.4453125
-327.63671875,-1000.0,-991.69921875,-53.7109375
249.0234375,-11.23046875,236.81640625,59.08203125
458.984375,999.51171875,999.51171875,91.30859375
10.7421875,372.0703125,280.2734375,-4.8828125
-487.79296875,-969.23828125,-991.2109375,-82.51953125
-360.83984375,-1000.0,-1000.0,-21.97265625
206.0546875,90.33203125,73.73046875,86.9140625
447.75390625,999.51171875,999.51171875,118.65234375
85.44921875,695.3125,489.2578125,39.55078125
-432.12890625,-614.2578125,-838.8671875,-41.50390625
-426.7578125,-1000.0,-1000.0,-22.94921875
131.8359375,-163.57421875,-116.2109375,22.94921875
440.91796875,973.14453125,999.51171875,29.296875
139.6484375,999.51171875,809.5703125,-4.39453125
-369.62890625,93.75,-492.67578125,-71.2890625
-483.88671875,-1000.0,-1000.0,-58.59375
36.1328125,-310.05859375,-185.05859375,19.53125
446.77734375,989.2578125,999.51171875,48.828125
197.75390625,999.51171875,928.7109375,-23.4375
-353.02734375,-103.02734375,-319.82421875,-118.65234375
-520.99609375,-1000.0,-1000.0,-76.171875
-20.5078125,-280.2734375,-184.5703125,73.73046875
421.875,937.98828125,994.140625,156.25
240.234375,999.51171875,999.51171875,122.0703125
-286.62109375,217.28515625,-26.85546875,29.296875
-533.203125,-1000.0,-1000.0,-10.7421875
-103.515625,-515.13671875,-283.69140625,45.41015625
395.5078125,848.6328125,950.68359375,122.55859375
289.55078125,999.51171875,999.51171875,114.2578125
-227.5390625,338.37890625,147.94921875,16.11328125
-533.69140625,-1000.0,-1000.0,-22.4609375
-180.17578125,-784.1796875,-444.82421875,54.19921875
366.2109375,625.48828125,885.7421875,129.39453125
347.65625,999.51171875,999.51171875,107.91015625
-187.01171875,165.52734375,178.7109375,11.23046875
-560.546875,-1000.0,-1000.0,-67.87109375
-246.58203125,-930.6640625,-666.50390625,-30.76171875
333.0078125,360.83984375,700.1953125,70.80078125
398.4375,999.51171875,999.51171875,85.44921875
-105.95703125,230.95703125,183.59375,-10.25390625
-522.94921875,-1000.0,-1000.0,-119.62890625
-290.52734375,-827.63671875,-815.91796875,-114.2578125
286.1328125,513.671875,507.32421875,-39.55078125
415.52734375,999.51171875,999.51171875,-58.10546875
-40.52734375,595.703125,271.484375,-126.46484375
-504.8828125,-710.44921875,-993.65234375,-149.4140625
-377.44140625,-1000.0,-1000.0,-75.68359375
204.58984375,-195.3125,117.67578125,59.08203125
441.40625,999.51171875,999.51171875,112.79296875
39.0625,617.67578125,364.2578125,46.875
-461.9140625,-767.08984375,-930.6640625,-46.875
-427.24609375,-1000.0,-1000.0,-20.01953125
131.8359375,-200.68359375,-83.0078125,91.30859375
437.98828125,999.51171875,999.51171875,134.27734375
106.93359375,921.875,597.16796875,42.96875
-436.03515625,-355.46875,-748.046875,-164.0625
-508.7890625,-1000.0,-1000.0,-249.0234375
55.6640625,-210.9375,-176.7578125,-130.859375
421.875,987.79296875,999.51171875,-113.76953125
128.90625,999.51171875,846.6796875,-260.25390625
-398.92578125,-79.58984375,-454.58984375,-409.1796875
-527.83203125,-1000.0,-1000.0,-417.48046875
-1.953125,-288.0859375,-185.546875,-254.39453125
428.22265625,937.98828125,999.51171875,-183.10546875
213.8671875,999.51171875,981.4453125,-227.05078125
-325.1953125,196.2890625,-203.61328125,-312.98828125
-544.43359375,-1000.0,-1000.0,-430.17578125
-73.2421875,-594.23828125,-237.79296875,-468.75
402.34375,793.9453125,978.02734375,-392.08984375
263.18359375,999.51171875,999.51171875,-280.2734375
-258.7890625,174.31640625,-7.32421875,-223.6328125
-532.71484375,-1000.0,-1000.0,-144.04296875
-118.65234375,-578.125,-374.51171875,34.66796875
408.69140625,807.6171875,909.1796875,238.76953125
333.49609375,999.51171875,999.51171875,296.875
-201.171875,199.70703125,153.80859375,232.421875
-549.31640625,-1000.0,-1000.0,174.31640625
-201.66015625,-340.8203125,-484.375,260.25390625
343.75,950.1953125,856.93359375,328.61328125
329.1015625,999.51171875,999.51171875,233.3984375
-172.8515625,171.38671875,177.24609375,69.82421875
-552.24609375,-1000.0,-1000.0,-125.0
-294.43359375,-1000.0,-812.01171875,-105.95703125
272.4609375,90.8203125,521.484375,121.09375
387.20703125,999.51171875,999.51171875,222.16796875
-86.42578125,266.6015625,175.29296875,180.17578125
-521.484375,-977.05078125,-1000.0,120.60546875
-345.21484375,-1000.0,-986.328125,114.74609375
220.21484375,-79.58984375,227.5390625,196.77734375
405.76171875,999.51171875,999.51171875,264.6484375
-14.6484375,851.07421875,329.58984375,208.49609375
-493.65234375,-437.5,-958.984375,119.140625
-408.203125,-1000.0,-1000.0,148.4375
169.921875,-196.77734375,22.94921875,230.46875
434.08203125,999.51171875,999.51171875,236.81640625
54.19921875,667.48046875,429.19921875,140.13671875
-456.54296875,-710.9375,-887.20703125,49.31640625
-456.0546875,-1000.0,-1000.0,-104.98046875
101.07421875,-211.42578125,-145.99609375,-203.125
436.5234375,999.51171875,999.51171875,-172.36328125
114.74609375,807.6171875,630.859375,-238.76953125
-412.59765625,-520.01953125,-719.23828125,-354.98046875
-474.609375,-1000.0,-1000.0,-300.78125
54.6875,-321.2890625,-201.66015625,-15.625
433.59375,995.1171875,999.51171875,-308.10546875
161.62109375,942.3828125,846.6796875,-829.1015625
-357.91015625,-363.76953125,-458.49609375,-586.42578125
-495.60546875,-1000.0,-1000.0,-250.9765625
6.8359375,-197.75390625,-192.3828125,-18.06640625
453.125,965.8203125,999.51171875,178.7109375
259.27734375,999.51171875,998.046875,210.9375
-288.57421875,107.421875,-174.31640625,113.28125
-531.73828125,-1000.0,-1000.0,-2.44140625
-62.98828125,-188.96484375,-233.88671875,99.12109375
418.9453125,993.65234375,972.16796875,262.6953125
272.4609375,999.51171875,999.51171875,258.7890625
-251.46484375,228.515625,52.734375,189.453125
-534.1796875,-1000.0,-1000.0,165.52734375
-151.85546875,-535.15625,-441.40625,233.88671875
380.859375,848.6328125,879.8828125,320.3125
344.7265625,999.51171875,999.51171875,316.89453125
-183.10546875,159.66796875,147.4609375,220.21484375
-543.9453125,-1000.0,-1000.0,149.4140625
-254.39453125,-1000.0,-721.19140625,193.359375
309.08203125,139.6484375,629.8828125,284.1796875
380.859375,999.51171875,999.51171875,282.2265625
-127.44140625,319.3359375,167.48046875,182.6171875
-544.921875,-961.9140625,-1000.0,110.83984375
-321.2890625,-1000.0,-923.828125,136.23046875
245.1171875,-24.90234375,352.5390625,226.5625
401.85546875,999.51171875,999.51171875,245.60546875
-68.84765625,375.9765625,199.70703125,140.625
-529.296875,-958.49609375,-1000.0,59.08203125
-357.421875,-1000.0,-1000.0,101.5625
235.83984375,23.4375,156.73828125,198.2421875
452.1484375,999.51171875,999.51171875,226.5625
23.4375,521.484375,307.12890625,137.20703125
-466.30859375,-813.96484375,-953.125,38.57421875
-402.34375,-1000.0,-1000.0,45.8984375
140.625,-212.890625,-109.375,144.53125
431.640625,999.51171875,999.51171875,188.4765625
99.609375,854.00390625,526.85546875,112.3046875
-428.22265625,-470.21484375,-819.82421875,5.859375
-481.4453125,-1000.0,-1000.0,-5.859375
81.54296875,-199.21875,-184.5703125,87.890625
439.94140625,999.51171875,999.51171875,157.71484375
135.7421875,884.765625,709.9609375,93.75
-387.6953125,-420.8984375,-639.16015625,-20.5078125
-488.28125,-1000.0,-1000.0,-27.34375
35.64453125,-174.8046875,-191.89453125,65.91796875
435.546875,999.51171875,999.51171875,135.25390625
206.0546875,999.51171875,918.9453125,89.84375
-329.1015625,-78.125,-331.0546875,-17.578125
-523.92578125,-1000.0,-1000.0,-48.828125
-51.7578125,-460.44921875,-235.83984375,27.83203125
417.96875,856.93359375,979.98046875,108.3984375
252.44140625,999.51171875,999.51171875,66.40625
-285.15625,141.6015625,-60.05859375,-49.31640625
-538.0859375,-1000.0,-1000.0,-79.58984375
-134.765625,-797.8515625,-378.90625,1.46484375
377.9296875,549.31640625,902.83203125,87.40234375
318.84765625,999.51171875,999.51171875,70.3125
-210.44921875,181.15234375,139.6484375,-29.78515625
-539.55078125,-1000.0,-1000.0,-81.0546875
-191.40625,-777.34375,-528.3203125,-8.30078125
360.83984375,589.35546875,822.265625,75.68359375
361.328125,999.51171875,999.51171875,74.21875
-159.1796875,168.45703125,177.734375,-20.5078125
-529.296875,-1000.0,-1000.0,-93.26171875
-260.7421875,-1000.0,-776.85546875,-29.78515625
286.62109375,151.3671875,570.3125,67.87109375
379.8828125,999.51171875,999.51171875,73.73046875
-95.703125,353.515625,175.78125,-20.5078125
-505.859375,-942.87109375,-1000.0,-89.84375
-311.03515625,-1000.0,-968.26171875,-40.52734375
241.2109375,-26.85546875,276.3671875,51.26953125
425.29296875,999.51171875,999.51171875,78.61328125
-20.01953125,357.421875,221.19140625,-3.90625
-492.67578125,-937.01171875,-1000.0,-91.796875
-373.046875,-1000.0,-1000.0,-72.265625
187.98828125,-202.1484375,31.73828125,28.80859375
451.66015625,999.51171875,999.51171875,78.125
53.22265625,574.21875,370.1171875,-4.39453125
-479.98046875,-812.5,-930.17578125,-107.421875
-438.96484375,-1000.0,-1000.0,-83.984375
144.53125,-176.26953125,-121.58203125,26.3671875
450.1953125,999.51171875,999.51171875,77.1484375
114.74609375,862.3046875,591.30859375,-1.953125
-411.1328125,-448.2421875,-758.7890625,-101.07421875
-467.7734375,-1000.0,-1000.0,-96.19140625
67.87109375,-171.38671875,-190.91796875,-0.48828125
437.5,993.1640625,999.51171875,76.171875
176.7578125,999.51171875,845.21484375,24.90234375
-366.2109375,-42.96875,-457.03125,-90.8203125
-522.94921875,-1000.0,-1000.0,-106.93359375
-17.08984375,-327.1484375,-189.453125,-11.23046875
425.78125,923.828125,999.51171875,64.453125
236.328125,999.51171875,999.51171875,26.85546875
-285.15625,206.0546875,-146.97265625,-69.3359375
-510.7421875,-1000.0,-1000.0,-89.84375
-80.078125,-580.078125,-287.59765625,-10.7421875
404.296875,809.08203125,952.63671875,57.6171875
293.9453125,999.51171875,999.51171875,44.921875
-233.88671875,188.96484375,45.8984375,-46.875
-520.99609375,-1000.0,-1000.0,-90.33203125
-129.39453125,-734.86328125,-415.52734375,-12.6953125
407.71484375,643.06640625,893.5546875,77.1484375
348.14453125,999.51171875,999.51171875,53.22265625
-210.9375,193.359375,154.78515625,-62.01171875
-546.38671875,-1000.0,-1000.0,-119.62890625
-197.75390625,-620.60546875,-569.3359375,-39.55078125
353.02734375,768.5546875,789.55078125,63.96484375
368.65234375,999.51171875,999.51171875,61.03515625
-127.9296875,152.83203125,172.8515625,-37.109375
-520.5078125,-1000.0,-1000.0,-103.02734375
-274.90234375,-1000.0,-857.91015625,-48.828125
301.26953125,111.328125,455.078125,44.43359375
407.2265625,999.51171875,999.51171875,58.10546875
-62.98828125,373.53515625,193.84765625,-25.87890625
-495.60546875,-934.5703125,-1000.0,-103.515625
-341.30859375,-1000.0,-1000.0,-74.70703125
225.5859375,-37.109375,169.921875,26.3671875
439.453125,999.51171875,999.51171875,58.59375
23.4375,530.2734375,302.734375,-29.296875
-474.609375,-815.91796875,-959.47265625,-119.62890625
-407.71484375,-1000.0,-1000.0,-83.49609375
166.9921875,-225.5859375,-79.1015625,23.4375
445.80078125,999.51171875,999.51171875,64.453125
70.3125,720.703125,463.37890625,-14.16015625
-444.82421875,-653.3203125,-867.1875,-105.46875
-448.73046875,-1000.0,-1000.0,-89.35546875
105.95703125,-159.1796875,-179.6875,0.0
440.4296875,964.84375,999.51171875,58.10546875
159.66796875,999.51171875,783.203125,6.8359375
-374.51171875,172.36328125,-541.015625,-91.30859375
-496.09375,-1000.0,-1000.0,-95.703125
46.38671875,-259.765625,-194.3359375,3.90625
443.359375,998.046875,999.51171875,68.359375
193.359375,999.51171875,889.6484375,1.953125
-342.28515625,43.45703125,-380.37109375,-95.703125
-528.80859375,-1000.0,-1000.0,-113.76953125
-34.1796875,-354.4921875,-207.03125,-26.3671875
433.59375,926.7578125,994.140625,59.5703125
255.37109375,999.51171875,999.51171875,20.5078125
-304.19921875,162.109375,-81.54296875,-82.51953125
-556.15234375,-1000.0,-1000.0,-120.1171875
-123.046875,-657.2265625,-334.47265625,-48.828125
369.140625,723.6328125,930.17578125,40.0390625
294.43359375,999.51171875,999.51171875,30.2734375
-223.6328125,185.05859375,91.796875,-53.7109375
-548.828125,-1000.0,-1000.0,-114.2578125
-201.171875,-774.90234375,-509.27734375,-63.96484375
342.7734375,577.1484375,830.078125,36.1328125
341.796875,999.51171875,999.51171875,35.15625
-154.78515625,318.359375,184.5703125,-62.98828125
-532.2265625,-1000.0,-1000.0,-125.9765625
-260.25390625,-984.86328125,-734.375,-62.01171875
304.6875,334.9609375,624.51171875,32.2265625
378.41796875,999.51171875,999.51171875,41.015625
-112.79296875,151.85546875,164.0625,-53.7109375
-535.15625,-1000.0,-1000.0,-119.62890625
-318.84765625,-1000.0,-942.3828125,-64.453125
263.671875,-39.0625,314.94140625,22.4609375
422.8515625,999.51171875,999.51171875,46.38671875
-36.62109375,424.31640625,226.5625,-38.0859375
-496.09375,-899.4140625,-1000.0,-117.1875
-363.28125,-1000.0,-1000.0,-77.1484375
205.56640625,-174.31640625,45.8984375,18.5546875
436.5234375,999.51171875,999.51171875,45.41015625
49.8046875,947.75390625,422.36328125,-32.2265625
-444.3359375,-305.17578125,-895.5078125,-115.72265625
-431.15234375,-1000.0,-1000.0,-105.95703125
120.60546875,-204.58984375,-107.421875,-8.30078125
428.7109375,999.51171875,999.51171875,50.78125
104.98046875,830.078125,561.03515625,-13.18359375
-418.9453125,-504.39453125,-786.62109375,-109.375
-467.28515625,-1000.0,-1000.0,-102.5390625
89.35546875,-172.36328125,-186.03515625,0.48828125
456.0546875,992.67578125,999.51171875,52.734375
188.4765625,999.51171875,832.51953125,-0.48828125
-359.86328125,-61.03515625,-476.5625,-97.16796875
-508.30078125,-1000.0,-1000.0,-116.2109375
15.625,-181.640625,-183.10546875,-12.6953125
424.8046875,999.51171875,999.51171875,55.6640625
206.54296875,999.51171875,975.09765625,0.48828125
-328.61328125,40.0390625,-217.7734375,-103.515625
-532.2265625,-1000.0,-1000.0,-123.046875
-70.3125,-483.3984375,-252.9296875,-37.109375
395.99609375,854.4921875,971.19140625,34.66796875
266.11328125,999.51171875,999.51171875,5.859375
-256.8359375,181.640625,-9.765625,-96.6796875
-538.0859375,-1000.0,-1000.0,-142.08984375
-137.20703125,-562.98828125,-377.44140625,-63.4765625
406.73828125,820.3125,911.1328125,44.43359375
331.54296875,999.51171875,999.51171875,27.83203125
-213.8671875,175.29296875,119.62890625,-72.265625
-538.0859375,-1000.0,-1000.0,-116.69921875
-213.8671875,-890.625,-625.48828125,-55.17578125
333.0078125,422.8515625,729.98046875,37.109375
358.88671875,999.51171875,999.51171875,30.2734375
-148.92578125,206.54296875,169.43359375,-63.96484375
-536.62109375,-1000.0,-1000.0,-129.39453125
-292.48046875,-1000.0,-871.09375,-80.078125
274.4140625,33.203125,437.01171875,17.08984375
393.5546875,999.51171875,999.51171875,33.69140625
-66.89453125,517.08984375,182.12890625,-59.08203125
-499.51171875,-818.359375,-1000.0,-130.859375
-346.19140625,-1000.0,-1000.0,-83.0078125
209.47265625,-215.33203125,117.67578125,17.578125
405.76171875,999.51171875,999.51171875,46.875
-16.11328125,541.9921875,263.671875,-37.59765625
-500.48828125,-843.26171875,-983.88671875,-129.39453125
-404.78515625,-1000.0,-1000.0,-101.5625
154.296875,-215.8203125,-60.546875,1.46484375
422.8515625,999.51171875,999.51171875,50.78125
59.5703125,686.5234375,409.66796875,-26.85546875
-462.40234375,-698.2421875,-910.64453125,-127.44140625
-447.75390625,-1000.0,-1000.0,-112.79296875
122.55859375,-149.90234375,-146.484375,-15.625
445.3125,999.51171875,999.51171875,50.29296875
142.08984375,998.53515625,657.71484375,-1.953125
-385.25390625,-187.98828125,-686.03515625,-105.95703125
-485.3515625,-1000.0,-1000.0,-117.1875
47.8515625,-235.3515625,-207.51953125,-17.578125
449.70703125,976.07421875,999.51171875,56.640625
198.2421875,999.51171875,846.6796875,10.7421875
-345.21484375,-2.9296875,-455.078125,-83.49609375
-522.94921875,-1000.0,-1000.0,-116.2109375
-19.04296875,-334.47265625,-212.40234375,-19.04296875
447.265625,943.84765625,999.51171875,73.73046875
260.7421875,999.51171875,999.51171875,14.16015625
-290.0390625,57.6171875,-165.0390625,-91.796875
-541.015625,-1000.0,-1000.0,-124.51171875
-101.5625,-538.0859375,-328.125,-46.875
397.4609375,815.91796875,930.6640625,44.43359375
306.640625,999.51171875,999.51171875,34.66796875
-236.328125,180.17578125,57.12890625,-68.84765625
-557.12890625,-1000.0,-1000.0,-130.859375
-179.6875,-878.41796875,-529.296875,-52.734375
372.0703125,431.640625,812.01171875,44.43359375
357.91015625,999.51171875,999.51171875,38.0859375
-160.15625,303.7109375,159.1796875,-57.12890625
-534.1796875,-993.65234375,-1000.0,-111.328125
-265.625,-1000.0,-738.76953125,-62.98828125
305.6640625,196.2890625,612.3046875,30.76171875
380.37109375,999.51171875,999.51171875,51.26953125
-119.140625,266.11328125,166.50390625,-55.17578125
-536.62109375,-994.140625,-1000.0,-125.0
-321.77734375,-1000.0,-923.828125,-79.58984375
254.39453125,50.78125,349.12109375,13.18359375
403.3203125,999.51171875,999.51171875,38.57421875
-37.109375,512.6953125,227.5390625,-45.41015625
-493.65234375,-873.53515625,-1000.0,-114.2578125
-360.3515625,-1000.0,-1000.0,-72.265625
214.35546875,98.6328125,163.57421875,24.90234375
432.6171875,999.51171875,999.51171875,57.6171875
9.27734375,369.62890625,288.0859375,-24.4140625
-486.81640625,-918.45703125,-964.35546875,-108.88671875
-403.80859375,-1000.0,-1000.0,-83.0078125
166.9921875,-178.7109375,-98.6328125,27.34375
455.56640625,999.51171875,999.51171875,68.84765625
116.2109375,810.546875,516.11328125,-17.08984375
-420.41015625,-520.01953125,-825.68359375,-105.95703125
-467.7734375,-1000.0,-1000.0,-104.4921875
100.5859375,-194.3359375,-195.80078125,0.9765625
457.03125,999.51171875,999.51171875,74.70703125
148.4375,927.24609375,721.19140625,-1.953125
-385.25390625,-341.796875,-627.9296875,-109.375
-494.62890625,-1000.0,-1000.0,-115.234375
24.4140625,-237.3046875,-198.2421875,-21.484375
446.77734375,983.3984375,999.51171875,55.17578125
228.515625,999.51171875,904.296875,15.13671875
-331.0546875,-107.421875,-356.93359375,-91.796875
-536.62109375,-1000.0,-1000.0,-123.046875
-39.55078125,-220.703125,-234.86328125,-30.2734375
425.29296875,961.42578125,987.79296875,50.78125
257.8125,999.51171875,999.51171875,14.6484375
-266.11328125,201.171875,-100.5859375,-78.125
-520.5078125,-1000.0,-1000.0,-112.3046875
-124.0234375,-758.30078125,-411.1328125,-41.9921875
384.27734375,611.81640625,890.13671875,48.33984375
317.3828125,999.51171875,999.51171875,23.92578125
-223.14453125,182.6171875,87.40234375,-78.61328125
-554.19921875,-1000.0,-1000.0,-129.39453125
-210.44921875,-773.4375,-584.47265625,-67.3828125
348.14453125,597.16796875,767.08984375,38.0859375
367.1875,999.51171875,999.51171875,45.41015625
-165.0390625,192.87109375,167.96875,-64.453125
-560.05859375,-1000.0,-1000.0,-140.625
-264.6484375,-617.1875,-715.8203125,-78.125
320.80078125,771.484375,644.04296875,32.71484375
406.73828125,999.51171875,999.51171875,49.31640625
-86.42578125,177.734375,161.1328125,-52.24609375
-527.34375,-1000.0,-1000.0,-126.953125
-330.56640625,-1000.0,-988.28125,-85.44921875
255.859375,-14.6484375,228.515625,15.625
432.12890625,999.51171875,999.51171875,42.48046875
-6.34765625,554.6875,256.8359375,-39.0625
-465.8203125,-790.52734375,-988.28125,-117.1875
-371.09375,-1000.0,-1000.0,-100.5859375
176.26953125,-205.078125,-4.39453125,-1.46484375
435.05859375,999.51171875,999.51171875,55.17578125
58.10546875,619.62890625,383.7890625,-21.484375
-459.47265625,-773.92578125,-923.33984375,-113.28125
-431.15234375,-1000.0,-1000.0,-89.84375
