TP9,AF7,AF8,TP10
-179.19921875,-37.109375,-43.9453125,-132.32421875
-151.3671875,-46.38671875,-47.8515625,-160.64453125
-62.98828125,-39.55078125,-39.0625,-148.4375
9.27734375,-35.15625,-37.59765625,-88.8671875
-19.04296875,-30.2734375,-38.57421875,-53.22265625
-140.625,-27.83203125,-36.62109375,-55.17578125
-198.73046875,-45.41015625,-36.1328125,-66.40625
-137.20703125,-50.78125,-37.59765625,-99.12109375
-46.38671875,-49.31640625,-44.43359375,-95.703125
-56.640625,-48.828125,-53.22265625,-72.75390625
-165.0390625,-39.0625,-53.22265625,-87.40234375
-259.27734375,-41.015625,-39.55078125,-74.21875
-229.98046875,-41.9921875,-32.71484375,-64.453125
-108.88671875,-35.64453125,-39.55078125,-90.8203125
-67.3828125,-36.62109375,-44.921875,-94.7265625
-94.7265625,-39.55078125,-50.78125,-111.81640625
-143.06640625,-41.50390625,-53.7109375,-108.88671875
-132.32421875,-51.26953125,-53.7109375,-114.74609375
-60.05859375,-45.41015625,-46.38671875,-143.06640625
-25.87890625,-37.59765625,-41.50390625,-113.76953125
-69.3359375,-38.0859375,-48.33984375,-66.89453125
-72.75390625,-30.2734375,-52.734375,-98.6328125
19.53125,-35.15625,-46.875,-125.48828125
96.6796875,-44.921875,-46.875,-108.88671875
119.140625,-47.8515625,-55.17578125,-106.4453125
122.0703125,-51.7578125,-54.6875,-60.546875
99.12109375,-44.43359375,-49.8046875,-56.15234375
120.1171875,-36.1328125,-44.921875,-99.609375
219.7265625,-39.0625,-47.8515625,-102.5390625
278.3203125,-41.9921875,-50.78125,-70.3125
201.66015625,-42.96875,-47.36328125,-67.3828125
90.8203125,-47.8515625,-48.33984375,-89.84375
119.140625,-47.36328125,-47.8515625,-129.8828125
251.953125,-39.55078125,-47.36328125,-129.8828125
309.08203125,-43.9453125,-47.36328125,-93.75
214.35546875,-55.6640625,-46.38671875,-99.12109375
116.69921875,-58.59375,-41.9921875,-95.21484375
123.046875,-55.17578125,-41.015625,-109.86328125
187.01171875,-52.24609375,-42.96875,-131.34765625
229.98046875,-53.22265625,-43.45703125,-108.88671875
186.03515625,-59.08203125,-43.45703125,-72.265625
128.90625,-52.734375,-31.25,-31.73828125
98.14453125,-52.24609375,-26.3671875,-78.61328125
160.64453125,-55.6640625,-27.83203125,-130.859375
242.1875,-46.875,-21.484375,-93.75
194.82421875,-49.31640625,-24.90234375,-93.26171875
128.41796875,-50.78125,-33.69140625,-109.375
105.95703125,-46.38671875,-37.59765625,-133.7890625
167.48046875,-41.015625,-39.0625,-135.25390625
208.0078125,-45.41015625,-41.015625,-112.79296875
150.87890625,-51.7578125,-36.62109375,-91.30859375
51.7578125,-50.29296875,-38.57421875,-65.91796875
26.3671875,-51.26953125,-41.50390625,-76.66015625
96.19140625,-38.57421875,-42.48046875,-146.97265625
138.18359375,-31.73828125,-39.0625,-132.32421875
103.515625,-34.66796875,-39.55078125,-80.078125
-3.41796875,-39.55078125,-44.921875,-80.56640625
-57.12890625,-52.24609375,-36.62109375,-98.6328125
7.32421875,-55.17578125,-29.78515625,-108.3984375
67.3828125,-41.9921875,-34.1796875,-114.74609375
74.70703125,-35.64453125,-33.69140625,-90.8203125
39.55078125,-40.0390625,-34.66796875,-31.73828125
-0.48828125,-52.734375,-38.57421875,-29.78515625
-0.48828125,-51.7578125,-40.52734375,-107.91015625
68.359375,-36.62109375,-43.9453125,-131.34765625
110.83984375,-35.64453125,-42.48046875,-91.30859375
19.53125,-40.0390625,-40.0390625,-47.8515625
-58.10546875,-43.45703125,-41.50390625,-83.49609375
-30.2734375,-44.43359375,-46.875,-145.01953125
43.45703125,-36.62109375,-45.8984375,-115.72265625
50.29296875,-40.0390625,-44.43359375,-71.77734375
-42.48046875,-52.734375,-43.9453125,-60.546875
-131.34765625,-52.24609375,-47.36328125,-40.52734375
-123.53515625,-47.36328125,-44.921875,-73.73046875
-32.2265625,-42.96875,-41.50390625,-106.93359375
13.18359375,-40.0390625,-49.31640625,-83.984375
-39.0625,-38.0859375,-52.24609375,-79.58984375
-122.0703125,-41.50390625,-52.734375,-92.7734375
-131.8359375,-47.8515625,-43.45703125,-100.09765625
-62.5,-44.43359375,-35.64453125,-81.54296875
-29.78515625,-43.9453125,-40.52734375,-93.75
-49.8046875,-45.41015625,-43.45703125,-64.453125
-95.703125,-49.31640625,-39.0625,-89.35546875
-107.91015625,-52.734375,-39.55078125,-117.67578125
-65.4296875,-46.875,-39.55078125,-116.2109375
-10.25390625,-49.31640625,-35.64453125,-112.79296875
-51.26953125,-54.6875,-33.203125,-66.40625
-144.04296875,-50.78125,-31.25,-56.640625
-183.59375,-45.41015625,-31.25,-52.24609375
-143.5546875,-44.43359375,-29.296875,-80.078125
-97.65625,-51.7578125,-27.34375,-94.23828125
-116.2109375,-55.17578125,-30.76171875,-63.4765625
-181.640625,-53.7109375,-30.76171875,-38.57421875
-221.6796875,-52.734375,-29.78515625,-59.5703125
-208.984375,-50.78125,-32.71484375,-114.2578125
-135.25390625,-59.5703125,-34.66796875,-91.796875
-109.375,-62.5,-33.69140625,-49.8046875
-214.35546875,-53.22265625,-38.0859375,-76.171875
-268.06640625,-47.8515625,-41.9921875,-84.47265625
-219.23828125,-41.9921875,-41.9921875,-78.125
-155.2734375,-39.55078125,-47.8515625,-95.21484375
-154.296875,-42.96875,-44.921875,-69.82421875
-239.74609375,-39.55078125,-38.0859375,-50.29296875
-300.29296875,-38.57421875,-39.55078125,-73.73046875
-251.46484375,-38.0859375,-44.43359375,-87.40234375
-161.62109375,-39.0625,-46.875,-104.98046875
-155.2734375,-46.38671875,-41.9921875,-104.00390625
-225.5859375,-46.875,-39.55078125,-81.54296875
-308.10546875,-47.8515625,-42.96875,-104.98046875
-298.828125,-44.43359375,-43.45703125,-142.08984375
-221.19140625,-41.015625,-41.015625,-117.67578125
-184.5703125,-47.36328125,-37.109375,-79.1015625
-229.4921875,-47.8515625,-35.15625,-40.0390625
-309.08203125,-47.36328125,-37.109375,-41.50390625
-299.8046875,-45.8984375,-37.109375,-93.26171875
-226.5625,-41.50390625,-40.52734375,-109.86328125
-182.6171875,-42.48046875,-41.9921875,-97.16796875
-232.91015625,-41.50390625,-42.48046875,-92.7734375
-314.94140625,-39.55078125,-46.38671875,-127.44140625
-310.546875,-40.52734375,-46.875,-162.59765625
-251.46484375,-35.64453125,-48.828125,-160.64453125
-230.46875,-32.71484375,-44.43359375,-141.6015625
-260.25390625,-30.76171875,-35.15625,-103.02734375
-313.96484375,-32.71484375,-37.59765625,-73.73046875
-316.89453125,-40.0390625,-39.55078125,-125.0
-230.95703125,-33.69140625,-35.15625,-151.3671875
-154.296875,-25.87890625,-34.1796875,-106.93359375
-190.91796875,-30.76171875,-29.78515625,-96.19140625
-267.08984375,-35.64453125,-31.25,-131.8359375
-267.08984375,-34.66796875,-38.0859375,-158.69140625
-183.59375,-33.203125,-33.69140625,-151.3671875
-89.35546875,-30.2734375,-29.296875,-108.3984375
-119.140625,-32.71484375,-26.85546875,-62.5
-233.3984375,-39.0625,-18.06640625,-65.91796875
-285.64453125,-37.59765625,-27.83203125,-135.25390625
-215.8203125,-35.64453125,-37.109375,-161.62109375
-96.6796875,-31.73828125,-33.69140625,-112.79296875
-94.7265625,-33.203125,-36.1328125,-63.96484375
-202.1484375,-36.62109375,-41.50390625,-81.0546875
-238.76953125,-32.71484375,-45.41015625,-140.13671875
-145.5078125,-32.2265625,-41.50390625,-164.0625
-52.24609375,-37.59765625,-37.59765625,-120.1171875
-59.5703125,-33.69140625,-37.59765625,-88.37890625
-148.92578125,-28.3203125,-41.9921875,-108.3984375
-206.0546875,-34.1796875,-53.22265625,-140.13671875
-172.36328125,-34.66796875,-51.7578125,-157.2265625
-99.12109375,-37.59765625,-44.921875,-144.04296875
-95.21484375,-42.96875,-50.29296875,-136.71875
-187.5,-39.0625,-56.15234375,-125.48828125
-243.1640625,-36.62109375,-55.6640625,-147.4609375
-187.01171875,-36.62109375,-54.19921875,-177.24609375
-104.00390625,-30.2734375,-54.19921875,-158.203125
-77.1484375,-24.90234375,-52.24609375,-104.4921875
-174.8046875,-28.80859375,-52.24609375,-83.984375
-261.23046875,-33.69140625,-55.6640625,-150.87890625
-218.75,-30.2734375,-54.6875,-193.84765625
-133.7890625,-21.97265625,-58.59375,-178.22265625
-94.7265625,-27.83203125,-55.17578125,-154.296875
-151.3671875,-30.2734375,-44.921875,-124.51171875
-253.90625,-27.34375,-48.33984375,-130.859375
-245.60546875,-25.390625,-52.24609375,-136.71875
-137.20703125,-25.390625,-48.33984375,-133.7890625
-123.53515625,-38.57421875,-49.31640625,-157.2265625
-221.6796875,-43.45703125,-50.78125,-139.6484375
-313.4765625,-32.71484375,-51.7578125,-131.8359375
-280.2734375,-27.83203125,-55.17578125,-152.83203125
-186.5234375,-33.203125,-49.8046875,-156.73828125
-140.13671875,-31.73828125,-50.29296875,-114.74609375
-200.1953125,-31.25,-50.78125,-75.1953125
-322.265625,-39.0625,-45.41015625,-104.4921875
-316.40625,-43.9453125,-40.52734375,-150.390625
-171.875,-39.0625,-33.69140625,-157.2265625
-108.88671875,-34.66796875,-41.9921875,-135.25390625
-166.9921875,-35.64453125,-50.29296875,-84.47265625
-272.4609375,-37.59765625,-42.48046875,-39.0625
-295.8984375,-37.109375,-43.45703125,-76.66015625
-181.640625,-35.64453125,-44.921875,-134.765625
-78.125,-36.1328125,-44.43359375,-98.14453125
-102.5390625,-32.2265625,-47.36328125,-77.1484375
-232.91015625,-33.203125,-48.828125,-119.62890625
-293.45703125,-42.96875,-53.22265625,-166.50390625
-179.19921875,-41.50390625,-49.31640625,-163.0859375
-65.4296875,-31.73828125,-41.50390625,-125.48828125
-100.5859375,-35.15625,-42.48046875,-99.609375
-222.16796875,-43.45703125,-41.9921875,-107.421875
-247.55859375,-41.015625,-37.59765625,-139.16015625
-166.9921875,-35.64453125,-36.62109375,-161.1328125
-65.91796875,-40.0390625,-39.0625,-139.16015625
-14.6484375,-43.45703125,-48.828125,-82.51953125
-123.046875,-45.41015625,-46.38671875,-88.8671875
-220.21484375,-44.43359375,-44.43359375,-159.66796875
-120.60546875,-37.59765625,-49.31640625,-157.2265625
-2.44140625,-34.1796875,-47.36328125,-117.1875
-0.48828125,-33.203125,-47.36328125,-118.1640625
-93.75,-35.15625,-44.43359375,-118.65234375
-162.109375,-35.64453125,-52.24609375,-157.71484375
-128.90625,-30.2734375,-54.19921875,-181.640625
-29.296875,-25.390625,-43.45703125,-151.85546875
4.39453125,-25.87890625,-39.0625,-121.58203125
-105.95703125,-26.3671875,-41.9921875,-104.00390625
-178.22265625,-30.76171875,-45.8984375,-139.16015625
-128.41796875,-27.34375,-54.6875,-202.1484375
-27.83203125,-21.97265625,-48.33984375,-218.26171875
24.4140625,-22.94921875,-41.9921875,-207.03125
-44.43359375,-32.2265625,-47.8515625,-194.3359375
-142.08984375,-39.55078125,-54.6875,-193.84765625
-112.3046875,-33.69140625,-57.6171875,-210.44921875
-22.4609375,-29.296875,-54.6875,-215.8203125
21.484375,-26.3671875,-53.7109375,-211.42578125
-41.015625,-24.90234375,-52.734375,-182.6171875
-178.22265625,-32.2265625,-53.22265625,-181.640625
-179.19921875,-39.0625,-55.6640625,-199.21875
-48.33984375,-41.9921875,-58.10546875,-195.3125
50.78125,-42.48046875,-58.10546875,-138.18359375
-4.39453125,-44.43359375,-53.7109375,-116.2109375
-139.6484375,-45.8984375,-52.24609375,-141.11328125
-162.59765625,-43.45703125,-52.24609375,-193.84765625
-12.20703125,-39.0625,-52.24609375,-203.61328125
112.3046875,-39.55078125,-54.19921875,-143.5546875
74.21875,-37.59765625,-54.19921875,-156.73828125
-29.78515625,-36.62109375,-53.7109375,-212.890625
-41.9921875,-33.203125,-49.31640625,-237.3046875
47.36328125,-30.76171875,-50.78125,-255.859375
138.671875,-41.50390625,-51.26953125,-212.890625
106.4453125,-38.57421875,-45.41015625,-156.73828125
-16.6015625,-35.15625,-46.875,-166.50390625
-61.03515625,-37.59765625,-51.26953125,-203.125
25.390625,-30.2734375,-54.6875,-229.4921875
145.99609375,-27.83203125,-51.26953125,-211.42578125
125.48828125,-34.1796875,-49.31640625,-173.828125
21.484375,-34.1796875,-47.8515625,-158.203125
-36.1328125,-36.1328125,-50.29296875,-213.37890625
11.71875,-38.57421875,-52.24609375,-243.1640625
111.81640625,-38.57421875,-43.9453125,-194.3359375
108.88671875,-41.50390625,-40.52734375,-153.3203125
13.18359375,-47.8515625,-45.8984375,-159.66796875
-78.125,-49.31640625,-49.8046875,-202.63671875
-54.6875,-44.921875,-47.8515625,-238.76953125
52.24609375,-46.875,-44.43359375,-211.42578125
79.1015625,-48.33984375,-45.41015625,-176.26953125
-13.18359375,-46.38671875,-46.38671875,-172.8515625
-116.69921875,-43.9453125,-50.29296875,-197.75390625
-105.95703125,-45.8984375,-51.26953125,-244.62890625
-0.48828125,-42.96875,-47.36328125,-254.39453125
53.22265625,-38.57421875,-50.78125,-206.0546875
-12.20703125,-41.015625,-49.31640625,-139.6484375
-108.3984375,-42.48046875,-42.48046875,-167.48046875
-92.7734375,-45.41015625,-45.8984375,-231.4453125
-3.41796875,-44.921875,-48.828125,-197.265625
46.875,-41.015625,-44.43359375,-175.29296875
20.01953125,-32.71484375,-42.96875,-164.0625
-85.44921875,-33.69140625,-45.41015625,-181.15234375
-102.5390625,-38.57421875,-45.41015625,-233.88671875
-38.57421875,-37.59765625,-41.015625,-215.8203125
18.5546875,-38.0859375,-37.109375,-161.1328125
-33.203125,-43.9453125,-38.57421875,-148.92578125
-166.50390625,-46.875,-48.33984375,-197.265625
-180.6640625,-41.015625,-51.7578125,-210.44921875
-85.9375,-39.55078125,-45.8984375,-187.5
-20.5078125,-39.55078125,-41.9921875,-198.73046875
-36.62109375,-32.2265625,-46.875,-186.5234375
-131.34765625,-32.71484375,-51.7578125,-190.91796875
-175.78125,-31.25,-49.8046875,-242.67578125
-108.88671875,-31.25,-41.50390625,-222.65625
-24.4140625,-32.2265625,-37.109375,-187.01171875
-13.18359375,-31.25,-38.57421875,-172.8515625
-120.60546875,-36.62109375,-41.50390625,-194.82421875
-192.87109375,-33.203125,-45.8984375,-244.62890625
-97.16796875,-28.3203125,-42.48046875,-250.48828125
35.15625,-34.1796875,-36.62109375,-204.58984375
56.15234375,-41.015625,-39.0625,-160.64453125
-39.55078125,-48.828125,-39.55078125,-179.6875
-141.6015625,-50.78125,-42.96875,-236.328125
-93.75,-48.33984375,-50.78125,-262.6953125
6.34765625,-51.26953125,-47.8515625,-229.4921875
41.50390625,-55.6640625,-36.62109375,-201.171875
-24.90234375,-59.08203125,-39.55078125,-225.09765625
-109.375,-53.22265625,-49.8046875,-248.53515625
-104.4921875,-47.36328125,-43.9453125,-270.5078125
-24.90234375,-44.921875,-42.48046875,-264.6484375
24.90234375,-47.36328125,-48.828125,-226.07421875
-56.15234375,-49.31640625,-49.31640625,-200.68359375
-155.2734375,-41.9921875,-53.22265625,-208.984375
-154.296875,-39.55078125,-60.546875,-253.41796875
-58.59375,-40.0390625,-54.6875,-267.08984375
-0.48828125,-41.9921875,-47.8515625,-245.1171875
-60.546875,-44.43359375,-46.38671875,-208.49609375
-174.31640625,-49.31640625,-49.8046875,-240.234375
-189.94140625,-53.7109375,-54.19921875,-305.6640625
-81.0546875,-48.828125,-50.29296875,-324.21875
-8.7890625,-42.48046875,-44.921875,-270.5078125
-24.90234375,-41.50390625,-39.55078125,-208.984375
-107.91015625,-41.9921875,-40.52734375,-231.4453125
-127.9296875,-48.33984375,-48.828125,-268.5546875
-42.48046875,-50.29296875,-44.921875,-265.625
45.8984375,-47.8515625,-39.55078125,-231.4453125
19.53125,-44.921875,-38.0859375,-163.57421875
-101.5625,-43.9453125,-42.96875,-117.1875
-141.6015625,-45.8984375,-52.734375,-117.1875
-63.4765625,-45.8984375,-51.26953125,-83.0078125
28.80859375,-44.921875,-43.9453125,-29.296875
27.83203125,-41.50390625,-42.48046875,29.296875
-81.0546875,-43.9453125,-45.41015625,41.015625
-170.41015625,-50.78125,-56.640625,-30.2734375
-106.93359375,-46.38671875,-61.5234375,-68.84765625
18.5546875,-31.25,-51.26953125,-9.765625
20.99609375,-27.83203125,-41.015625,28.3203125
-93.75,-39.55078125,-41.50390625,41.015625
-182.6171875,-51.26953125,-55.17578125,19.04296875
-150.390625,-44.921875,-57.12890625,-35.15625
-40.52734375,-34.1796875,-39.0625,-21.484375
2.44140625,-30.2734375,-35.64453125,5.37109375
-109.375,-42.96875,-42.96875,11.71875
-209.9609375,-46.38671875,-41.9921875,-24.4140625
-170.41015625,-32.71484375,-30.2734375,-51.26953125
-56.640625,-41.9921875,-28.3203125,-14.16015625
-15.13671875,-44.921875,-29.296875,17.578125
-101.07421875,-41.015625,-31.25,8.30078125
-163.57421875,-47.8515625,-42.96875,1.46484375
-190.4296875,-52.24609375,-50.78125,-54.6875
-125.9765625,-43.45703125,-44.43359375,-67.3828125
-36.62109375,-43.9453125,-38.0859375,-12.6953125
-103.515625,-61.03515625,-40.0390625,11.71875
-218.26171875,-59.5703125,-42.96875,-7.32421875
-249.0234375,-54.19921875,-45.8984375,-46.38671875
-163.57421875,-48.828125,-41.9921875,-51.26953125
-57.12890625,-40.52734375,-36.1328125,-28.80859375
-92.7734375,-45.41015625,-31.25,4.8828125
-199.70703125,-44.921875,-31.73828125,-51.7578125
-235.83984375,-40.52734375,-38.0859375,-142.578125
-136.71875,-39.0625,-39.55078125,-121.09375
-53.7109375,-41.50390625,-38.57421875,-61.5234375
-109.86328125,-38.0859375,-37.109375,-36.1328125
-216.30859375,-35.15625,-39.0625,-62.5
-300.29296875,-47.36328125,-41.015625,-105.46875
-272.4609375,-56.15234375,-34.1796875,-118.1640625
-181.15234375,-47.36328125,-27.34375,-83.0078125
-183.10546875,-44.921875,-24.90234375,-24.4140625
-302.734375,-46.875,-24.90234375,-27.34375
-370.1171875,-44.921875,-27.34375,-72.75390625
-291.015625,-41.50390625,-31.25,-94.7265625
-168.45703125,-37.59765625,-32.71484375,-68.84765625
-165.52734375,-41.015625,-35.15625,-25.390625
-276.3671875,-38.0859375,-34.66796875,-39.0625
-326.171875,-33.203125,-42.96875,-114.2578125
-277.34375,-31.25,-45.8984375,-151.3671875
-166.50390625,-47.36328125,-34.1796875,-109.375
-115.72265625,-61.5234375,-33.203125,-36.62109375
-235.83984375,-56.640625,-35.64453125,3.90625
-312.5,-42.48046875,-32.71484375,-68.84765625
-253.90625,-25.390625,-35.15625,-144.53125
-133.30078125,-19.04296875,-41.9921875,-102.5390625
-68.359375,-23.4375,-43.45703125,-52.24609375
-170.8984375,-32.2265625,-45.8984375,-60.05859375
-261.23046875,-42.48046875,-47.36328125,-93.26171875
-219.7265625,-43.45703125,-40.52734375,-112.79296875
-99.609375,-42.48046875,-37.109375,-89.35546875
-11.71875,-47.36328125,-38.57421875,-66.40625
-85.44921875,-60.546875,-35.15625,-65.91796875
-193.84765625,-66.40625,-36.62109375,-98.6328125
-175.29296875,-57.6171875,-44.43359375,-143.5546875
-33.69140625,-44.43359375,-41.50390625,-121.58203125
0.48828125,-43.45703125,-39.55078125,-57.6171875
-68.84765625,-49.8046875,-40.0390625,-60.05859375
-136.23046875,-47.8515625,-37.59765625,-97.16796875
-168.45703125,-43.45703125,-35.15625,-122.55859375
-39.0625,-47.36328125,-24.4140625,-133.30078125
90.33203125,-42.48046875,-33.203125,-100.09765625
41.015625,-37.59765625,-51.7578125,-88.37890625
-69.82421875,-41.50390625,-48.33984375,-107.91015625
-97.65625,-51.7578125,-44.43359375,-129.8828125
-4.8828125,-51.7578125,-45.8984375,-124.51171875
128.90625,-46.875,-38.57421875,-113.28125
103.02734375,-51.26953125,-38.57421875,-131.8359375
-37.59765625,-55.6640625,-41.9921875,-146.97265625
-81.0546875,-53.22265625,-40.52734375,-180.6640625
-2.44140625,-52.24609375,-35.64453125,-169.921875
120.1171875,-46.875,-37.109375,-112.3046875
109.86328125,-55.17578125,-51.7578125,-94.23828125
12.20703125,-63.4765625,-48.33984375,-105.46875
-60.05859375,-59.08203125,-38.0859375,-155.76171875
-6.8359375,-59.5703125,-36.62109375,-173.33984375
123.046875,-49.31640625,-37.59765625,-117.67578125
130.859375,-44.921875,-41.9921875,-95.21484375
53.22265625,-51.7578125,-41.9921875,-110.83984375
-33.69140625,-52.734375,-41.50390625,-158.203125
-8.30078125,-57.6171875,-41.015625,-190.91796875
106.93359375,-60.05859375,-38.0859375,-150.390625
155.76171875,-61.03515625,-30.76171875,-87.40234375
74.70703125,-61.5234375,-31.25,-82.03125
-31.73828125,-58.59375,-38.57421875,-139.16015625
-7.8125,-56.15234375,-41.015625,-183.10546875
108.88671875,-56.15234375,-41.015625,-155.76171875
174.31640625,-55.17578125,-44.43359375,-93.26171875
84.9609375,-58.10546875,-42.96875,-74.70703125
-30.76171875,-59.5703125,-49.31640625,-126.953125
10.25390625,-62.5,-61.5234375,-159.66796875
175.29296875,-59.5703125,-53.22265625,-129.39453125
300.78125,-45.8984375,-48.33984375,-89.84375
210.9375,-44.921875,-58.59375,-75.68359375
57.6171875,-49.8046875,-61.03515625,-98.6328125
67.3828125,-46.875,-59.08203125,-136.71875
171.875,-47.36328125,-62.5,-162.109375
244.140625,-53.7109375,-66.40625,-152.83203125
188.96484375,-56.640625,-67.87109375,-129.39453125
62.98828125,-57.6171875,-63.96484375,-137.20703125
84.47265625,-54.19921875,-57.6171875,-147.94921875
177.734375,-47.36328125,-55.6640625,-145.99609375
216.796875,-50.29296875,-55.17578125,-131.8359375
180.17578125,-57.12890625,-53.7109375,-108.88671875
49.8046875,-53.22265625,-48.33984375,-106.4453125
-1.953125,-43.45703125,-50.29296875,-157.71484375
107.91015625,-33.203125,-57.6171875,-145.99609375
225.5859375,-25.87890625,-53.22265625,-85.44921875
196.2890625,-25.87890625,-46.38671875,-82.51953125
69.3359375,-37.109375,-51.7578125,-116.69921875
-2.9296875,-47.36328125,-48.828125,-170.41015625
61.5234375,-42.48046875,-37.59765625,-141.11328125
160.64453125,-36.1328125,-40.0390625,-87.890625
162.59765625,-38.57421875,-41.50390625,-88.37890625
69.82421875,-47.36328125,-47.8515625,-76.171875
-38.0859375,-54.6875,-53.7109375,-123.53515625
15.625,-57.6171875,-48.828125,-163.0859375
134.765625,-52.24609375,-42.48046875,-128.90625
118.65234375,-48.33984375,-42.96875,-86.42578125
35.15625,-46.875,-43.9453125,-69.82421875
-30.2734375,-51.7578125,-43.9453125,-116.69921875
-17.578125,-56.15234375,-46.38671875,-151.85546875
102.5390625,-49.31640625,-45.41015625,-130.37109375
161.1328125,-44.43359375,-38.0859375,-83.0078125
60.05859375,-44.921875,-40.0390625,-59.08203125
-44.43359375,-47.8515625,-45.41015625,-137.6953125
-32.2265625,-51.7578125,-45.41015625,-183.10546875
81.54296875,-50.78125,-46.875,-132.32421875
139.6484375,-52.24609375,-47.36328125,-65.4296875
38.57421875,-55.17578125,-42.48046875,-62.01171875
-49.8046875,-52.24609375,-46.38671875,-101.5625
-6.34765625,-49.8046875,-53.7109375,-158.69140625
100.5859375,-54.19921875,-51.7578125,-170.8984375
182.12890625,-51.7578125,-44.921875,-130.37109375
114.2578125,-48.828125,-45.41015625,-112.3046875
-25.390625,-56.15234375,-49.8046875,-130.37109375
-25.390625,-51.26953125,-43.9453125,-155.76171875
51.26953125,-41.015625,-46.875,-142.08984375
94.23828125,-42.48046875,-57.6171875,-90.8203125
30.76171875,-45.8984375,-60.546875,-65.4296875
-95.703125,-45.8984375,-52.734375,-102.05078125
-122.55859375,-50.29296875,-49.31640625,-166.015625
-35.15625,-47.8515625,-50.29296875,-160.64453125
101.5625,-38.57421875,-43.45703125,-77.1484375
70.80078125,-40.52734375,-41.015625,-55.17578125
-76.66015625,-45.8984375,-47.8515625,-104.00390625
-89.84375,-43.9453125,-53.22265625,-141.11328125
13.18359375,-34.1796875,-53.22265625,-137.6953125
122.55859375,-38.57421875,-51.7578125,-101.07421875
80.078125,-46.38671875,-51.26953125,-33.69140625
-38.0859375,-44.43359375,-51.26953125,-18.06640625
-74.70703125,-42.48046875,-51.26953125,-113.76953125
-26.85546875,-37.59765625,-49.8046875,-128.90625
57.6171875,-35.64453125,-47.8515625,-79.58984375
82.51953125,-34.66796875,-52.24609375,-61.03515625
-13.18359375,-32.2265625,-57.6171875,-86.9140625
-99.12109375,-33.203125,-58.59375,-135.25390625
-31.73828125,-31.25,-53.22265625,-136.71875
72.75390625,-27.34375,-43.9453125,-66.40625
76.171875,-27.34375,-41.9921875,-18.06640625
-40.52734375,-37.109375,-45.8984375,-37.59765625
-152.83203125,-43.45703125,-47.36328125,-101.07421875
-83.984375,-41.50390625,-50.78125,-127.44140625
47.36328125,-35.15625,-51.26953125,-71.77734375
41.9921875,-31.25,-47.8515625,-36.62109375
-85.9375,-32.71484375,-51.26953125,-53.7109375
-176.7578125,-32.71484375,-58.59375,-115.72265625
-123.53515625,-33.203125,-49.8046875,-124.0234375
-22.94921875,-32.2265625,-33.203125,-54.19921875
16.6015625,-35.15625,-41.50390625,-19.53125
-81.0546875,-42.96875,-60.05859375,-46.875
-196.77734375,-40.52734375,-55.17578125,-61.03515625
-222.16796875,-39.0625,-43.45703125,-82.51953125
-136.71875,-38.0859375,-49.31640625,-90.33203125
-39.0625,-35.15625,-50.78125,-33.203125
-126.953125,-41.50390625,-48.828125,-11.23046875
-263.18359375,-48.33984375,-51.26953125,-52.734375
-283.69140625,-52.734375,-53.22265625,-108.88671875
-197.75390625,-46.875,-45.8984375,-98.14453125
-124.51171875,-45.8984375,-41.50390625,-66.40625
-190.4296875,-53.7109375,-46.38671875,-53.22265625
-308.59375,-44.43359375,-51.7578125,-50.29296875
-352.5390625,-45.8984375,-54.6875,-119.62890625
-259.765625,-53.7109375,-48.828125,-121.58203125
-150.390625,-47.8515625,-41.9921875,-43.9453125
-191.89453125,-44.43359375,-40.52734375,3.41796875
-352.05078125,-40.52734375,-39.0625,-2.9296875
-395.01953125,-39.55078125,-45.41015625,-70.3125
-300.29296875,-40.52734375,-47.36328125,-113.76953125
-202.1484375,-34.66796875,-41.50390625,-104.98046875
-202.1484375,-33.203125,-39.55078125,-15.625
-356.93359375,-35.15625,-39.55078125,-84.47265625
-436.5234375,-30.76171875,-46.875,-157.71484375
-360.83984375,-36.62109375,-43.9453125,-121.09375
-235.3515625,-42.96875,-40.52734375,-110.3515625
-227.05078125,-37.59765625,-40.52734375,-85.44921875
-367.1875,-40.0390625,-42.96875,-127.44140625
-480.46875,-42.48046875,-49.8046875,-185.05859375
-403.3203125,-41.50390625,-43.9453125,-189.94140625
-257.8125,-38.57421875,-27.83203125,-127.9296875
-255.37109375,-39.0625,-24.90234375,-46.875
-363.28125,-45.41015625,-27.83203125,-71.2890625
-458.49609375,-45.41015625,-31.73828125,-177.734375
-405.76171875,-35.15625,-27.34375,-179.6875
-240.72265625,-36.1328125,-17.08984375,-112.3046875
-122.55859375,-34.66796875,-27.83203125,-76.171875
-207.51953125,-31.25,-34.66796875,-60.546875
-366.2109375,-43.45703125,-23.92578125,-114.2578125
-412.59765625,-52.734375,-19.53125,-185.05859375
-288.57421875,-48.33984375,-19.04296875,-170.8984375
-197.75390625,-52.734375,-19.53125,-126.953125
-297.8515625,-64.453125,-18.06640625,-109.375
-413.57421875,-60.05859375,-15.625,-149.90234375
-412.109375,-57.6171875,-15.13671875,-194.3359375
-286.1328125,-68.84765625,-7.32421875,-180.6640625
-161.1328125,-67.87109375,-1.46484375,-117.1875
-229.98046875,-65.91796875,-3.41796875,-94.23828125
-363.28125,-73.2421875,-4.8828125,-140.13671875
-358.88671875,-70.80078125,-8.30078125,-180.17578125
-190.91796875,-64.94140625,-8.30078125,-138.671875
-54.6875,-63.4765625,1.46484375,-76.66015625
-126.46484375,-64.453125,-6.8359375,-72.75390625
-279.296875,-64.94140625,-13.18359375,-100.09765625
-312.5,-76.171875,-5.37109375,-130.37109375
-152.83203125,-82.03125,-9.27734375,-129.39453125
3.90625,-79.58984375,-8.7890625,-35.64453125
-57.6171875,-75.68359375,-13.671875,-23.92578125
-215.33203125,-73.73046875,-18.06640625,-124.0234375
-235.3515625,-72.265625,-15.13671875,-158.203125
-112.79296875,-67.87109375,-19.04296875,-138.18359375
20.5078125,-57.6171875,-17.08984375,-92.7734375
25.87890625,-59.5703125,-16.11328125,-68.359375
-68.359375,-72.265625,-22.4609375,-65.91796875
-101.5625,-69.3359375,-25.87890625,-123.046875
-4.8828125,-59.08203125,-24.4140625,-179.6875
122.55859375,-62.01171875,-12.20703125,-142.08984375
114.74609375,-62.5,-18.5546875,-99.12109375
-17.08984375,-59.5703125,-36.62109375,-98.6328125
-75.1953125,-67.3828125,-40.52734375,-110.83984375
34.1796875,-68.359375,-40.0390625,-120.1171875
177.734375,-63.4765625,-38.0859375,-96.6796875
182.6171875,-62.98828125,-41.015625,-84.47265625
50.29296875,-69.3359375,-41.50390625,-98.14453125
-26.85546875,-73.2421875,-34.66796875,-112.3046875
57.6171875,-69.82421875,-34.66796875,-112.3046875
219.7265625,-67.87109375,-48.828125,-79.1015625
224.609375,-70.3125,-34.1796875,-44.921875
63.96484375,-67.87109375,-9.27734375,-79.1015625
-2.9296875,-72.265625,-26.85546875,-115.72265625
66.40625,-72.75390625,-50.78125,-107.421875
140.625,-63.96484375,-41.50390625,-81.0546875
141.11328125,-70.3125,-31.25,-44.43359375
99.12109375,-78.61328125,-38.57421875,-50.78125
20.01953125,-76.171875,-50.78125,-71.77734375
35.64453125,-68.84765625,-55.6640625,-87.890625
193.84765625,-60.05859375,-50.78125,-88.8671875
250.9765625,-57.6171875,-34.66796875,-62.01171875
90.33203125,-56.640625,-34.66796875,-59.5703125
-65.4296875,-55.17578125,-48.33984375,-103.02734375
-45.41015625,-53.7109375,-41.9921875,-122.55859375
57.12890625,-54.6875,-41.015625,-104.00390625
214.84375,-61.5234375,-45.8984375,-68.359375
235.83984375,-60.05859375,-44.921875,-68.84765625
109.86328125,-48.33984375,-43.9453125,-121.09375
95.21484375,-51.26953125,-42.96875,-150.87890625
211.42578125,-58.59375,-41.015625,-148.4375
337.40234375,-60.05859375,-38.0859375,-99.609375
265.625,-51.26953125,-41.015625,-83.49609375
90.8203125,-44.921875,-30.2734375,-150.87890625
98.14453125,-53.22265625,-41.50390625,-155.2734375
244.140625,-46.875,-63.4765625,-109.375
356.4453125,-44.43359375,-58.59375,-59.5703125
345.21484375,-41.9921875,-53.22265625,-25.390625
224.609375,-36.62109375,-51.7578125,-59.5703125
129.39453125,-46.875,-49.31640625,-127.44140625
189.94140625,-44.921875,-46.875,-174.31640625
315.4296875,-35.64453125,-38.0859375,-140.13671875
303.7109375,-43.45703125,-34.1796875,-91.796875
177.734375,-52.734375,-39.0625,-89.35546875
93.26171875,-54.19921875,-41.9921875,-143.5546875
138.671875,-52.734375,-42.48046875,-164.55078125
258.7890625,-46.38671875,-46.875,-114.2578125
284.1796875,-46.875,-49.31640625,-45.41015625
172.8515625,-50.78125,-47.36328125,-73.73046875
72.265625,-51.26953125,-49.31640625,-150.87890625
108.3984375,-44.43359375,-51.7578125,-167.48046875
242.67578125,-39.55078125,-57.6171875,-132.8125
284.1796875,-42.96875,-55.17578125,-62.98828125
166.9921875,-48.33984375,-49.8046875,-54.19921875
51.26953125,-47.36328125,-53.7109375,-116.2109375
51.7578125,-42.96875,-46.38671875,-162.109375
196.2890625,-36.1328125,-47.36328125,-132.8125
264.16015625,-29.296875,-57.6171875,-74.21875
157.71484375,-33.203125,-54.19921875,-69.82421875
48.828125,-37.59765625,-56.640625,-111.328125
51.7578125,-42.48046875,-55.6640625,-148.92578125
162.109375,-50.29296875,-61.5234375,-129.8828125
226.5625,-53.22265625,-66.89453125,-83.984375
137.6953125,-51.7578125,-60.05859375,-74.70703125
64.453125,-48.33984375,-57.6171875,-88.37890625
58.10546875,-48.828125,-53.7109375,-120.1171875
147.4609375,-46.875,-46.38671875,-103.515625
242.67578125,-40.52734375,-42.48046875,-18.5546875
145.5078125,-49.31640625,-39.55078125,-4.39453125
21.97265625,-52.734375,-43.9453125,-49.8046875
-9.27734375,-42.48046875,-55.17578125,-101.5625
41.9921875,-43.45703125,-59.08203125,-124.0234375
120.1171875,-42.48046875,-51.26953125,-91.30859375
59.5703125,-45.8984375,-56.15234375,-77.1484375
-62.98828125,-52.734375,-60.05859375,-73.2421875
-108.88671875,-50.78125,-57.12890625,-104.98046875
-41.9921875,-47.36328125,-45.8984375,-100.5859375
12.20703125,-44.921875,-43.45703125,-52.734375
-66.40625,-47.8515625,-56.15234375,-41.9921875
-220.703125,-55.17578125,-51.7578125,-71.2890625
-295.8984375,-56.15234375,-50.29296875,-116.69921875
-230.46875,-57.12890625,-54.19921875,-105.46875
-119.62890625,-57.6171875,-54.19921875,-67.87109375
-80.078125,-49.31640625,-55.6640625,-31.25
-176.26953125,-51.7578125,-49.31640625,-66.89453125
-275.87890625,-57.12890625,-38.0859375,-97.16796875
-218.75,-54.19921875,-33.69140625,-60.546875
-75.68359375,-42.96875,-34.1796875,-17.08984375
-91.30859375,-31.73828125,-33.69140625,-10.7421875
-242.1875,-41.9921875,-33.69140625,-44.921875
-328.61328125,-51.7578125,-38.57421875,-130.37109375
-292.96875,-44.921875,-45.8984375,-178.7109375
-181.640625,-33.203125,-48.33984375,-131.8359375
-169.921875,-26.3671875,-49.31640625,-120.60546875
-296.38671875,-30.76171875,-50.29296875,-116.2109375
-408.69140625,-42.48046875,-52.734375,-92.28515625
-384.27734375,-50.29296875,-50.29296875,-64.453125
-203.125,-48.33984375,-41.015625,1.46484375
-136.71875,-50.29296875,-45.8984375,61.03515625
-254.8828125,-55.17578125,-50.78125,62.01171875
-324.21875,-38.57421875,-51.7578125,42.48046875
-261.23046875,-40.52734375,-53.22265625,25.390625
-138.18359375,-58.10546875,-52.24609375,54.6875
-61.5234375,-54.19921875,-57.12890625,106.93359375
-137.6953125,-42.96875,-53.7109375,88.37890625
-247.55859375,-39.0625,-55.17578125,47.36328125
-238.28125,-32.71484375,-56.640625,13.18359375
-84.47265625,-42.48046875,-41.9921875,-5.859375
61.03515625,-50.78125,-36.1328125,32.2265625
23.92578125,-36.62109375,-51.7578125,73.73046875
-75.68359375,-47.36328125,-62.98828125,55.17578125
-41.50390625,-56.15234375,-56.640625,-11.23046875
96.19140625,-45.41015625,-47.8515625,9.765625
172.36328125,-42.48046875,-44.921875,71.77734375
94.23828125,-56.640625,-47.8515625,80.56640625
-47.8515625,-62.5,-53.22265625,16.11328125
-52.734375,-56.15234375,-52.734375,-70.80078125
99.12109375,-54.19921875,-48.33984375,-46.38671875
219.7265625,-54.6875,-43.45703125,31.73828125
118.1640625,-52.24609375,-19.04296875,1.46484375
-28.80859375,-39.0625,-23.92578125,-73.73046875
-6.34765625,-31.73828125,-63.4765625,-79.58984375
129.39453125,-49.31640625,-63.96484375,-51.7578125
251.46484375,-59.08203125,-40.0390625,41.50390625
202.1484375,-58.59375,-40.0390625,111.328125
75.1953125,-74.21875,-57.6171875,74.21875
27.34375,-67.87109375,-39.55078125,2.44140625
74.70703125,-50.78125,-19.04296875,-44.43359375
192.87109375,-36.62109375,-75.1953125,17.08984375
252.44140625,-45.41015625,-94.7265625,84.47265625
191.40625,-71.77734375,-51.7578125,50.29296875
109.86328125,-66.89453125,-50.78125,0.0
133.7890625,-64.453125,-55.6640625,-7.8125
242.1875,-33.203125,-52.24609375,4.39453125
200.1953125,36.1328125,-72.265625,2.44140625
100.5859375,-26.3671875,-59.5703125,-0.48828125
107.91015625,-84.47265625,-40.52734375,-20.99609375
145.99609375,-67.3828125,-8.30078125,-71.77734375
275.87890625,-82.03125,-18.5546875,-22.94921875
275.390625,-20.01953125,-81.0546875,45.8984375
87.890625,-8.7890625,-56.640625,34.66796875
43.9453125,-85.44921875,-40.52734375,22.4609375
43.45703125,-70.80078125,8.7890625,-76.171875
73.2421875,1.46484375,-1.953125,-115.72265625
180.17578125,-34.66796875,-76.66015625,-7.32421875
130.37109375,-67.3828125,-43.9453125,6.34765625
60.05859375,-76.66015625,-55.17578125,33.69140625
70.3125,-47.8515625,-95.21484375,46.38671875
62.5,21.484375,-75.1953125,-39.55078125
194.3359375,-65.4296875,-72.265625,9.27734375
245.1171875,-83.49609375,-87.890625,65.91796875
143.5546875,-51.7578125,-76.66015625,28.80859375
108.3984375,-34.66796875,-83.984375,-32.2265625
86.42578125,12.20703125,-68.84765625,-56.15234375
170.41015625,14.6484375,-25.390625,-13.18359375
157.71484375,-37.59765625,-46.38671875,-5.859375
110.83984375,-105.46875,-80.56640625,7.32421875
47.36328125,-53.22265625,-28.3203125,-86.9140625
154.296875,-57.6171875,-62.5,-107.91015625
429.19921875,-92.28515625,-115.72265625,53.7109375
327.1484375,-62.98828125,-68.84765625,43.9453125
150.390625,-62.98828125,-60.546875,-24.4140625
-164.0625,61.03515625,1.46484375,-226.07421875
-265.13671875,51.7578125,-0.9765625,-299.31640625
180.17578125,-111.328125,-68.84765625,27.34375
322.265625,-81.0546875,-56.640625,107.91015625
143.5546875,-30.76171875,-68.84765625,-13.671875
-43.9453125,-72.75390625,18.5546875,-158.69140625
94.7265625,-131.34765625,-30.76171875,-106.93359375
62.98828125,83.49609375,-88.37890625,-66.89453125
-226.07421875,123.53515625,9.27734375,-252.9296875
80.56640625,-155.76171875,-77.63671875,-17.578125
128.41796875,-148.4375,-31.25,65.91796875
182.12890625,-123.53515625,-37.109375,25.390625
270.5078125,-16.11328125,-122.55859375,-20.01953125
-25.87890625,70.3125,-13.18359375,-212.40234375
-328.125,102.05078125,40.0390625,-426.7578125
-253.41796875,-6.8359375,-15.625,-382.32421875
54.6875,-156.73828125,-4.39453125,-69.82421875
-384.27734375,138.671875,84.47265625,-344.23828125
-294.43359375,97.65625,-49.31640625,-317.87109375
329.58984375,-203.61328125,-130.859375,173.33984375
247.55859375,-233.88671875,-21.97265625,140.625
175.78125,-119.62890625,-107.91015625,35.15625
46.38671875,-56.640625,-111.328125,-28.80859375
83.49609375,-108.88671875,-90.33203125,6.34765625
168.45703125,-130.37109375,-131.8359375,166.015625
-20.5078125,-99.609375,-176.7578125,121.58203125
-75.68359375,-79.1015625,-145.5078125,123.53515625
12.6953125,-72.75390625,-101.07421875,128.41796875
44.43359375,-65.4296875,-79.1015625,136.23046875
-83.49609375,-63.4765625,-67.87109375,139.16015625
-221.6796875,-67.3828125,-62.01171875,66.89453125
-197.265625,-61.5234375,-48.828125,43.45703125
-124.51171875,-59.5703125,-40.0390625,49.31640625
-92.7734375,-68.84765625,-39.55078125,65.4296875
-198.2421875,-62.01171875,-43.45703125,64.94140625
-347.16796875,-54.19921875,-47.36328125,21.484375
-361.328125,-54.19921875,-49.31640625,-26.85546875
-215.8203125,-46.875,-46.38671875,-19.04296875
-78.125,-41.9921875,-33.69140625,62.01171875
-163.0859375,-43.45703125,-24.4140625,108.88671875
-301.26953125,-44.921875,-27.83203125,65.91796875
-275.390625,-42.48046875,-31.73828125,44.43359375
-118.1640625,-35.64453125,-29.296875,88.37890625
-11.23046875,-37.109375,-29.296875,108.3984375
-80.078125,-34.66796875,-28.3203125,104.4921875
-212.890625,-29.296875,-16.6015625,97.65625
-231.93359375,-30.2734375,-11.23046875,56.15234375
-148.92578125,-34.66796875,-10.7421875,55.17578125
-29.296875,-39.55078125,-6.8359375,70.3125
-30.76171875,-36.1328125,-8.7890625,95.703125
-162.109375,-37.59765625,-5.859375,89.35546875
-235.83984375,-47.8515625,-6.8359375,40.52734375
-146.97265625,-41.9921875,-9.27734375,54.6875
-33.69140625,-27.34375,-9.27734375,100.09765625
-62.5,-33.69140625,-15.625,100.09765625
-175.29296875,-43.45703125,-24.90234375,76.66015625
-227.5390625,-40.0390625,-27.83203125,29.296875
-131.8359375,-38.57421875,-19.53125,28.3203125
-36.1328125,-41.015625,-16.11328125,49.8046875
-39.55078125,-36.62109375,-12.20703125,39.0625
-196.2890625,-34.1796875,-16.6015625,60.546875
-368.65234375,-40.0390625,-17.578125,20.01953125
-338.8671875,-40.52734375,-6.34765625,-89.84375
-213.8671875,-32.71484375,5.859375,-68.84765625
-162.59765625,-23.4375,9.765625,-6.34765625
-314.94140625,-31.73828125,7.8125,-23.4375
-487.3046875,-43.45703125,-1.46484375,-83.0078125
-447.75390625,-41.9921875,-8.7890625,-89.84375
-305.6640625,-38.57421875,-7.32421875,-70.80078125
-236.328125,-42.48046875,-3.90625,-93.26171875
-344.7265625,-45.41015625,-7.8125,-96.19140625
-502.44140625,-49.8046875,-11.23046875,-162.109375
-464.35546875,-54.19921875,-14.6484375,-174.8046875
-285.15625,-43.45703125,-20.01953125,-92.7734375
-239.2578125,-38.57421875,-18.5546875,-100.09765625
-344.23828125,-45.8984375,-20.99609375,-124.51171875
-424.31640625,-52.734375,-24.90234375,-77.1484375
-411.62109375,-47.36328125,-24.90234375,-11.23046875
-271.97265625,-41.9921875,-19.53125,65.91796875
-202.1484375,-48.33984375,-20.01953125,123.046875
-313.96484375,-49.8046875,-28.80859375,96.19140625
-429.6875,-50.29296875,-41.015625,27.83203125
-430.17578125,-49.31640625,-47.8515625,13.671875
-283.203125,-44.43359375,-41.50390625,57.6171875
-178.7109375,-42.96875,-38.0859375,84.9609375
-280.2734375,-42.48046875,-38.57421875,94.7265625
-444.82421875,-42.48046875,-47.8515625,52.734375
-448.2421875,-40.52734375,-51.7578125,0.0
-341.30859375,-42.96875,-47.8515625,33.69140625
-250.9765625,-42.48046875,-41.9921875,93.26171875
-267.578125,-38.57421875,-43.45703125,120.60546875
-427.734375,-37.109375,-50.29296875,101.5625
-478.02734375,-39.0625,-48.828125,25.87890625
-351.5625,-37.109375,-52.734375,-0.9765625
-244.140625,-33.203125,-41.50390625,53.7109375
-291.015625,-41.015625,-41.9921875,39.0625
-416.9921875,-44.921875,-54.6875,-3.41796875
-451.66015625,-43.9453125,-57.6171875,-39.55078125
-340.33203125,-47.8515625,-54.19921875,-47.8515625
-172.8515625,-43.45703125,-48.33984375,40.0390625
-165.52734375,-31.73828125,-44.921875,88.8671875
-321.2890625,-41.015625,-46.38671875,13.671875
-363.76953125,-48.828125,-50.29296875,-49.8046875
-264.16015625,-38.57421875,-46.875,-43.45703125
-145.5078125,-27.83203125,-45.8984375,1.953125
-108.3984375,-28.3203125,-47.8515625,56.640625
-234.86328125,-28.80859375,-48.33984375,44.921875
-351.5625,-41.015625,-47.36328125,-22.94921875
-247.0703125,-48.33984375,-42.48046875,-45.41015625
-68.359375,-47.36328125,-35.64453125,5.859375
-56.15234375,-45.41015625,-34.66796875,57.12890625
-202.63671875,-46.38671875,-35.15625,44.921875
-289.0625,-48.828125,-37.59765625,-9.765625
-223.14453125,-50.78125,-34.66796875,-55.6640625
-56.15234375,-52.24609375,-32.71484375,-18.06640625
32.2265625,-50.78125,-29.296875,60.05859375
-68.84765625,-43.9453125,-24.4140625,18.5546875
-160.15625,-44.43359375,-30.76171875,-73.2421875
-82.51953125,-49.8046875,-36.62109375,-112.79296875
31.73828125,-41.50390625,-17.08984375,-93.26171875
106.93359375,-34.1796875,12.6953125,-39.55078125
-23.92578125,-48.33984375,22.4609375,-73.2421875
-168.45703125,-38.57421875,-38.0859375,-89.84375
-36.1328125,-18.06640625,-100.09765625,-35.15625
77.1484375,-22.4609375,-44.43359375,-59.08203125
114.2578125,-41.015625,-19.04296875,-40.52734375
112.79296875,-92.28515625,-75.68359375,56.640625
-42.96875,-69.82421875,-106.93359375,-14.16015625
-153.3203125,-18.5546875,-70.3125,-151.3671875
66.89453125,-49.8046875,-76.66015625,-69.3359375
183.10546875,-34.66796875,-75.1953125,26.85546875
-0.9765625,-35.15625,-20.5078125,-20.01953125
-184.5703125,-52.24609375,-33.69140625,-40.0390625
-138.671875,-87.40234375,-44.921875,12.6953125
50.78125,-103.02734375,-88.8671875,59.5703125
44.921875,-20.01953125,-54.6875,1.46484375
-91.30859375,18.06640625,-29.296875,-16.11328125
-157.71484375,-67.87109375,-96.19140625,39.55078125
-348.6328125,35.15625,-35.15625,-118.65234375
-431.640625,48.828125,133.7890625,-333.0078125
306.15234375,-184.5703125,-85.9375,80.078125
266.6015625,-30.2734375,-118.1640625,118.65234375
-137.6953125,19.53125,-34.66796875,-115.234375
-25.390625,-3.41796875,-113.76953125,-85.44921875
16.11328125,-48.828125,44.921875,-118.1640625
366.69921875,-181.640625,-86.42578125,45.41015625
459.9609375,-156.73828125,-66.40625,63.96484375
234.86328125,-103.02734375,-12.6953125,19.53125
98.14453125,-124.0234375,-47.36328125,68.359375
-691.89453125,263.18359375,176.7578125,-648.4375
-464.35546875,194.82421875,75.1953125,-635.7421875
468.26171875,-283.203125,-164.0625,359.86328125
-296.38671875,-12.20703125,0.9765625,-76.171875
-130.859375,-58.59375,-86.9140625,-126.46484375
490.72265625,-181.15234375,-159.1796875,339.84375
-28.3203125,-19.04296875,77.63671875,-3.90625
-88.37890625,80.078125,-83.49609375,-17.08984375
54.19921875,-87.890625,-208.0078125,199.70703125
145.99609375,-290.0390625,19.53125,46.38671875
444.82421875,-175.29296875,-95.703125,93.26171875
458.49609375,-102.5390625,-226.07421875,346.6796875
380.37109375,-109.86328125,-112.3046875,350.09765625
249.0234375,-104.00390625,-165.52734375,318.84765625
4.8828125,-97.16796875,-155.76171875,244.140625
-61.03515625,-99.12109375,-108.3984375,203.61328125
36.62109375,-92.28515625,-86.42578125,190.4296875
158.203125,-79.1015625,-71.2890625,194.82421875
78.61328125,-82.51953125,-69.3359375,196.77734375
-85.44921875,-87.40234375,-70.80078125,166.9921875
-125.48828125,-84.47265625,-68.84765625,150.87890625
-69.82421875,-81.54296875,-70.3125,148.4375
34.66796875,-74.21875,-64.94140625,159.66796875
2.9296875,-71.77734375,-53.22265625,176.26953125
-121.58203125,-76.171875,-49.8046875,157.2265625
-156.25,-77.63671875,-43.45703125,158.69140625
-54.6875,-71.77734375,-40.0390625,186.5234375
96.19140625,-71.2890625,-39.0625,196.2890625
90.8203125,-68.84765625,-37.109375,195.80078125
-43.9453125,-64.453125,-41.015625,143.5546875
-88.37890625,-64.94140625,-41.50390625,83.49609375
38.0859375,-59.5703125,-40.0390625,100.09765625
166.50390625,-54.19921875,-40.0390625,159.1796875
172.36328125,-52.24609375,-34.66796875,183.59375
59.08203125,-56.15234375,-30.2734375,134.765625
-20.5078125,-58.10546875,-32.71484375,74.70703125
78.61328125,-51.26953125,-28.3203125,68.359375
207.03125,-50.29296875,-23.92578125,73.73046875
220.703125,-48.33984375,-24.90234375,94.23828125
123.53515625,-44.43359375,-28.80859375,122.0703125
11.23046875,-42.48046875,-28.80859375,73.2421875
33.203125,-36.62109375,-28.80859375,15.625
166.50390625,-32.2265625,-28.3203125,35.15625
173.828125,-39.0625,-28.3203125,86.42578125
39.0625,-45.41015625,-28.3203125,129.39453125
-85.9375,-33.69140625,-27.83203125,70.3125
-83.49609375,-27.83203125,-32.2265625,-1.46484375
85.44921875,-32.71484375,-36.1328125,37.109375
103.02734375,-32.71484375,-27.34375,70.80078125
-113.28125,-33.203125,-20.99609375,79.1015625
-239.74609375,-26.3671875,-25.87890625,42.48046875
-194.3359375,-22.4609375,-21.97265625,-53.7109375
-102.05078125,-18.06640625,-15.625,-59.08203125
-64.94140625,-18.5546875,-11.23046875,-50.78125
-173.828125,-23.4375,-7.32421875,-23.92578125
-342.28515625,-25.390625,-7.8125,28.3203125
-325.1953125,-17.578125,-14.6484375,-1.46484375
-165.0390625,-13.18359375,-8.30078125,-40.52734375
-109.375,-18.06640625,0.9765625,-22.94921875
-217.28515625,-21.484375,-4.39453125,-3.90625
-377.44140625,-25.87890625,-13.671875,-14.16015625
-360.83984375,-23.4375,-16.6015625,-30.2734375
-233.3984375,-17.08984375,-23.92578125,-41.015625
-151.3671875,-22.4609375,-26.3671875,37.109375
-234.375,-24.90234375,-27.34375,46.875
-418.45703125,-26.3671875,-21.484375,-28.3203125
-487.3046875,-35.15625,-23.4375,-55.6640625
-373.046875,-33.69140625,-36.1328125,-6.8359375
-228.02734375,-22.4609375,-31.73828125,81.0546875
-285.64453125,-22.4609375,-25.87890625,68.84765625
-465.33203125,-39.55078125,-35.15625,0.0
-490.234375,-40.0390625,-43.45703125,25.390625
-365.72265625,-37.109375,-43.9453125,-30.76171875
-203.125,-36.1328125,-36.62109375,-28.3203125
-208.49609375,-35.15625,-33.203125,80.56640625
-381.34765625,-39.55078125,-39.0625,36.62109375
-413.0859375,-43.9453125,-44.921875,-29.296875
-272.4609375,-40.52734375,-42.96875,-21.97265625
-106.4453125,-34.1796875,-38.0859375,-2.44140625
-118.65234375,-34.66796875,-38.57421875,55.17578125
-274.4140625,-40.52734375,-37.59765625,78.61328125
-386.71875,-43.45703125,-39.55078125,34.1796875
-317.3828125,-33.69140625,-48.33984375,-20.5078125
-145.5078125,-32.71484375,-48.828125,11.23046875
-110.3515625,-40.52734375,-41.015625,68.84765625
-226.5625,-46.875,-41.015625,76.171875
-311.5234375,-48.33984375,-44.921875,29.78515625
-241.69921875,-44.921875,-44.43359375,-33.69140625
-66.89453125,-39.0625,-40.0390625,0.48828125
10.25390625,-31.25,-43.9453125,40.0390625
-99.609375,-31.25,-57.6171875,3.41796875
-187.01171875,-34.66796875,-63.4765625,-52.24609375
-164.55078125,-31.73828125,-56.15234375,-83.984375
-38.57421875,-27.83203125,-45.8984375,-74.21875
60.05859375,-38.57421875,-28.80859375,-41.9921875
17.578125,-39.55078125,-35.15625,-23.4375
-80.078125,-23.92578125,-51.7578125,-32.71484375
-89.35546875,2.44140625,-29.296875,-94.23828125
47.36328125,43.45703125,-4.8828125,-192.3828125
206.0546875,-20.5078125,4.8828125,-159.66796875
196.2890625,-62.5,-60.546875,-41.9921875
61.03515625,-42.48046875,-85.9375,-64.453125
-0.9765625,-59.5703125,-9.27734375,-162.109375
81.54296875,-54.6875,-32.2265625,-153.80859375
195.3125,-55.6640625,-111.328125,-61.5234375
133.30078125,-46.38671875,-85.9375,-40.0390625
-51.26953125,-50.29296875,-46.38671875,-103.02734375
-153.3203125,-74.70703125,-56.15234375,-145.5078125
-78.61328125,-40.52734375,-80.56640625,-132.8125
142.578125,-33.69140625,-118.65234375,-16.6015625
184.5703125,-43.9453125,-122.55859375,62.98828125
-122.0703125,-41.9921875,-33.69140625,-96.19140625
-238.28125,-33.203125,-53.7109375,-170.41015625
-125.0,69.82421875,-118.1640625,-99.609375
184.08203125,-81.0546875,-55.17578125,68.359375
359.86328125,-192.87109375,-31.25,152.83203125
250.0,-160.15625,-58.10546875,145.01953125
-119.140625,-51.7578125,33.203125,-82.03125
-456.54296875,128.90625,101.07421875,-429.6875
61.03515625,-16.11328125,-13.18359375,-145.99609375
205.56640625,23.92578125,-88.8671875,51.26953125
-474.609375,217.7734375,-28.3203125,-352.5390625
-342.7734375,-36.1328125,7.8125,-286.1328125
296.875,-303.7109375,76.171875,-63.4765625
251.953125,-185.546875,71.2890625,-237.79296875
38.0859375,81.54296875,-153.3203125,-198.73046875
-212.40234375,154.78515625,-13.671875,-252.44140625
-235.3515625,3.41796875,34.66796875,-329.1015625
48.828125,-47.8515625,-168.45703125,-159.1796875
333.984375,-179.6875,-145.99609375,148.4375
537.109375,-249.0234375,-86.42578125,189.94140625
458.49609375,-203.125,-170.8984375,40.0390625
200.68359375,-161.62109375,-81.54296875,-18.5546875
-20.5078125,-94.23828125,-113.28125,-144.53125
144.04296875,-76.171875,-186.5234375,-3.41796875
282.71484375,-89.35546875,-140.13671875,269.53125
146.484375,-112.3046875,-160.15625,281.73828125
-44.43359375,-102.5390625,-130.37109375,132.32421875
-50.78125,-104.4921875,-97.16796875,199.70703125
34.1796875,-105.46875,-60.546875,237.3046875
115.72265625,-91.796875,-68.359375,156.73828125
99.12109375,-82.03125,-66.89453125,116.69921875
-64.453125,-83.49609375,-62.5,21.97265625
-100.09765625,-79.58984375,-67.87109375,-48.33984375
62.98828125,-68.84765625,-71.2890625,-33.69140625
158.69140625,-71.2890625,-69.3359375,31.73828125
109.375,-66.40625,-62.98828125,89.84375
17.08984375,-65.91796875,-63.96484375,73.2421875
-9.27734375,-64.94140625,-62.01171875,22.4609375
114.2578125,-50.29296875,-54.19921875,30.2734375
242.67578125,-50.29296875,-50.29296875,56.640625
166.9921875,-53.7109375,-50.78125,-7.32421875
-3.90625,-49.31640625,-55.17578125,-47.36328125
-50.78125,-46.38671875,-56.640625,-17.08984375
20.99609375,-41.015625,-48.828125,-31.25
147.4609375,-39.55078125,-40.52734375,-18.06640625
159.1796875,-40.0390625,-38.57421875,36.62109375
23.92578125,-35.64453125,-49.31640625,-13.671875
-64.453125,-45.8984375,-46.875,-95.703125
6.34765625,-45.8984375,-42.96875,-53.7109375
150.390625,-34.66796875,-45.41015625,-66.89453125
205.56640625,-36.1328125,-39.0625,-77.63671875
78.125,-48.33984375,-32.71484375,-9.27734375
-29.296875,-53.7109375,-29.78515625,-29.78515625
43.9453125,-42.96875,-30.76171875,-95.703125
174.8046875,-31.25,-34.66796875,-33.203125
175.78125,-29.78515625,-36.1328125,1.953125
26.3671875,-31.73828125,-41.015625,-58.10546875
-110.83984375,-38.57421875,-37.109375,-9.765625
-108.3984375,-38.57421875,-32.71484375,-2.44140625
0.0,-38.57421875,-33.203125,1.46484375
55.6640625,-34.66796875,-37.109375,47.8515625
-108.3984375,-34.66796875,-42.48046875,-14.16015625
-284.1796875,-33.69140625,-38.0859375,-82.51953125
-242.67578125,-30.76171875,-33.203125,-53.22265625
-123.53515625,-29.78515625,-31.73828125,-9.765625
-55.17578125,-20.99609375,-23.4375,-42.48046875
-97.65625,-27.34375,-16.6015625,-45.41015625
-172.36328125,-33.203125,-22.94921875,-10.7421875
-156.25,-33.203125,-25.87890625,-35.64453125
-71.77734375,-30.76171875,-15.13671875,-118.65234375
30.2734375,-28.3203125,-16.11328125,-89.84375
33.69140625,-20.5078125,-26.3671875,5.859375
-129.8828125,-20.5078125,-27.34375,-26.85546875
-218.26171875,-22.94921875,-36.62109375,-41.015625
-104.98046875,-19.04296875,-41.50390625,-29.78515625
16.6015625,-20.99609375,-22.94921875,5.37109375
-53.22265625,-21.97265625,-17.578125,41.015625
-229.4921875,-20.5078125,-24.4140625,33.69140625
-277.34375,-15.625,-32.71484375,-12.20703125
-193.359375,-15.625,-37.59765625,-71.2890625
-81.0546875,-23.4375,-29.78515625,-46.38671875
-103.02734375,-29.78515625,-18.5546875,10.7421875
-301.26953125,-29.296875,-21.97265625,-21.97265625
-413.57421875,-28.3203125,-25.87890625,-104.00390625
-330.078125,-21.97265625,-26.3671875,-87.890625
-217.7734375,-11.23046875,-26.3671875,-44.921875
-220.21484375,-11.71875,-21.484375,-14.6484375
-326.171875,-17.08984375,-31.25,-39.55078125
-467.7734375,-23.4375,-38.0859375,-112.3046875
-381.34765625,-40.52734375,-31.73828125,-136.23046875
-226.07421875,-43.45703125,-30.76171875,-97.16796875
-312.98828125,-36.1328125,-46.38671875,-30.2734375
-467.7734375,-35.64453125,-45.8984375,-46.875
-654.78515625,-40.52734375,-41.50390625,-159.66796875
-694.82421875,-38.57421875,-46.875,-149.90234375
-503.41796875,-28.3203125,-48.828125,-46.875
-463.37890625,-31.25,-53.7109375,31.73828125
-661.1328125,-35.64453125,-38.0859375,82.51953125
-867.67578125,-38.57421875,-36.1328125,52.24609375
-887.20703125,-39.0625,-50.78125,20.99609375
-693.84765625,-38.0859375,-44.921875,68.84765625
-636.71875,-34.1796875,-37.59765625,136.23046875
-834.47265625,-35.15625,-37.59765625,146.484375
-984.86328125,-43.9453125,-34.66796875,62.01171875
-1000.0,-45.8984375,-35.64453125,6.8359375
-852.05078125,-43.9453125,-39.0625,52.734375
-645.5078125,-42.96875,-34.66796875,107.91015625
-796.875,-39.0625,-36.62109375,98.6328125
-1000.0,-45.41015625,-38.57421875,68.359375
-956.0546875,-41.9921875,-40.52734375,20.99609375
-751.46484375,-34.1796875,-44.43359375,22.94921875
-596.6796875,-35.15625,-42.96875,95.703125
-671.38671875,-27.83203125,-45.41015625,134.27734375
-901.85546875,-19.53125,-47.8515625,102.05078125
-925.78125,-26.3671875,-48.33984375,9.27734375
-638.18359375,-34.1796875,-46.38671875,45.41015625
-342.28515625,-28.3203125,-44.921875,89.35546875
-317.87109375,-18.5546875,-49.8046875,96.19140625
-530.2734375,-10.25390625,-58.10546875,91.30859375
-721.19140625,-11.23046875,-60.05859375,24.90234375
-658.69140625,-12.6953125,-56.15234375,18.5546875
-413.0859375,-14.6484375,-57.12890625,86.42578125
-305.17578125,-15.625,-57.12890625,136.71875
-461.42578125,-9.765625,-57.12890625,104.00390625
-633.7890625,-6.34765625,-72.75390625,44.921875
-518.5546875,-4.39453125,-68.359375,64.453125
-236.328125,-4.39453125,-61.03515625,136.71875
-172.8515625,-8.7890625,-69.3359375,159.1796875
-418.9453125,-19.04296875,-71.2890625,102.5390625
-620.1171875,-20.5078125,-74.70703125,29.78515625
-486.328125,-16.6015625,-74.21875,-10.7421875
-189.453125,-7.8125,-70.3125,13.671875
-67.87109375,-7.32421875,-68.84765625,71.77734375
-168.9453125,-23.92578125,-65.4296875,58.59375
-340.33203125,-35.64453125,-63.96484375,12.20703125
-257.8125,-46.38671875,-64.94140625,-12.6953125
64.94140625,-37.109375,-70.3125,20.01953125
188.4765625,-39.0625,-65.91796875,84.9609375
4.39453125,-11.23046875,-68.359375,57.6171875
-204.58984375,-22.94921875,-67.87109375,-13.671875
-109.86328125,-67.87109375,-62.01171875,-24.90234375
192.3828125,-43.45703125,-66.89453125,4.8828125
244.140625,-16.6015625,-55.17578125,20.99609375
84.9609375,-19.04296875,-55.6640625,35.64453125
6.34765625,-30.76171875,-55.6640625,-0.48828125
22.4609375,-33.69140625,-39.55078125,-83.49609375
146.97265625,-41.9921875,-54.19921875,-43.9453125
386.71875,-65.4296875,-74.70703125,45.41015625
334.47265625,-61.5234375,-62.01171875,33.203125
22.4609375,-72.265625,-24.90234375,-65.91796875
-4.39453125,-86.9140625,-33.69140625,-91.796875
227.5390625,-63.4765625,-71.77734375,-33.203125
460.9375,-62.5,-89.35546875,68.359375
458.0078125,-73.73046875,-83.49609375,136.71875
174.8046875,-45.41015625,-64.453125,22.4609375
-133.7890625,33.203125,-36.1328125,-165.0390625
-74.21875,-17.578125,-12.20703125,-178.22265625
346.19140625,-59.08203125,-27.34375,-98.6328125
459.9609375,30.2734375,-157.2265625,-3.41796875
482.91015625,-80.078125,-208.49609375,158.203125
499.0234375,-150.87890625,-119.140625,166.015625
465.33203125,-90.8203125,-92.7734375,71.2890625
618.1640625,-73.73046875,-77.63671875,70.80078125
606.4453125,-64.94140625,-58.59375,62.98828125
270.01953125,-7.32421875,-51.7578125,-63.4765625
-31.25,-2.9296875,-43.45703125,-128.41796875
132.32421875,-39.55078125,-64.453125,-91.796875
457.51953125,-31.25,-81.54296875,-97.65625
594.7265625,-75.68359375,-56.15234375,-54.19921875
498.53515625,-62.5,-83.984375,-1.953125
-87.40234375,29.296875,-20.99609375,-206.54296875
-164.0625,-19.04296875,207.03125,-399.90234375
477.5390625,-121.58203125,-44.43359375,-140.13671875
726.07421875,-96.19140625,-249.0234375,129.39453125
728.515625,-84.47265625,-141.11328125,203.61328125
85.44921875,136.71875,-85.44921875,-196.77734375
-558.59375,244.140625,204.1015625,-761.23046875
388.671875,-166.9921875,-4.8828125,-125.9765625
999.51171875,-246.58203125,-168.9453125,354.98046875
209.9609375,-41.015625,68.84765625,-235.3515625
-36.62109375,-33.69140625,-66.40625,-351.5625
141.11328125,-50.78125,62.01171875,-375.0
83.49609375,53.7109375,59.5703125,-375.48828125
575.1953125,-72.265625,-152.83203125,47.36328125
674.8046875,-134.765625,-63.96484375,92.28515625
538.0859375,-122.0703125,-134.765625,218.26171875
427.24609375,-223.14453125,-91.30859375,231.93359375
515.625,-203.61328125,37.59765625,-106.93359375
768.06640625,-112.79296875,-69.82421875,-75.68359375
589.84375,-104.00390625,-182.6171875,15.625
226.07421875,-93.75,-220.21484375,25.87890625
-119.62890625,-73.73046875,-65.91796875,-37.59765625
-131.34765625,-20.5078125,-67.3828125,-350.09765625
270.01953125,-7.8125,-185.05859375,-184.5703125
429.19921875,-73.73046875,-76.66015625,152.34375
238.28125,-124.51171875,-70.3125,208.49609375
44.43359375,-116.2109375,-93.26171875,193.84765625
65.4296875,-101.07421875,-71.2890625,88.37890625
364.2578125,-85.9375,-62.01171875,41.9921875
472.16796875,-78.125,-53.22265625,34.66796875
208.49609375,-76.66015625,-56.15234375,-53.7109375
-93.26171875,-78.125,-55.17578125,-139.6484375
-54.19921875,-82.51953125,-46.875,-151.3671875
240.72265625,-58.10546875,-47.36328125,-121.09375
238.76953125,-55.17578125,-44.921875,-98.14453125
68.359375,-71.77734375,-39.0625,-147.4609375
-11.23046875,-68.359375,-41.9921875,-183.59375
30.2734375,-63.96484375,-37.109375,-146.97265625
142.08984375,-43.45703125,-35.64453125,-120.60546875
186.5234375,-40.52734375,-36.62109375,-105.46875
154.78515625,-41.015625,-35.64453125,-88.37890625
-45.41015625,-55.17578125,-35.64453125,-138.671875
-45.8984375,-65.91796875,-40.0390625,-198.2421875
224.609375,-54.19921875,-37.109375,-121.58203125
424.8046875,-53.7109375,-31.73828125,-17.08984375
306.15234375,-52.24609375,-38.0859375,-66.40625
-26.3671875,-49.8046875,-45.41015625,-212.40234375
-125.48828125,-50.78125,-43.9453125,-234.86328125
117.1875,-43.9453125,-40.52734375,-170.8984375
408.69140625,-42.96875,-32.71484375,-95.21484375
357.421875,-48.33984375,-20.01953125,-23.92578125
-14.16015625,-57.12890625,-20.01953125,-55.17578125
-166.015625,-60.05859375,-25.87890625,-161.1328125
121.09375,-58.10546875,-19.53125,-207.03125
384.765625,-58.10546875,-11.23046875,-151.85546875
265.625,-54.6875,-9.27734375,-152.83203125
-67.3828125,-62.5,-7.32421875,-268.06640625
-257.8125,-75.1953125,-8.7890625,-336.9140625
-62.98828125,-72.75390625,-12.20703125,-274.90234375
222.16796875,-56.640625,-12.20703125,-205.078125
230.95703125,-45.41015625,-4.8828125,-188.4765625
-16.6015625,-54.19921875,-8.7890625,-276.3671875
-257.32421875,-65.91796875,-22.4609375,-334.9609375
-127.9296875,-58.59375,-21.97265625,-295.8984375
192.87109375,-47.8515625,-14.6484375,-229.98046875
274.4140625,-44.921875,-9.765625,-74.21875
-33.203125,-49.31640625,-4.39453125,-26.3671875
-370.60546875,-53.7109375,-7.8125,-108.3984375
-215.33203125,-49.8046875,-14.6484375,5.37109375
166.015625,-41.015625,-9.27734375,140.13671875
213.8671875,-37.109375,-5.859375,152.34375
-20.99609375,-35.15625,-14.6484375,165.52734375
-307.12890625,-36.62109375,-22.4609375,94.23828125
-363.76953125,-50.29296875,-25.87890625,-5.859375
-5.37109375,-53.7109375,-20.5078125,101.07421875
210.9375,-34.1796875,-10.25390625,229.00390625
-47.8515625,-29.78515625,-9.765625,170.41015625
-341.796875,-37.59765625,-16.6015625,104.00390625
-330.56640625,-31.25,-19.53125,60.05859375
18.06640625,-23.4375,-11.23046875,121.09375
215.8203125,-17.578125,-7.32421875,228.02734375
-25.390625,-20.01953125,-14.16015625,181.15234375
-347.65625,-27.83203125,-20.99609375,74.21875
-397.4609375,-29.296875,-27.83203125,27.83203125
-115.234375,-26.3671875,-31.73828125,83.0078125
103.515625,-22.94921875,-26.85546875,159.1796875
-50.29296875,-29.296875,-22.94921875,159.66796875
-371.58203125,-38.57421875,-29.78515625,78.61328125
-470.703125,-48.33984375,-45.41015625,-43.45703125
-158.203125,-40.52734375,-45.41015625,-8.30078125
146.484375,-25.390625,-43.45703125,73.2421875
5.37109375,-26.3671875,-51.26953125,24.90234375
-340.8203125,-42.48046875,-43.45703125,-53.22265625
-448.73046875,-53.7109375,-38.57421875,-69.3359375
-149.90234375,-48.828125,-38.0859375,-9.765625
149.90234375,-36.1328125,-42.48046875,36.62109375
66.40625,-37.59765625,-46.875,18.5546875
-265.13671875,-41.9921875,-41.50390625,-60.546875
-446.77734375,-44.921875,-39.0625,-111.81640625
-221.19140625,-50.78125,-35.15625,-76.66015625
100.5859375,-44.921875,-37.109375,-3.90625
117.67578125,-33.69140625,-46.38671875,32.71484375
-162.59765625,-28.80859375,-53.22265625,-57.12890625
-365.72265625,-34.1796875,-49.8046875,-158.69140625
-210.9375,-31.73828125,-25.87890625,-185.546875
66.89453125,-14.16015625,-1.953125,-152.34375
109.375,-10.7421875,11.23046875,-145.01953125
-127.9296875,-29.296875,16.11328125,-192.87109375
-333.49609375,-20.5078125,-70.3125,-192.87109375
-205.56640625,-4.39453125,-95.21484375,-165.52734375
97.16796875,-67.3828125,39.0625,-153.80859375
188.4765625,-59.08203125,-19.53125,-93.26171875
-36.1328125,12.6953125,-168.45703125,-14.16015625
-249.51171875,-35.15625,-101.5625,-63.96484375
-151.3671875,-93.75,-87.40234375,-113.28125
170.8984375,-69.3359375,-116.2109375,-38.0859375
384.27734375,-69.82421875,-103.515625,124.51171875
29.296875,-13.18359375,-41.9921875,-6.8359375
-404.296875,-2.44140625,-30.76171875,-194.3359375
-409.66796875,-29.296875,-70.80078125,-139.16015625
-86.9140625,-30.2734375,-43.9453125,-64.453125
260.25390625,-79.58984375,-59.08203125,85.44921875
251.953125,-145.5078125,-94.23828125,186.5234375
-107.421875,-104.4921875,-82.03125,81.54296875
-351.5625,-40.0390625,-59.08203125,-104.98046875
-309.5703125,57.12890625,-25.87890625,-201.66015625
155.76171875,-24.4140625,-23.92578125,13.671875
336.42578125,-192.3828125,-25.87890625,163.57421875
-198.2421875,-89.84375,-31.25,-77.1484375
-295.8984375,-51.26953125,11.71875,-112.79296875
-173.33984375,39.55078125,11.71875,-94.7265625
-350.5859375,208.0078125,-17.578125,-285.15625
-50.29296875,-102.05078125,-35.64453125,12.6953125
-88.37890625,-310.05859375,50.78125,20.01953125
-550.78125,-69.82421875,135.7421875,-525.87890625
-370.60546875,92.28515625,-73.73046875,-405.76171875
-72.265625,83.49609375,-127.44140625,-133.30078125
217.28515625,-84.9609375,-60.05859375,10.25390625
8.7890625,-197.265625,-38.57421875,134.27734375
-545.41015625,-74.21875,-4.39453125,-165.0390625
-54.6875,-201.66015625,-38.57421875,-214.35546875
324.70703125,-151.85546875,-122.55859375,-153.80859375
-54.6875,-79.58984375,6.34765625,-375.48828125
80.56640625,-235.3515625,-202.1484375,-182.6171875
256.8359375,-190.91796875,-326.66015625,178.7109375
141.11328125,-157.71484375,-86.42578125,101.5625
204.1015625,-114.2578125,-45.41015625,-93.75
83.984375,-67.3828125,-11.71875,-289.0625
-201.171875,49.31640625,-164.55078125,8.7890625
-301.26953125,-11.71875,-102.05078125,219.23828125
-24.4140625,-201.66015625,-11.23046875,136.23046875
298.33984375,-158.203125,-127.44140625,85.44921875
258.7890625,-23.92578125,-135.7421875,-46.875
-33.203125,-44.921875,-66.89453125,-149.4140625
-129.8828125,-182.12890625,-25.390625,7.32421875
-41.50390625,-153.80859375,-67.87109375,58.10546875
234.375,-113.28125,-55.6640625,-6.34765625
368.65234375,-103.515625,-47.36328125,22.94921875
114.2578125,-88.8671875,-76.66015625,-20.99609375
-156.73828125,-93.26171875,-50.29296875,-56.15234375
-116.2109375,-83.0078125,-46.38671875,-72.75390625
188.4765625,-70.80078125,-41.015625,-40.0390625
325.68359375,-72.75390625,-36.1328125,32.71484375
104.00390625,-74.21875,-43.45703125,25.87890625
-143.06640625,-71.77734375,-45.8984375,-49.8046875
-118.1640625,-70.80078125,-44.921875,-63.4765625
176.7578125,-71.2890625,-42.48046875,-12.6953125
420.8984375,-67.3828125,-36.62109375,83.984375
304.19921875,-51.26953125,-42.96875,117.1875
-27.83203125,-51.26953125,-52.24609375,-31.25
-101.5625,-62.01171875,-54.19921875,-81.54296875
164.55078125,-62.5,-49.8046875,-33.203125
389.16015625,-55.6640625,-38.0859375,-19.04296875
301.7578125,-44.43359375,-41.50390625,8.30078125
30.76171875,-44.43359375,-58.59375,-19.04296875
-83.49609375,-43.9453125,-63.96484375,-70.80078125
122.55859375,-37.109375,-60.05859375,-81.0546875
368.1640625,-31.25,-52.24609375,-43.9453125
337.890625,-29.296875,-48.33984375,-50.29296875
32.71484375,-33.69140625,-46.875,-115.234375
-149.90234375,-43.9453125,-47.36328125,-164.0625
75.68359375,-41.50390625,-49.8046875,-122.55859375
346.6796875,-27.34375,-41.9921875,-12.6953125
267.578125,-28.3203125,-36.1328125,8.7890625
-104.00390625,-45.8984375,-33.69140625,-86.42578125
-262.20703125,-50.29296875,-36.62109375,-170.8984375
12.6953125,-38.57421875,-44.43359375,-138.671875
300.29296875,-35.64453125,-41.015625,-98.14453125
320.80078125,-33.69140625,-41.50390625,-70.3125
69.3359375,-37.59765625,-43.45703125,-100.5859375
-148.92578125,-46.38671875,-38.57421875,-171.38671875
-85.9375,-47.36328125,-40.52734375,-169.43359375
176.7578125,-42.48046875,-32.71484375,-152.34375
194.82421875,-41.50390625,-25.390625,-148.4375
-47.36328125,-35.15625,-32.2265625,-150.87890625
-250.0,-26.85546875,-33.203125,-236.81640625
-258.30078125,-30.76171875,-36.1328125,-296.875
46.38671875,-28.80859375,-30.2734375,-205.078125
186.03515625,-26.85546875,-25.87890625,-162.59765625
-63.4765625,-30.76171875,-35.64453125,-208.0078125
-278.80859375,-28.80859375,-46.38671875,-240.234375
-191.40625,-31.73828125,-47.8515625,-250.0
62.01171875,-33.69140625,-36.62109375,-227.05078125
173.33984375,-29.78515625,-23.92578125,-163.0859375
-13.18359375,-31.25,-32.2265625,-128.90625
-290.0390625,-29.296875,-45.41015625,-170.8984375
-318.84765625,-31.25,-41.9921875,-208.984375
-21.97265625,-31.73828125,-28.3203125,-106.93359375
167.48046875,-26.3671875,-31.73828125,-29.296875
-31.73828125,-25.87890625,-40.0390625,-64.453125
-324.70703125,-22.4609375,-36.62109375,-106.4453125
-403.3203125,-29.78515625,-31.73828125,-131.8359375
-167.48046875,-36.1328125,-29.296875,-91.30859375
107.91015625,-32.71484375,-20.99609375,28.3203125
13.18359375,-29.296875,-26.85546875,58.10546875
-311.03515625,-22.94921875,-40.0390625,-26.85546875
-405.76171875,-23.92578125,-45.8984375,-5.37109375
-171.38671875,-23.4375,-47.8515625,19.04296875
50.29296875,-20.01953125,-41.9921875,0.0
-54.19921875,-24.4140625,-35.15625,66.89453125
-364.2578125,-32.2265625,-41.50390625,70.80078125
-520.99609375,-39.55078125,-51.7578125,1.46484375
-316.40625,-42.96875,-62.01171875,-15.13671875
-70.3125,-38.57421875,-55.6640625,-7.8125
-139.6484375,-38.57421875,-42.96875,16.6015625
-421.38671875,-41.9921875,-47.36328125,-8.30078125
-575.68359375,-41.015625,-54.6875,-66.89453125
-355.95703125,-33.203125,-55.17578125,-20.01953125
-32.71484375,-29.296875,-46.875,73.2421875
-45.8984375,-33.203125,-47.8515625,57.6171875
-312.98828125,-38.0859375,-52.734375,48.33984375
-513.18359375,-43.45703125,-53.7109375,61.03515625
-360.3515625,-45.8984375,-58.10546875,88.37890625
-50.78125,-42.48046875,-54.19921875,193.359375
-14.6484375,-38.0859375,-52.24609375,267.578125
-276.85546875,-38.57421875,-50.29296875,196.2890625
-514.16015625,-41.9921875,-54.19921875,68.359375
-374.51171875,-45.8984375,-56.15234375,67.3828125
-25.87890625,-46.875,-45.8984375,178.22265625
73.2421875,-44.43359375,-44.921875,219.23828125
-154.78515625,-45.41015625,-47.36328125,166.9921875
-422.8515625,-47.36328125,-50.29296875,76.171875
-363.28125,-50.78125,-56.15234375,12.20703125
-17.578125,-44.921875,-57.6171875,58.59375
161.1328125,-29.296875,-56.15234375,121.58203125
-36.1328125,-29.78515625,-60.546875,72.265625
-304.19921875,-48.33984375,-61.5234375,5.37109375
-236.328125,-48.33984375,-52.24609375,-9.765625
122.0703125,-29.78515625,-48.33984375,31.25
306.15234375,-20.99609375,-46.38671875,83.984375
80.56640625,-31.25,-47.8515625,70.3125
-241.69921875,-37.59765625,-56.15234375,-20.01953125
-216.30859375,-36.62109375,-50.78125,-64.453125
114.74609375,-43.45703125,-49.31640625,5.859375
229.98046875,-30.76171875,-52.734375,65.4296875
-11.23046875,1.46484375,-21.484375,26.85546875
-326.66015625,-10.25390625,-20.5078125,-46.875
-331.0546875,-74.21875,-62.01171875,-52.24609375
0.9765625,-67.3828125,-69.82421875,30.76171875
241.2109375,-30.2734375,-31.25,100.09765625
141.6015625,-77.1484375,1.953125,77.63671875
-182.12890625,-94.7265625,-31.25,1.953125
-302.734375,-74.70703125,-63.4765625,-26.3671875
-127.44140625,-57.6171875,-44.921875,-29.78515625
105.95703125,-61.5234375,-78.61328125,35.64453125
113.76953125,-59.5703125,-97.65625,118.1640625
-182.12890625,-55.6640625,-41.50390625,41.9921875
-347.65625,-65.91796875,-71.77734375,-46.875
-172.36328125,-35.15625,-105.46875,-7.8125
30.2734375,-28.80859375,-55.6640625,20.99609375
-5.37109375,-52.24609375,-22.94921875,12.6953125
-204.1015625,-77.63671875,-54.6875,21.484375
-359.86328125,-89.84375,-83.984375,-7.8125
-161.1328125,-64.453125,-91.796875,1.46484375
124.0234375,-24.90234375,-86.9140625,29.296875
-16.11328125,12.20703125,3.41796875,-45.8984375
-331.0546875,4.8828125,65.4296875,-152.83203125
-360.3515625,-44.43359375,-82.51953125,-114.74609375
-241.69921875,-100.5859375,-60.546875,-99.609375
71.2890625,-116.2109375,-32.71484375,-54.19921875
455.078125,-122.0703125,-154.78515625,191.40625
-65.91796875,40.52734375,-73.73046875,-7.32421875
-783.203125,117.67578125,30.76171875,-464.35546875
-134.27734375,-193.359375,14.6484375,-200.68359375
69.3359375,-32.71484375,63.96484375,-130.37109375
-173.33984375,109.86328125,-6.34765625,-318.84765625
-295.41015625,-89.84375,-22.94921875,-327.63671875
-764.6484375,-78.125,84.9609375,-553.7109375
-392.08984375,-135.25390625,-26.85546875,-299.31640625
-47.8515625,26.3671875,-99.12109375,-143.06640625
54.19921875,34.1796875,-137.6953125,-154.296875
67.87109375,-177.734375,-72.265625,-31.25
-76.66015625,-214.35546875,-39.0625,-57.6171875
-140.13671875,-163.57421875,-125.48828125,-139.6484375
161.62109375,-125.0,-122.0703125,-226.5625
388.18359375,-85.44921875,-62.98828125,-211.9140625
259.27734375,-102.05078125,-92.28515625,-162.109375
293.45703125,-183.10546875,-181.15234375,28.80859375
258.30078125,-164.0625,-165.52734375,101.5625
295.41015625,-139.16015625,-119.140625,-66.89453125
573.2421875,-119.140625,-116.69921875,106.93359375
447.75390625,-117.67578125,-75.1953125,159.66796875
31.73828125,-107.421875,-56.15234375,-137.20703125
9.27734375,-98.14453125,-106.4453125,-42.48046875
177.24609375,-88.8671875,-85.44921875,144.53125
281.25,-77.63671875,-58.59375,159.66796875
234.86328125,-75.68359375,-63.96484375,110.3515625
80.56640625,-72.265625,-66.89453125,24.4140625
-147.94921875,-75.1953125,-58.59375,-68.84765625
9.765625,-72.265625,-51.26953125,-74.70703125
267.08984375,-61.5234375,-44.43359375,15.625
119.62890625,-55.17578125,-47.36328125,18.5546875
-64.94140625,-57.12890625,-50.29296875,-75.68359375
-173.828125,-61.5234375,-48.828125,-151.85546875
-14.16015625,-60.05859375,-43.45703125,-136.71875
268.5546875,-51.26953125,-42.48046875,-35.64453125
317.87109375,-50.29296875,-40.0390625,3.41796875
102.5390625,-51.7578125,-40.0390625,-54.19921875
-105.95703125,-58.10546875,-47.36328125,-133.30078125
15.13671875,-47.8515625,-51.7578125,-142.08984375
315.91796875,-33.69140625,-54.19921875,-59.08203125
384.27734375,-33.69140625,-52.734375,11.23046875
181.15234375,-29.78515625,-61.03515625,-39.0625
-38.0859375,-30.76171875,-64.94140625,-117.1875
2.44140625,-28.80859375,-59.08203125,-123.046875
295.41015625,-17.578125,-58.59375,-56.15234375
403.80859375,-11.23046875,-58.10546875,15.13671875
186.03515625,-22.4609375,-58.59375,14.16015625
-59.5703125,-29.78515625,-62.5,-51.26953125
-43.45703125,-24.90234375,-69.3359375,-102.05078125
223.6328125,-13.18359375,-65.91796875,-36.1328125
373.53515625,-9.765625,-51.26953125,50.78125
208.984375,-17.578125,-50.78125,30.2734375
-76.171875,-18.06640625,-61.03515625,-56.15234375
-111.328125,-20.5078125,-61.5234375,-81.54296875
108.3984375,-19.04296875,-54.6875,-15.625
226.07421875,-11.23046875,-48.33984375,48.33984375
132.32421875,-11.71875,-49.31640625,24.90234375
-169.43359375,-17.578125,-56.15234375,-61.5234375
-285.15625,-17.08984375,-52.734375,-98.6328125
-24.90234375,-16.6015625,-49.31640625,-49.31640625
111.328125,-16.11328125,-52.734375,47.8515625
-31.25,-23.4375,-55.6640625,37.109375
-392.08984375,-26.85546875,-61.5234375,-92.28515625
-589.84375,-18.06640625,-58.59375,-160.64453125
-366.69921875,-10.7421875,-47.36328125,-123.53515625
-104.4921875,-12.20703125,-35.64453125,-31.25
-152.83203125,-18.06640625,-36.62109375,-1.46484375
-508.7890625,-14.6484375,-53.22265625,-71.77734375
-704.58984375,-21.484375,-63.96484375,-80.56640625
-554.19921875,-25.390625,-66.40625,-3.90625
-301.26953125,-10.7421875,-57.12890625,123.53515625
-408.203125,-8.30078125,-51.26953125,153.3203125
-647.94921875,-21.484375,-42.96875,102.05078125
-769.04296875,-23.4375,-34.66796875,75.68359375
-645.99609375,-10.7421875,-39.55078125,58.59375
-324.70703125,-7.32421875,-35.15625,96.6796875
-364.2578125,-12.6953125,-30.2734375,122.55859375
-644.04296875,-18.5546875,-32.71484375,83.49609375
-756.8359375,-30.76171875,-30.2734375,20.5078125
-663.57421875,-28.80859375,-36.1328125,16.6015625
-422.36328125,-20.5078125,-40.0390625,71.2890625
-296.38671875,-22.94921875,-41.50390625,106.93359375
-552.734375,-21.97265625,-50.29296875,77.1484375
-830.078125,-23.4375,-53.22265625,12.20703125
-709.47265625,-30.76171875,-47.8515625,15.625
-382.32421875,-19.04296875,-47.8515625,62.98828125
-264.6484375,-7.8125,-53.22265625,90.8203125
-582.03125,-17.08984375,-51.26953125,60.546875
-849.609375,-26.85546875,-38.0859375,20.99609375
-791.015625,-36.62109375,-37.109375,-18.06640625
-481.4453125,-38.0859375,-44.921875,-10.25390625
-203.125,-24.4140625,-41.9921875,67.3828125
-392.578125,-29.78515625,-44.921875,78.61328125
-826.66015625,-28.80859375,-59.5703125,-13.18359375
-826.66015625,-13.18359375,-69.3359375,-29.296875
-387.20703125,-26.3671875,-50.29296875,73.73046875
-156.73828125,-39.0625,-39.0625,133.7890625
-444.3359375,-45.41015625,-41.50390625,89.35546875
-849.12109375,-51.26953125,-49.8046875,-53.22265625
-914.55078125,-56.640625,-64.453125,-165.52734375
-539.55078125,-77.1484375,-58.10546875,-118.1640625
-265.625,-77.63671875,-53.7109375,-78.125
-454.58984375,-69.82421875,-56.640625,-130.859375
-819.82421875,-73.73046875,-59.08203125,-180.17578125
-918.9453125,-82.03125,-61.5234375,-204.1015625
-570.80078125,-90.33203125,-50.78125,-156.73828125
-275.87890625,-85.44921875,-52.734375,-101.07421875
-378.90625,-89.84375,-60.546875,-102.05078125
-663.57421875,-90.8203125,-61.03515625,-136.71875
-791.015625,-82.51953125,-53.7109375,-187.98828125
-531.73828125,-83.984375,-46.38671875,-165.52734375
-149.4140625,-83.49609375,-43.45703125,-80.56640625
-145.01953125,-77.63671875,-47.8515625,-62.5
-397.94921875,-65.91796875,-58.10546875,-79.58984375
-539.55078125,-64.453125,-60.05859375,-162.109375
-318.84765625,-76.66015625,-49.31640625,-181.640625
34.66796875,-72.265625,-45.41015625,-38.57421875
22.94921875,-63.4765625,-48.33984375,-11.23046875
-239.74609375,-60.546875,-47.8515625,-69.3359375
-411.1328125,-66.89453125,-54.19921875,-132.32421875
-287.59765625,-70.80078125,-62.01171875,-145.01953125
-5.37109375,-68.84765625,-61.03515625,-87.890625
81.0546875,-60.05859375,-53.22265625,-31.25
-98.14453125,-50.78125,-50.29296875,-36.62109375
-318.359375,-59.08203125,-57.12890625,-117.67578125
-216.30859375,-72.265625,-60.546875,-136.23046875
100.09765625,-66.40625,-60.05859375,-54.6875
220.703125,-57.12890625,-59.08203125,3.90625
-38.0859375,-58.59375,-66.40625,-18.5546875
-250.48828125,-73.2421875,-66.89453125,-85.9375
-98.6328125,-74.70703125,-66.40625,-141.6015625
216.30859375,-63.96484375,-59.5703125,-70.80078125
392.578125,-64.453125,-48.33984375,34.66796875
227.5390625,-70.80078125,-56.640625,-14.16015625
-50.29296875,-71.77734375,-59.5703125,-118.65234375
-48.33984375,-67.3828125,-48.828125,-163.57421875
323.73046875,-74.21875,-47.36328125,-103.515625
571.77734375,-78.125,-57.6171875,-17.578125
375.48828125,-71.77734375,-54.19921875,-41.015625
84.47265625,-84.47265625,-54.6875,-129.8828125
35.15625,-86.9140625,-63.96484375,-196.77734375
285.15625,-69.3359375,-66.89453125,-166.015625
520.99609375,-71.2890625,-70.3125,-82.51953125
423.828125,-69.82421875,-41.9921875,-81.54296875
174.31640625,-68.84765625,-59.5703125,-107.421875
75.68359375,-68.359375,-57.6171875,-151.3671875
284.1796875,-60.05859375,-52.24609375,-130.859375
493.1640625,-48.33984375,-85.44921875,-35.64453125
351.07421875,-45.8984375,-51.26953125,-42.48046875
46.875,-62.98828125,-64.453125,-131.34765625
-93.75,-76.66015625,-78.125,-202.63671875
109.375,-54.6875,-62.98828125,-166.9921875
409.1796875,-54.6875,-49.8046875,-90.8203125
458.984375,-84.9609375,-70.80078125,-36.62109375
212.40234375,-45.41015625,-87.890625,-110.3515625
56.640625,-56.15234375,-73.73046875,-193.359375
251.953125,-66.89453125,-77.63671875,-153.3203125
531.25,-43.45703125,-62.5,-102.5390625
562.98828125,-69.82421875,-59.5703125,-63.96484375
251.46484375,-30.76171875,-58.59375,-170.8984375
63.96484375,-28.3203125,-44.921875,-267.08984375
173.828125,-79.58984375,-53.7109375,-235.83984375
442.3828125,-66.89453125,-4.8828125,-187.5
599.12109375,-61.5234375,-23.92578125,-65.4296875
252.9296875,1.46484375,-96.6796875,-104.98046875
-101.07421875,-14.6484375,-64.453125,-208.49609375
97.65625,-88.8671875,-77.1484375,-162.109375
551.7578125,-93.26171875,-103.515625,-18.06640625
601.5625,-43.9453125,-73.73046875,6.8359375
181.15234375,-31.73828125,20.01953125,-190.91796875
-231.4453125,45.41015625,-10.25390625,-328.61328125
-158.203125,39.55078125,-117.1875,-274.4140625
549.31640625,-231.4453125,-106.4453125,27.34375
544.921875,-48.33984375,-55.6640625,-8.30078125
-337.890625,217.7734375,71.2890625,-532.2265625
-199.70703125,-34.66796875,-29.78515625,-404.296875
-65.4296875,-39.55078125,-7.8125,-345.21484375
15.625,-36.62109375,31.73828125,-329.58984375
646.484375,-198.2421875,-181.640625,169.921875
441.89453125,-153.3203125,-18.06640625,-8.30078125
-311.5234375,6.8359375,139.16015625,-577.1484375
-620.1171875,88.8671875,85.9375,-753.41796875
-184.5703125,28.80859375,-68.84765625,-317.3828125
538.0859375,-136.23046875,-221.6796875,213.8671875
729.98046875,-252.9296875,-207.03125,284.1796875
291.50390625,-228.02734375,-165.52734375,107.91015625
-41.50390625,-166.015625,-117.1875,-131.8359375
43.45703125,-112.79296875,-31.73828125,-333.0078125
136.71875,16.11328125,-45.41015625,-373.046875
45.41015625,88.37890625,-148.4375,-189.453125
-78.61328125,-70.80078125,-110.3515625,-107.91015625
-36.62109375,-190.4296875,-132.8125,-60.546875
183.59375,-182.12890625,-112.79296875,129.8828125
382.32421875,-170.8984375,-5.37109375,122.0703125
359.86328125,-130.859375,-91.30859375,194.3359375
157.2265625,-116.2109375,-111.328125,148.92578125
-31.25,-107.421875,-103.02734375,67.3828125
-24.90234375,-94.7265625,-81.0546875,-7.8125
149.4140625,-83.49609375,-66.89453125,-11.23046875
150.87890625,-76.66015625,-62.5,-32.2265625
-65.4296875,-77.1484375,-61.5234375,-113.76953125
-308.10546875,-72.75390625,-59.08203125,-182.6171875
-245.1171875,-62.01171875,-56.640625,-185.546875
89.35546875,-62.5,-52.734375,-100.09765625
190.91796875,-63.96484375,-50.78125,-25.87890625
11.23046875,-57.12890625,-48.828125,-52.734375
-155.2734375,-62.01171875,-40.52734375,-85.9375
-54.6875,-59.5703125,-35.64453125,-55.6640625
227.5390625,-50.78125,-32.71484375,25.390625
296.38671875,-49.31640625,-26.85546875,99.12109375
65.4296875,-52.24609375,-32.71484375,96.19140625
-170.8984375,-57.12890625,-37.59765625,41.015625
-115.234375,-54.6875,-36.62109375,4.8828125
153.3203125,-46.875,-38.0859375,66.89453125
267.08984375,-43.9453125,-35.64453125,100.09765625
52.734375,-53.7109375,-39.55078125,18.5546875
-194.3359375,-56.15234375,-44.43359375,-68.359375
-148.4375,-53.22265625,-38.57421875,-74.70703125
128.41796875,-48.33984375,-35.64453125,21.97265625
287.59765625,-37.109375,-38.0859375,151.3671875
122.0703125,-38.57421875,-38.57421875,123.53515625
-116.69921875,-51.7578125,-39.0625,34.66796875
-125.9765625,-51.7578125,-38.57421875,11.23046875
68.359375,-41.50390625,-36.1328125,56.640625
236.81640625,-36.62109375,-34.66796875,178.22265625
114.2578125,-38.57421875,-33.69140625,215.33203125
-157.71484375,-45.41015625,-40.0390625,71.2890625
-229.00390625,-44.921875,-45.8984375,-28.3203125
-12.20703125,-36.1328125,-40.0390625,19.53125
190.4296875,-32.2265625,-32.71484375,132.32421875
55.6640625,-36.62109375,-27.83203125,159.66796875
-243.65234375,-38.57421875,-35.64453125,23.4375
-378.90625,-34.1796875,-43.9453125,-29.78515625
-155.76171875,-28.80859375,-34.66796875,45.8984375
80.078125,-17.08984375,-29.296875,62.01171875
3.41796875,-14.6484375,-24.90234375,61.03515625
-231.4453125,-23.4375,-22.4609375,33.203125
-403.80859375,-25.390625,-37.109375,-67.87109375
-248.046875,-20.99609375,-43.45703125,-91.796875
33.69140625,-14.6484375,-38.0859375,24.4140625
10.7421875,-12.6953125,-34.66796875,71.2890625
-308.10546875,-21.484375,-38.57421875,-1.953125
-525.87890625,-28.3203125,-43.9453125,-80.56640625
-372.55859375,-33.203125,-42.48046875,-78.61328125
-59.08203125,-26.85546875,-35.64453125,18.5546875
-86.9140625,-24.90234375,-23.92578125,75.1953125
-382.8125,-30.2734375,-21.484375,48.828125
-574.21875,-33.203125,-29.296875,-47.8515625
-480.46875,-37.59765625,-41.9921875,-61.03515625
-171.875,-38.57421875,-44.43359375,11.23046875
-68.359375,-28.80859375,-35.64453125,10.7421875
-270.5078125,-17.08984375,-35.64453125,-32.71484375
-500.48828125,-24.4140625,-43.45703125,-125.48828125
-476.07421875,-31.73828125,-47.8515625,-148.92578125
-158.69140625,-25.87890625,-40.0390625,-40.0390625
13.18359375,-26.3671875,-31.73828125,22.4609375
-173.828125,-39.0625,-31.73828125,-0.48828125
-419.43359375,-39.0625,-40.52734375,-94.7265625
-378.90625,-32.71484375,-52.24609375,-141.11328125
-57.12890625,-35.64453125,-43.45703125,-56.640625
97.65625,-35.64453125,-26.85546875,32.2265625
-84.9609375,-37.109375,-34.66796875,2.9296875
-349.609375,-39.0625,-49.31640625,-109.86328125
-343.75,-39.55078125,-48.828125,-177.24609375
-60.546875,-26.85546875,-52.734375,-129.8828125
127.9296875,-20.99609375,-50.78125,-41.015625
-13.671875,-44.921875,-40.52734375,-21.97265625
-279.296875,-56.15234375,-40.52734375,-105.46875
-321.77734375,-43.45703125,-53.22265625,-185.05859375
-56.640625,-30.76171875,-51.7578125,-134.27734375
201.171875,-57.6171875,-34.66796875,-34.66796875
135.25390625,-62.01171875,-43.45703125,-31.73828125
-147.4609375,-18.06640625,-60.05859375,-148.4375
-264.16015625,-12.20703125,-51.7578125,-219.23828125
-62.5,-19.53125,-28.3203125,-180.17578125
141.6015625,-21.97265625,-34.1796875,-128.41796875
107.421875,-57.12890625,-55.6640625,-74.21875
-151.85546875,-68.84765625,-46.875,-105.95703125
-286.1328125,-66.89453125,-11.71875,-221.6796875
-22.4609375,-67.87109375,-27.34375,-204.58984375
199.21875,-49.8046875,-57.12890625,-104.00390625
131.34765625,-43.45703125,-67.3828125,-72.75390625
-21.484375,-73.2421875,-49.8046875,-76.66015625
-163.57421875,-83.0078125,-59.5703125,-143.06640625
-62.5,-62.01171875,-141.11328125,-118.1640625
177.734375,-49.8046875,-76.66015625,-62.5
112.79296875,0.9765625,-43.45703125,-81.0546875
-79.58984375,-43.9453125,-130.37109375,-50.29296875
-255.37109375,-48.828125,-98.6328125,-123.53515625
-262.20703125,38.0859375,-87.40234375,-269.04296875
159.1796875,-74.70703125,-116.69921875,-119.140625
165.52734375,-76.171875,-32.2265625,-28.80859375
65.91796875,-101.07421875,-52.24609375,-19.04296875
56.15234375,-142.08984375,-109.86328125,-18.5546875
-41.015625,-64.94140625,-65.91796875,-142.08984375
145.01953125,-74.70703125,-29.296875,-187.98828125
218.26171875,-60.546875,79.1015625,-205.56640625
-294.921875,37.59765625,85.44921875,-404.296875
-354.98046875,-32.71484375,-73.73046875,-353.515625
-187.01171875,42.96875,-129.8828125,-214.84375
-15.13671875,73.73046875,-156.73828125,-166.50390625
213.8671875,2.9296875,-28.3203125,-167.48046875
144.53125,-70.80078125,-31.25,-181.15234375
-289.0625,-23.4375,-50.78125,-344.23828125
-682.12890625,0.9765625,137.20703125,-770.01953125
129.39453125,-164.55078125,-134.27734375,-192.87109375
189.94140625,102.05078125,-108.88671875,-36.1328125
-301.7578125,93.26171875,-6.34765625,-254.39453125
-87.40234375,-270.01953125,-127.9296875,-73.2421875
-166.50390625,-135.7421875,-150.390625,-366.69921875
56.15234375,-130.37109375,-103.515625,-272.4609375
397.94921875,-160.64453125,-98.6328125,-179.6875
289.0625,-95.703125,-190.91796875,-70.80078125
-319.82421875,39.0625,-134.27734375,-116.2109375
-457.03125,18.06640625,-22.4609375,-237.79296875
138.671875,-184.5703125,-74.21875,157.2265625
385.25390625,-187.5,-146.484375,286.62109375
285.15625,-141.6015625,-86.42578125,162.109375
-6.34765625,-122.55859375,-80.078125,-66.40625
-36.1328125,-125.0,-183.59375,-11.71875
148.4375,-126.953125,-101.5625,140.625
204.58984375,-84.47265625,-7.8125,39.55078125
139.6484375,-79.1015625,-53.22265625,105.46875
6.34765625,-104.00390625,-117.67578125,160.64453125
-90.33203125,-89.84375,-111.81640625,127.9296875
-12.6953125,-83.984375,-81.54296875,110.3515625
189.94140625,-79.1015625,-58.59375,60.05859375
267.08984375,-76.66015625,-67.87109375,106.4453125
5.859375,-83.49609375,-48.33984375,166.9921875
-249.51171875,-78.125,-41.015625,80.078125
-66.40625,-75.68359375,-57.6171875,25.87890625
212.40234375,-70.3125,-51.7578125,92.28515625
267.578125,-68.84765625,-45.41015625,145.01953125
89.84375,-76.66015625,-47.8515625,108.88671875
-115.72265625,-75.68359375,-54.6875,19.53125
-47.8515625,-70.80078125,-56.640625,-7.32421875
221.6796875,-68.84765625,-53.7109375,74.70703125
345.703125,-63.4765625,-50.78125,110.83984375
141.6015625,-56.15234375,-44.921875,50.78125
-62.98828125,-58.10546875,-43.9453125,-16.6015625
-10.25390625,-59.08203125,-41.9921875,-21.97265625
229.00390625,-57.6171875,-38.0859375,45.8984375
358.3984375,-54.6875,-41.015625,113.28125
207.51953125,-45.8984375,-41.50390625,93.26171875
-24.4140625,-49.31640625,-44.921875,15.13671875
-62.98828125,-56.640625,-43.45703125,-8.30078125
157.71484375,-48.33984375,-32.2265625,49.8046875
323.73046875,-45.41015625,-28.80859375,118.1640625
169.921875,-45.41015625,-32.71484375,111.81640625
-79.58984375,-38.0859375,-36.1328125,53.7109375
-136.23046875,-41.015625,-35.15625,23.92578125
66.89453125,-39.0625,-31.73828125,62.5
251.953125,-32.71484375,-30.76171875,121.09375
152.83203125,-35.15625,-35.64453125,112.3046875
-59.08203125,-39.0625,-41.015625,43.45703125
-134.27734375,-34.1796875,-43.9453125,-11.71875
-0.48828125,-28.80859375,-41.9921875,21.484375
154.296875,-31.73828125,-39.55078125,139.6484375
77.63671875,-33.69140625,-38.0859375,182.6171875
-166.9921875,-31.25,-36.62109375,103.02734375
-316.89453125,-33.203125,-39.55078125,38.0859375
-181.640625,-32.71484375,-39.0625,54.19921875
51.7578125,-24.90234375,-33.69140625,148.92578125
8.30078125,-26.3671875,-30.76171875,174.8046875
-243.1640625,-27.34375,-31.25,93.75
-397.4609375,-28.3203125,-33.203125,41.015625
-259.27734375,-32.2265625,-29.296875,54.6875
11.71875,-29.78515625,-15.625,133.30078125
5.37109375,-27.34375,-10.25390625,196.2890625
-246.09375,-33.69140625,-24.4140625,149.4140625
-423.828125,-32.71484375,-31.73828125,61.03515625
-270.5078125,-18.06640625,-33.69140625,49.8046875
19.53125,-14.16015625,-33.69140625,121.58203125
33.69140625,-20.99609375,-21.97265625,179.19921875
-150.390625,-27.83203125,-20.99609375,153.80859375
-354.4921875,-41.015625,-30.76171875,28.80859375
-294.43359375,-38.57421875,-33.69140625,39.0625
-26.85546875,-25.87890625,-36.1328125,155.2734375
62.5,-24.4140625,-36.62109375,170.8984375
-98.14453125,-22.4609375,-33.203125,155.2734375
-305.6640625,-22.94921875,-35.15625,86.42578125
-287.59765625,-27.83203125,-39.0625,36.62109375
-26.85546875,-34.1796875,-34.66796875,122.0703125
130.37109375,-26.85546875,-33.69140625,192.3828125
-32.2265625,-25.390625,-38.57421875,196.2890625
-278.80859375,-36.62109375,-39.0625,77.1484375
-270.99609375,-42.96875,-39.55078125,-24.90234375
-16.11328125,-41.015625,-26.3671875,91.30859375
105.95703125,-31.73828125,-33.69140625,185.546875
-51.7578125,-27.83203125,-49.8046875,133.30078125
-311.5234375,-32.71484375,-48.828125,27.34375
-324.21875,-30.2734375,-52.24609375,-22.94921875
-57.6171875,-29.296875,-56.15234375,-6.34765625
118.65234375,-36.62109375,-47.36328125,43.9453125
20.99609375,-31.25,-43.45703125,98.6328125
-222.65625,-36.1328125,-49.8046875,39.55078125
-292.48046875,-38.0859375,-61.03515625,-54.19921875
-59.08203125,-28.3203125,-63.96484375,-25.390625
147.4609375,-26.85546875,-54.19921875,29.78515625
83.0078125,-22.4609375,-57.12890625,6.8359375
-143.06640625,-29.296875,-58.10546875,-45.41015625
-279.296875,-47.36328125,-61.03515625,-109.375
-127.9296875,-48.828125,-64.453125,-116.69921875
94.23828125,-31.73828125,-64.453125,-29.296875
49.31640625,-34.1796875,-63.4765625,-2.44140625
-175.29296875,-46.875,-62.5,-61.5234375
-310.05859375,-46.38671875,-65.91796875,-134.765625
-139.16015625,-33.69140625,-70.3125,-136.71875
175.29296875,-27.34375,-65.91796875,-64.94140625
190.4296875,-24.4140625,-61.03515625,-31.25
-50.29296875,-23.92578125,-60.05859375,-63.4765625
-225.5859375,-9.765625,-49.31640625,-156.25
-48.33984375,-41.015625,-41.015625,-142.578125
266.6015625,-79.1015625,-61.03515625,-11.71875
185.546875,-22.4609375,-59.08203125,-9.765625
-92.28515625,-34.66796875,-29.78515625,-101.5625
-220.21484375,-83.984375,-56.640625,-134.27734375
-114.74609375,-68.359375,-79.58984375,-89.35546875
91.796875,-45.41015625,-49.31640625,-29.78515625
106.93359375,-43.9453125,-43.45703125,-25.87890625
-57.12890625,-54.19921875,-58.59375,-85.9375
-260.25390625,-45.41015625,-90.8203125,-135.7421875
-250.9765625,-29.296875,-118.1640625,-159.1796875
17.08984375,-70.3125,-93.75,-108.88671875
169.921875,-74.70703125,-77.1484375,-23.4375
-30.2734375,-11.23046875,-63.4765625,-112.79296875
-243.1640625,-28.80859375,-80.56640625,-273.4375
-157.2265625,-65.91796875,-137.6953125,-225.09765625
5.859375,-46.38671875,-83.0078125,-134.765625
43.9453125,-53.7109375,-28.3203125,-135.25390625
-39.0625,-55.17578125,-87.40234375,-73.73046875
-167.96875,-50.78125,-119.140625,-66.89453125
-160.64453125,-26.85546875,-87.890625,-148.92578125
8.7890625,-22.94921875,-65.4296875,-119.62890625
155.76171875,-69.82421875,-56.640625,-11.71875
4.8828125,-35.15625,39.0625,-92.7734375
-232.421875,0.0,-5.37109375,-211.9140625
-342.7734375,41.50390625,-98.14453125,-214.35546875
-71.2890625,-17.578125,-49.8046875,-63.4765625
221.6796875,-56.640625,-16.6015625,86.42578125
-14.6484375,-48.828125,44.43359375,-59.5703125
-372.55859375,2.44140625,-22.4609375,-208.49609375
-577.63671875,18.06640625,-79.58984375,-240.72265625
-453.125,4.8828125,-8.7890625,-270.99609375
-24.4140625,-86.9140625,11.23046875,-93.26171875
224.609375,-168.45703125,-30.2734375,156.73828125
-179.19921875,-20.99609375,-42.96875,16.6015625
-334.9609375,-50.29296875,-76.66015625,-78.125
-1.953125,-155.2734375,-121.09375,-134.27734375
388.18359375,-155.2734375,-194.3359375,246.09375
214.84375,-111.328125,-102.05078125,138.671875
-189.94140625,-29.296875,-91.30859375,-302.24609375
-72.75390625,-142.578125,-107.421875,192.3828125
-17.578125,-171.38671875,-77.63671875,303.7109375
241.69921875,-118.1640625,-159.1796875,397.94921875
308.59375,-96.19140625,-107.91015625,591.30859375
-42.48046875,-63.96484375,-28.80859375,323.2421875
-294.43359375,-44.43359375,-53.22265625,22.4609375
-42.96875,-103.515625,-69.3359375,138.671875
271.484375,-94.23828125,-74.21875,251.953125
223.6328125,-75.68359375,-65.4296875,132.32421875
92.7734375,-69.3359375,-76.66015625,137.20703125
-57.12890625,-71.2890625,-56.640625,139.16015625
13.18359375,-69.82421875,-45.41015625,70.80078125
285.64453125,-74.70703125,-41.50390625,99.12109375
271.97265625,-70.3125,-43.9453125,159.66796875
18.06640625,-52.24609375,-39.55078125,83.984375
-175.78125,-47.8515625,-44.921875,-16.11328125
-126.953125,-47.8515625,-49.31640625,-64.94140625
158.203125,-46.38671875,-41.9921875,-16.11328125
319.3359375,-53.22265625,-32.71484375,57.6171875
191.89453125,-55.6640625,-34.1796875,41.50390625
-24.90234375,-52.734375,-37.59765625,-28.80859375
-90.33203125,-51.26953125,-38.57421875,-116.2109375
155.2734375,-42.48046875,-31.73828125,-125.0
399.4140625,-29.296875,-22.94921875,-61.5234375
297.36328125,-36.62109375,-27.83203125,-62.5
46.38671875,-48.33984375,-33.69140625,-144.04296875
-34.66796875,-40.52734375,-30.76171875,-173.33984375
166.9921875,-37.109375,-24.90234375,-102.05078125
356.4453125,-40.0390625,-23.4375,-30.2734375
276.85546875,-39.0625,-30.2734375,-40.52734375
26.85546875,-44.43359375,-38.0859375,-131.8359375
-58.10546875,-43.45703125,-41.50390625,-185.546875
117.1875,-38.57421875,-39.55078125,-168.45703125
275.87890625,-33.203125,-35.64453125,-119.140625
266.6015625,-21.97265625,-40.0390625,-74.21875
45.41015625,-25.390625,-47.36328125,-83.49609375
-165.0390625,-34.66796875,-45.41015625,-126.953125
-46.38671875,-29.296875,-43.9453125,-129.8828125
205.56640625,-24.4140625,-36.1328125,-39.55078125
173.33984375,-31.73828125,-33.69140625,11.71875
-99.609375,-34.66796875,-44.43359375,-70.3125
-291.9921875,-34.66796875,-49.31640625,-180.6640625
-199.70703125,-31.25,-49.31640625,-159.1796875
83.49609375,-17.08984375,-48.828125,-38.57421875
128.41796875,-14.16015625,-49.8046875,-13.671875
-79.58984375,-23.4375,-49.31640625,-42.48046875
-255.859375,-20.99609375,-47.8515625,-132.32421875
-168.45703125,-22.4609375,-45.8984375,-208.49609375
79.1015625,-15.13671875,-40.0390625,-113.76953125
101.07421875,-4.8828125,-39.0625,-16.11328125
-111.81640625,-13.671875,-40.0390625,1.953125
-325.1953125,-23.92578125,-44.43359375,-84.47265625
-321.2890625,-25.390625,-48.828125,-148.92578125
-83.0078125,-16.6015625,-44.921875,-90.8203125
-32.71484375,-11.23046875,-36.1328125,-49.31640625
-210.44921875,-14.6484375,-41.50390625,-41.9921875
-423.33984375,-19.53125,-44.921875,-32.2265625
-519.04296875,-30.76171875,-40.52734375,-80.078125
-260.25390625,-34.1796875,-35.64453125,-62.98828125
-64.94140625,-21.97265625,-32.71484375,32.71484375
-256.8359375,-20.99609375,-37.59765625,49.8046875
-541.015625,-25.87890625,-41.9921875,-9.27734375
-536.62109375,-32.71484375,-40.0390625,5.37109375
-282.71484375,-33.203125,-40.0390625,110.83984375
-109.375,-25.87890625,-38.0859375,226.07421875
-243.65234375,-32.71484375,-41.9921875,275.87890625
-496.58203125,-35.15625,-49.31640625,236.81640625
-517.578125,-32.2265625,-47.8515625,236.328125
-289.55078125,-38.0859375,-51.7578125,253.41796875
-109.86328125,-29.78515625,-53.22265625,239.74609375
-218.26171875,-28.3203125,-44.43359375,222.16796875
-468.75,-40.0390625,-48.828125,159.1796875
-513.18359375,-33.69140625,-62.98828125,107.421875
-294.43359375,-37.109375,-64.94140625,104.4921875
-84.47265625,-33.69140625,-55.6640625,172.36328125
-125.9765625,-26.85546875,-43.9453125,199.21875
-352.05078125,-27.83203125,-49.8046875,93.26171875
-496.58203125,-36.1328125,-59.5703125,22.4609375
-312.98828125,-39.0625,-54.19921875,91.30859375
-56.15234375,-31.25,-42.48046875,168.45703125
-77.63671875,-29.78515625,-36.1328125,183.59375
-323.2421875,-36.62109375,-41.50390625,122.55859375
-488.28125,-40.0390625,-55.17578125,20.99609375
-299.8046875,-36.62109375,-53.22265625,48.33984375
-32.71484375,-40.52734375,-45.41015625,89.35546875
-49.31640625,-44.43359375,-49.8046875,72.75390625
-281.73828125,-38.57421875,-46.875,62.5
-479.00390625,-42.96875,-50.29296875,4.39453125
-367.67578125,-46.875,-54.6875,-16.6015625
-78.61328125,-39.0625,-41.9921875,55.6640625
-12.6953125,-36.62109375,-40.52734375,104.4921875
-237.79296875,-41.015625,-47.36328125,75.1953125
-432.12890625,-41.9921875,-50.29296875,-11.71875
-352.05078125,-45.41015625,-51.26953125,-59.5703125
-64.453125,-46.38671875,-46.38671875,56.15234375
69.82421875,-38.57421875,-46.875,145.99609375
-146.97265625,-48.828125,-51.7578125,86.9140625
-395.01953125,-64.94140625,-55.6640625,-5.37109375
-361.328125,-62.01171875,-65.91796875,-27.83203125
-91.796875,-56.15234375,-64.453125,16.6015625
64.94140625,-55.6640625,-53.22265625,71.2890625
-100.5859375,-52.734375,-51.26953125,54.19921875
-343.26171875,-57.12890625,-52.24609375,-22.94921875
-338.37890625,-65.4296875,-54.6875,-76.171875
-73.73046875,-66.89453125,-58.59375,-37.109375
124.51171875,-60.546875,-54.6875,80.078125
-28.3203125,-61.03515625,-50.78125,91.796875
-287.59765625,-64.94140625,-59.08203125,-23.4375
-351.07421875,-73.2421875,-62.98828125,-100.09765625
-139.16015625,-85.44921875,-61.5234375,-54.6875
88.37890625,-84.47265625,-57.12890625,-2.9296875
-16.11328125,-90.8203125,-58.10546875,-33.69140625
-288.57421875,-97.16796875,-69.3359375,-111.81640625
-346.19140625,-98.6328125,-67.87109375,-131.34765625
-62.98828125,-98.6328125,-59.5703125,-72.75390625
196.77734375,-90.8203125,-57.12890625,-14.16015625
163.0859375,-88.37890625,-54.6875,-7.8125
-47.36328125,-89.84375,-58.59375,-70.80078125
-150.390625,-89.35546875,-66.40625,-113.28125
44.921875,-82.03125,-63.96484375,-80.078125
258.30078125,-79.1015625,-55.6640625,-0.48828125
219.7265625,-87.40234375,-42.96875,66.40625
22.4609375,-91.30859375,-34.66796875,41.50390625
-90.8203125,-92.28515625,-39.55078125,-22.94921875
23.4375,-83.0078125,-42.48046875,-37.59765625
254.8828125,-76.66015625,-37.109375,2.9296875
296.38671875,-86.42578125,-27.34375,42.48046875
69.3359375,-75.1953125,-17.578125,-3.41796875
-109.86328125,-57.6171875,-31.73828125,-88.37890625
-56.640625,-54.6875,-38.0859375,-111.81640625
169.43359375,-55.6640625,-34.66796875,-55.17578125
265.13671875,-62.5,-26.3671875,21.484375
65.91796875,-64.94140625,-24.90234375,9.765625
-139.6484375,-21.484375,-72.75390625,-60.546875
-21.484375,-47.8515625,-11.23046875,-92.7734375
249.0234375,-99.12109375,33.203125,-27.83203125
235.83984375,-43.9453125,-68.84765625,31.25
40.0390625,-37.59765625,-105.95703125,15.13671875
-42.48046875,-96.19140625,-95.703125,20.01953125
-22.4609375,-120.60546875,-81.0546875,29.296875
127.9296875,-97.16796875,-76.171875,58.59375
183.59375,-59.5703125,-69.3359375,74.70703125
37.109375,-62.5,-58.59375,41.015625
-148.92578125,-67.3828125,-53.7109375,-22.94921875
-228.515625,-43.45703125,-41.50390625,-76.66015625
9.765625,-68.359375,-69.3359375,15.13671875
251.46484375,-101.07421875,-71.2890625,128.90625
-27.34375,-67.3828125,-4.39453125,16.11328125
-248.046875,-89.84375,-22.4609375,-65.4296875
-143.06640625,-106.93359375,-91.796875,-4.39453125
53.22265625,-76.171875,-72.75390625,19.53125
284.66796875,-104.4921875,-33.69140625,75.68359375
191.89453125,-97.16796875,-27.83203125,69.3359375
-52.734375,-81.0546875,-64.453125,-14.6484375
-449.21875,48.828125,4.39453125,-295.41015625
-366.2109375,47.8515625,9.765625,-354.98046875
283.203125,-117.67578125,-58.10546875,46.875
-2.44140625,-5.37109375,27.83203125,-86.42578125
77.63671875,-147.94921875,-114.2578125,28.3203125
295.41015625,-164.0625,-153.3203125,182.12890625
206.0546875,-89.35546875,-59.08203125,-15.13671875
145.5078125,9.765625,-35.64453125,-28.3203125
-611.81640625,211.9140625,119.140625,-431.15234375
-931.15234375,-47.36328125,296.38671875,-848.14453125
-68.84765625,-219.7265625,-62.5,-345.703125
561.03515625,-175.78125,-356.4453125,252.44140625
124.51171875,-32.71484375,-48.828125,-184.08203125
-55.6640625,-0.9765625,-6.34765625,-278.3203125
277.83203125,-186.03515625,-227.5390625,161.1328125
-366.2109375,55.17578125,-31.25,-328.125
-644.04296875,141.11328125,-49.8046875,-611.328125
373.046875,-220.703125,-223.6328125,-40.0390625
721.6796875,-288.57421875,-92.7734375,146.97265625
290.52734375,-175.78125,-72.75390625,-118.1640625
-36.62109375,-78.61328125,-66.40625,-306.15234375
-1.953125,-67.3828125,-68.84765625,-178.7109375
183.59375,-79.1015625,-138.18359375,-87.40234375
208.49609375,-65.4296875,-73.2421875,-151.3671875
138.18359375,-83.0078125,-130.859375,80.56640625
-41.015625,-106.4453125,-159.1796875,150.87890625
-34.66796875,-99.12109375,-118.1640625,40.52734375
205.56640625,-96.19140625,-88.37890625,21.484375
369.62890625,-85.9375,-68.84765625,20.5078125
171.875,-74.21875,-60.546875,-16.6015625
-95.21484375,-75.68359375,-62.5,-122.0703125
-151.3671875,-69.82421875,-70.3125,-180.17578125
22.94921875,-62.5,-67.3828125,-142.578125
239.2578125,-59.5703125,-53.7109375,-79.58984375
144.53125,-53.7109375,-52.24609375,-84.47265625
-117.67578125,-53.22265625,-57.12890625,-157.71484375
-157.2265625,-53.22265625,-58.10546875,-194.82421875
115.234375,-39.55078125,-55.6640625,-146.484375
289.0625,-39.55078125,-51.7578125,-59.08203125
205.56640625,-50.78125,-49.8046875,-16.6015625
45.41015625,-47.8515625,-45.41015625,-63.96484375
-35.15625,-43.45703125,-38.0859375,-144.53125
146.97265625,-39.0625,-33.203125,-113.28125
353.515625,-33.203125,-31.25,-46.38671875
281.25,-36.1328125,-31.25,-57.6171875
44.43359375,-41.015625,-36.1328125,-121.58203125
-78.61328125,-46.875,-37.109375,-180.6640625
91.30859375,-44.43359375,-37.109375,-160.64453125
304.19921875,-38.0859375,-36.62109375,-70.3125
246.58203125,-33.69140625,-31.25,-13.18359375
5.37109375,-37.59765625,-32.2265625,-80.56640625
-145.5078125,-43.9453125,-36.62109375,-171.875
-1.46484375,-40.0390625,-32.2265625,-104.4921875
238.28125,-42.96875,-29.296875,-21.97265625
249.0234375,-38.57421875,-35.15625,-32.71484375
67.3828125,-33.69140625,-38.0859375,-16.11328125
-118.1640625,-37.109375,-34.1796875,-26.85546875
-63.96484375,-32.71484375,-37.109375,-75.1953125
152.34375,-28.3203125,-37.109375,-69.3359375
165.0390625,-30.76171875,-30.2734375,-45.41015625
-53.7109375,-29.296875,-37.59765625,-85.9375
-273.92578125,-32.71484375,-47.36328125,-130.37109375
-201.171875,-45.41015625,-53.7109375,-131.34765625
71.2890625,-42.96875,-47.8515625,-68.84765625
101.5625,-24.90234375,-36.62109375,-32.71484375
-113.28125,-21.97265625,-40.0390625,-86.9140625
-294.43359375,-28.80859375,-37.109375,-134.765625
-261.23046875,-31.73828125,-33.69140625,-178.22265625
-43.45703125,-26.85546875,-35.15625,-124.51171875
57.6171875,-22.94921875,-40.52734375,-18.5546875
-112.79296875,-20.99609375,-41.50390625,-36.1328125
-339.35546875,-23.92578125,-37.109375,-106.93359375
-334.9609375,-34.1796875,-43.9453125,-79.58984375
-129.8828125,-29.78515625,-45.41015625,-6.8359375
-19.53125,-25.87890625,-41.015625,-13.671875
-162.109375,-26.85546875,-42.48046875,3.41796875
-358.88671875,-28.80859375,-41.9921875,-29.296875
-406.73828125,-39.0625,-40.52734375,-137.20703125
-218.75,-40.52734375,-49.8046875,-119.62890625
-39.55078125,-30.2734375,-48.828125,-28.3203125
-181.15234375,-30.76171875,-43.9453125,3.41796875
-413.57421875,-37.59765625,-43.45703125,-61.5234375
-490.72265625,-38.0859375,-45.8984375,-111.81640625
-280.2734375,-22.94921875,-55.6640625,-57.12890625
-13.18359375,-4.39453125,-61.03515625,31.25
-58.10546875,-11.23046875,-52.24609375,31.25
-305.17578125,-27.83203125,-49.31640625,-42.96875
-435.546875,-36.62109375,-47.36328125,-106.4453125
-187.01171875,-25.87890625,-49.8046875,-61.03515625
48.33984375,-22.94921875,-53.7109375,-9.27734375
10.7421875,-18.5546875,-48.33984375,13.671875
-189.453125,-11.23046875,-49.31640625,8.30078125
-330.56640625,-27.34375,-50.78125,-87.890625
-179.19921875,-39.55078125,-56.640625,-102.05078125
104.00390625,-30.2734375,-58.59375,-18.06640625
113.76953125,-24.90234375,-51.7578125,16.6015625
-159.1796875,-34.66796875,-48.828125,0.48828125
-305.6640625,-46.38671875,-48.33984375,-27.34375
-151.3671875,-32.71484375,-61.03515625,-20.01953125
111.328125,-8.30078125,-67.3828125,51.26953125
139.16015625,-24.90234375,-60.546875,79.58984375
-98.6328125,-50.78125,-53.22265625,36.62109375
-343.75,-29.296875,-54.6875,-35.15625
-270.99609375,-21.484375,-51.26953125,-60.05859375
52.734375,-37.109375,-53.7109375,8.30078125
178.7109375,-27.34375,-66.89453125,66.89453125
-55.6640625,-47.8515625,-52.24609375,61.5234375
-263.671875,-92.7734375,-29.296875,-17.08984375
-195.3125,-62.01171875,-48.828125,-93.75
37.59765625,-34.66796875,-66.40625,-37.109375
185.05859375,-64.453125,-47.36328125,51.26953125
17.578125,-50.29296875,-60.05859375,5.859375
-224.12109375,-46.38671875,-68.84765625,-112.79296875
-173.33984375,-30.2734375,-73.2421875,-143.06640625
71.77734375,-14.16015625,-71.77734375,-77.63671875
194.3359375,-70.80078125,-48.33984375,-2.9296875
51.7578125,-67.3828125,-41.50390625,-5.37109375
-157.2265625,-58.59375,-41.015625,-86.9140625
-152.83203125,-78.125,-63.4765625,-99.12109375
35.64453125,-70.3125,-57.6171875,-55.6640625
155.2734375,-41.9921875,-42.48046875,-53.7109375
138.18359375,-52.24609375,-71.77734375,-5.859375
-62.5,-76.171875,-74.70703125,-9.27734375
-327.63671875,-31.25,-28.80859375,-175.29296875
-81.0546875,-40.0390625,-43.9453125,-111.328125
116.2109375,-39.55078125,-92.28515625,28.3203125
68.359375,-73.2421875,-68.84765625,23.4375
13.18359375,-118.1640625,-89.35546875,97.16796875
-144.04296875,-72.75390625,-82.03125,54.6875
-37.109375,-47.36328125,-25.87890625,-90.8203125
243.1640625,-53.7109375,-0.9765625,-67.87109375
202.1484375,-8.30078125,-44.43359375,50.29296875
-212.890625,91.796875,-46.875,-86.42578125
-156.25,-8.7890625,-36.62109375,-85.44921875
-51.26953125,111.328125,-82.03125,-49.8046875
-85.9375,151.85546875,-34.66796875,-164.0625
239.74609375,-92.7734375,48.828125,-3.90625
86.42578125,-87.890625,102.5390625,-76.171875
-685.546875,139.16015625,42.96875,-529.296875
-541.50390625,132.32421875,-83.0078125,-412.109375
339.35546875,-139.16015625,-31.25,84.47265625
444.3359375,-103.515625,-28.80859375,178.7109375
-19.04296875,-32.2265625,-120.60546875,86.9140625
-44.921875,-155.2734375,-124.51171875,15.625
254.8828125,-125.0,-104.98046875,-175.78125
319.82421875,-90.33203125,-176.26953125,17.578125
250.0,-90.33203125,-205.56640625,73.73046875
73.2421875,-92.7734375,-40.52734375,-160.15625
-166.015625,-62.01171875,-62.01171875,-68.84765625
-139.16015625,-87.890625,-177.734375,-44.921875
283.69140625,-173.33984375,-131.8359375,221.19140625
500.9765625,-145.01953125,-123.53515625,503.90625
117.1875,-118.65234375,-97.65625,242.1875
-291.9921875,-104.4921875,-4.39453125,-115.234375
-193.84765625,-87.40234375,-72.265625,-173.828125
156.73828125,-101.07421875,-156.25,158.203125
263.18359375,-102.5390625,-87.890625,242.1875
123.53515625,-86.42578125,-68.84765625,142.08984375
-187.98828125,-82.03125,-68.84765625,-3.41796875
-236.328125,-83.984375,-66.40625,-90.8203125
44.43359375,-78.61328125,-52.24609375,-38.57421875
218.75,-69.3359375,-51.26953125,21.484375
70.80078125,-69.3359375,-49.8046875,30.2734375
-170.41015625,-68.359375,-55.6640625,-44.921875
-191.40625,-68.84765625,-59.5703125,-100.09765625
33.69140625,-74.70703125,-56.640625,-36.1328125
256.34765625,-69.82421875,-59.08203125,56.640625
205.56640625,-60.546875,-56.15234375,81.0546875
-23.92578125,-62.5,-53.7109375,28.80859375
-59.08203125,-61.03515625,-56.640625,-45.8984375
164.55078125,-60.05859375,-55.6640625,61.5234375
375.9765625,-54.6875,-51.7578125,144.53125
317.3828125,-50.29296875,-48.33984375,30.2734375
81.0546875,-53.7109375,-47.36328125,-75.68359375
-55.17578125,-59.08203125,-39.55078125,-158.203125
158.203125,-54.6875,-40.52734375,-59.5703125
431.640625,-44.43359375,-43.45703125,83.0078125
396.484375,-44.921875,-40.0390625,53.7109375
166.50390625,-52.734375,-41.50390625,-27.34375
12.6953125,-52.734375,-40.52734375,-35.64453125
138.18359375,-41.9921875,-35.15625,-45.41015625
382.32421875,-35.15625,-32.71484375,17.578125
371.58203125,-36.62109375,-31.25,154.296875
129.39453125,-48.33984375,-25.390625,102.05078125
-36.62109375,-41.015625,-34.66796875,-22.94921875
49.8046875,-29.296875,-39.0625,-52.734375
288.57421875,-28.80859375,-27.83203125,27.34375
298.828125,-32.71484375,-24.4140625,104.98046875
56.640625,-30.76171875,-31.73828125,100.5859375
-130.37109375,-32.2265625,-44.921875,-8.7890625
-50.29296875,-37.109375,-43.9453125,12.20703125
134.765625,-28.80859375,-31.25,60.546875
181.640625,-27.34375,-33.203125,24.90234375
35.15625,-27.34375,-31.73828125,106.4453125
-182.12890625,-21.97265625,-31.25,60.546875
-191.40625,-22.4609375,-34.66796875,-55.6640625
80.56640625,-18.5546875,-34.66796875,51.7578125
217.7734375,-19.04296875,-27.83203125,140.625
14.6484375,-20.99609375,-18.5546875,66.89453125
-198.73046875,-20.99609375,-19.04296875,3.41796875
-228.515625,-13.18359375,-30.76171875,23.4375
-60.546875,-9.27734375,-35.15625,25.87890625
130.37109375,-1.46484375,-41.015625,139.6484375
52.24609375,0.48828125,-33.203125,199.70703125
-234.86328125,-16.6015625,-24.4140625,74.70703125
-375.48828125,-41.015625,-42.96875,-51.26953125
-232.421875,-48.33984375,-46.38671875,-38.57421875
-95.21484375,-38.57421875,-39.0625,34.1796875
-204.58984375,-44.921875,-46.875,10.7421875
-453.61328125,-53.22265625,-52.24609375,-36.62109375
-551.26953125,-59.5703125,-55.6640625,-134.765625
-328.125,-55.17578125,-55.17578125,-113.76953125
-92.7734375,-49.8046875,-49.8046875,-57.6171875
-134.765625,-52.734375,-49.8046875,-85.9375
-337.40234375,-55.17578125,-44.43359375,-121.09375
-443.84765625,-56.15234375,-52.734375,-189.453125
-274.4140625,-51.26953125,-63.4765625,-181.15234375
-46.38671875,-54.6875,-52.24609375,-111.328125
-71.77734375,-66.40625,-43.9453125,-85.44921875
-292.48046875,-71.77734375,-49.31640625,-116.2109375
-389.6484375,-64.94140625,-59.5703125,-169.43359375
-229.00390625,-50.29296875,-60.05859375,-177.24609375
2.44140625,-40.0390625,-52.24609375,-104.00390625
36.62109375,-46.875,-52.734375,-79.58984375
-187.5,-61.5234375,-60.05859375,-132.32421875
-369.140625,-72.75390625,-59.08203125,-207.03125
-250.48828125,-63.4765625,-57.6171875,-207.51953125
-16.11328125,-46.875,-56.15234375,-126.46484375
0.0,-42.48046875,-53.7109375,-75.68359375
-181.640625,-48.33984375,-54.6875,-95.21484375
-333.49609375,-33.203125,-55.6640625,-157.71484375
-263.671875,-42.48046875,-53.7109375,-181.15234375
-20.01953125,-50.29296875,-51.7578125,-123.046875
53.7109375,-60.05859375,-44.43359375,-94.7265625
-161.62109375,-63.4765625,-15.13671875,-143.06640625
-359.86328125,-8.7890625,-30.2734375,-205.56640625
-280.76171875,-37.109375,-38.0859375,-221.6796875
13.671875,-100.09765625,2.44140625,-128.90625
171.875,-51.7578125,-66.40625,-18.5546875
7.8125,-47.8515625,-92.28515625,-48.828125
-198.2421875,-96.6796875,-14.6484375,-140.13671875
-216.30859375,-63.96484375,-36.1328125,-191.40625
7.8125,-35.15625,-102.05078125,-103.02734375
130.37109375,-56.15234375,-61.03515625,-26.3671875
7.32421875,-56.640625,-84.47265625,-41.015625
-212.890625,-49.8046875,-120.1171875,-147.94921875
-240.234375,-63.96484375,-113.76953125,-162.109375
-71.2890625,-68.84765625,-110.3515625,-38.57421875
134.27734375,-83.0078125,-33.203125,71.2890625
16.11328125,-35.64453125,-4.39453125,0.0
-245.60546875,-58.59375,-62.5,-96.19140625
-166.50390625,-84.9609375,-123.046875,-20.99609375
-43.45703125,-80.56640625,-3.41796875,-47.8515625
183.59375,-92.28515625,-54.6875,104.00390625
175.29296875,-56.640625,-142.08984375,232.421875
-215.8203125,-93.75,55.17578125,-8.30078125
-428.22265625,-46.38671875,40.52734375,-234.86328125
-312.5,51.7578125,-93.26171875,-254.8828125
162.59765625,-136.23046875,-63.96484375,4.39453125
70.80078125,-1.46484375,-105.95703125,-85.9375
-496.58203125,204.1015625,-122.0703125,-408.69140625
-425.29296875,-56.640625,-4.39453125,-286.1328125
-11.23046875,-157.71484375,-13.18359375,-140.625
95.21484375,-83.984375,-50.29296875,-122.0703125
-105.95703125,2.44140625,20.01953125,-126.953125
-357.91015625,10.25390625,119.140625,-387.6953125
-459.9609375,-18.5546875,-87.890625,-455.078125
-144.53125,-50.29296875,-289.0625,-99.12109375
200.68359375,-82.51953125,-38.0859375,-83.49609375
392.578125,-189.453125,42.48046875,-146.97265625
329.58984375,-270.01953125,-140.13671875,-5.859375
-101.5625,-141.6015625,-139.16015625,-278.80859375
-159.66796875,-58.59375,-180.6640625,-336.9140625
89.84375,-113.76953125,-196.77734375,-1.953125
251.46484375,-175.78125,-34.66796875,196.2890625
82.03125,-164.55078125,18.06640625,190.4296875
-162.59765625,-124.51171875,-76.66015625,36.62109375
-129.8828125,-129.39453125,-109.86328125,-56.640625
33.69140625,-141.11328125,12.20703125,-219.7265625
-32.71484375,-14.6484375,122.55859375,-433.10546875
-128.41796875,-22.94921875,-27.83203125,-198.73046875
-20.5078125,-192.87109375,-114.74609375,178.7109375
1.953125,-153.3203125,-97.16796875,174.31640625
177.24609375,-96.6796875,-115.72265625,73.2421875
329.1015625,-87.40234375,-111.328125,136.71875
173.828125,-91.30859375,-72.75390625,98.6328125
-38.0859375,-87.890625,-57.6171875,-41.9921875
-23.4375,-86.42578125,-62.5,-87.40234375
179.6875,-83.0078125,-46.875,-47.8515625
293.45703125,-74.21875,-40.52734375,12.20703125
194.3359375,-68.84765625,-47.8515625,7.8125
-28.80859375,-67.3828125,-58.10546875,-58.10546875
-69.3359375,-67.3828125,-58.10546875,-69.3359375
142.578125,-66.89453125,-50.29296875,-10.7421875
293.45703125,-58.59375,-41.9921875,35.15625
197.75390625,-57.12890625,-39.0625,18.06640625
12.20703125,-71.2890625,-44.921875,-24.4140625
-79.58984375,-76.66015625,-46.38671875,-71.77734375
-0.9765625,-64.453125,-41.50390625,-98.6328125
196.77734375,-56.640625,-31.25,-33.69140625
207.51953125,-54.6875,-27.83203125,50.29296875
6.34765625,-49.8046875,-28.3203125,50.78125
-136.71875,-57.6171875,-24.4140625,-24.90234375
-15.13671875,-60.05859375,-27.34375,-51.7578125
208.984375,-48.828125,-31.25,-42.96875
186.03515625,-48.33984375,-27.83203125,-66.89453125
11.23046875,-57.12890625,-24.90234375,-48.828125
-123.53515625,-56.640625,-21.484375,-95.21484375
-57.6171875,-43.45703125,-24.4140625,-158.203125
139.6484375,-31.25,-16.11328125,-113.28125
156.73828125,-28.80859375,-4.8828125,-33.69140625
-54.6875,-32.2265625,-18.06640625,-70.80078125
-224.609375,-29.78515625,-23.92578125,-178.7109375
-173.828125,-18.06640625,-20.99609375,-157.2265625
29.296875,-6.34765625,-24.90234375,-116.2109375
98.14453125,-11.71875,-29.78515625,-91.30859375
-109.86328125,-21.97265625,-41.50390625,-66.89453125
-335.44921875,-19.04296875,-56.640625,-203.125
-300.78125,-23.92578125,-61.03515625,-269.53125
-101.07421875,-39.0625,-59.08203125,-212.890625
-51.7578125,-40.52734375,-61.03515625,-208.984375
-234.375,-31.73828125,-83.984375,-204.1015625
-390.13671875,-16.11328125,-90.8203125,-186.03515625
-405.76171875,-12.20703125,-68.84765625,-257.8125
-265.625,-23.92578125,-63.4765625,-306.15234375
-145.99609375,-33.69140625,-88.37890625,-246.09375
-274.4140625,-32.71484375,-84.47265625,-197.265625
-465.8203125,-23.4375,-69.82421875,-216.796875
-419.43359375,-16.11328125,-52.734375,-154.296875
-136.23046875,1.46484375,-12.20703125,-3.90625
18.06640625,3.41796875,-8.7890625,52.24609375
-134.27734375,-7.8125,-31.73828125,52.24609375
-324.21875,-20.01953125,-40.52734375,66.40625
-331.54296875,-24.90234375,-39.55078125,-1.46484375
-145.99609375,-27.34375,-46.875,-10.7421875
93.26171875,-18.06640625,-51.26953125,155.76171875
64.94140625,-12.6953125,-47.36328125,128.41796875
-140.625,-17.08984375,-61.5234375,-2.44140625
-209.9609375,-18.06640625,-72.75390625,16.11328125
-68.84765625,-26.3671875,-66.40625,-3.41796875
151.3671875,-23.92578125,-64.453125,12.6953125
145.5078125,-21.97265625,-62.98828125,70.80078125
-48.828125,-20.01953125,-65.91796875,48.828125
-161.62109375,-20.99609375,-68.359375,-41.50390625
-25.87890625,-21.484375,-64.453125,-72.265625
200.1953125,-20.5078125,-58.10546875,12.20703125
231.93359375,-23.92578125,-55.17578125,73.2421875
46.38671875,-31.25,-57.12890625,27.34375
-154.296875,-49.31640625,-60.05859375,-54.19921875
-76.66015625,-43.45703125,-60.05859375,-53.22265625
138.18359375,-35.64453125,-59.5703125,-2.9296875
153.80859375,-36.1328125,-54.19921875,17.08984375
-28.3203125,-30.2734375,-52.24609375,-36.62109375
-176.26953125,-28.80859375,-54.19921875,-100.5859375
-134.27734375,-42.48046875,-62.01171875,-117.1875
101.5625,-42.48046875,-62.98828125,-28.80859375
174.31640625,-34.66796875,-57.12890625,46.38671875
-37.109375,-38.0859375,-50.29296875,-27.83203125
-193.84765625,-31.73828125,-43.9453125,-116.2109375
-157.71484375,-24.4140625,-46.38671875,-110.83984375
22.94921875,-31.73828125,-56.15234375,-87.40234375
122.55859375,-38.57421875,-52.24609375,-29.296875
6.8359375,-38.0859375,-40.52734375,4.8828125
-200.1953125,-41.50390625,-43.9453125,-89.84375
-202.1484375,-39.0625,-50.29296875,-121.58203125
46.38671875,-31.25,-54.19921875,-73.2421875
147.4609375,-22.4609375,-51.7578125,-13.671875
19.04296875,-20.01953125,-49.31640625,27.83203125
-209.47265625,-35.64453125,-55.17578125,-83.49609375
-242.1875,-42.96875,-51.26953125,-158.203125
-3.41796875,-38.0859375,-44.43359375,-59.5703125
181.15234375,-31.25,-42.96875,44.921875
64.453125,-32.71484375,-43.45703125,14.16015625
-186.03515625,-43.45703125,-40.52734375,-61.5234375
-239.74609375,-41.015625,-36.1328125,-81.0546875
-27.34375,-38.0859375,-41.9921875,-41.9921875
143.06640625,-32.71484375,-49.8046875,-0.9765625
88.37890625,-30.2734375,-41.50390625,33.69140625
-106.4453125,-30.2734375,-41.9921875,15.13671875
-244.140625,-37.59765625,-48.828125,-45.8984375
-70.80078125,-43.9453125,-44.43359375,-0.9765625
137.6953125,-31.25,-44.921875,59.08203125
85.44921875,-20.99609375,-48.828125,72.265625
-88.8671875,-37.59765625,-42.96875,66.40625
-220.703125,-52.24609375,-35.64453125,32.71484375
-105.46875,-40.0390625,-38.57421875,46.38671875
126.46484375,-38.57421875,-46.875,138.18359375
61.03515625,-29.78515625,-64.453125,160.64453125
-161.62109375,-24.90234375,-72.265625,119.62890625
-319.82421875,-42.48046875,-71.77734375,85.9375
-244.140625,-33.203125,-76.66015625,44.921875
51.7578125,-9.765625,-84.47265625,70.3125
74.21875,3.41796875,-90.33203125,118.1640625
-171.38671875,-2.44140625,-83.0078125,91.30859375
-342.28515625,-13.671875,-83.49609375,6.8359375
-276.3671875,-9.765625,-97.65625,-8.30078125
-15.13671875,-6.34765625,-93.26171875,59.08203125
74.21875,-11.23046875,-81.0546875,127.9296875
-98.14453125,-7.8125,-77.63671875,122.0703125
-280.76171875,-11.23046875,-73.2421875,49.8046875
-287.109375,-38.0859375,-71.2890625,1.953125
-35.15625,-31.73828125,-77.63671875,58.59375
136.71875,-16.11328125,-75.1953125,119.62890625
-39.0625,-27.83203125,-74.21875,66.89453125
-242.67578125,-32.71484375,-83.0078125,-10.25390625
-157.2265625,-27.83203125,-83.984375,-39.0625
79.58984375,-17.578125,-75.1953125,6.8359375
190.4296875,-13.18359375,-70.80078125,69.3359375
38.0859375,-28.80859375,-68.359375,56.640625
-185.546875,-32.2265625,-69.3359375,-6.34765625
-211.9140625,-37.109375,-68.84765625,-18.5546875
-12.6953125,-35.15625,-73.73046875,15.625
154.78515625,-30.76171875,-74.21875,48.828125
78.61328125,-28.3203125,-61.5234375,45.8984375
-151.3671875,-32.71484375,-62.98828125,0.9765625
-227.5390625,-53.7109375,-71.77734375,-41.9921875
43.45703125,-43.45703125,-63.96484375,-9.765625
238.76953125,-31.25,-53.7109375,48.828125
169.43359375,-24.4140625,-66.89453125,59.08203125
18.06640625,-26.85546875,-70.80078125,-2.9296875
-45.41015625,-20.01953125,-74.70703125,-50.78125
138.671875,-20.5078125,-71.2890625,-8.30078125
325.68359375,-37.109375,-54.6875,59.5703125
268.5546875,-43.45703125,-83.0078125,89.84375
81.0546875,-56.15234375,-87.40234375,52.24609375
-7.32421875,-40.52734375,-71.77734375,1.46484375
165.0390625,-26.85546875,-68.359375,28.80859375
368.1640625,-52.24609375,-71.77734375,115.234375
315.4296875,-72.265625,-70.80078125,183.10546875
126.46484375,-57.6171875,-67.87109375,115.72265625
17.578125,-60.546875,-63.96484375,-40.52734375
119.62890625,-79.1015625,-63.4765625,-44.43359375
307.12890625,-71.77734375,-43.9453125,-28.80859375
342.28515625,-41.9921875,-48.33984375,-31.25
153.80859375,-46.875,-72.75390625,-25.390625
10.25390625,-60.05859375,-56.15234375,-95.21484375
145.99609375,-62.5,-69.82421875,-76.171875
288.57421875,-49.8046875,-36.62109375,-15.625
321.77734375,-61.5234375,-4.39453125,20.01953125
269.04296875,-113.76953125,-30.2734375,27.34375
31.25,-77.63671875,-37.109375,-92.7734375
-115.72265625,-44.43359375,-36.62109375,-207.51953125
121.09375,-71.77734375,-60.546875,-130.859375
319.82421875,-89.84375,-13.18359375,-80.078125
125.48828125,-104.4921875,19.53125,-165.52734375
-105.46875,-95.21484375,-89.35546875,-232.91015625
-164.55078125,-35.15625,-52.24609375,-312.01171875
-30.76171875,-28.80859375,24.4140625,-337.890625
170.8984375,-68.359375,-20.01953125,-191.40625
-215.8203125,79.1015625,-0.48828125,-386.71875
-497.0703125,40.0390625,75.68359375,-530.2734375
-25.87890625,-148.92578125,-22.94921875,-191.89453125
-150.87890625,46.875,-54.19921875,-339.35546875
-300.78125,8.30078125,93.26171875,-461.42578125
141.11328125,-205.078125,14.6484375,-157.2265625
80.56640625,-189.453125,-32.71484375,-85.9375
-341.796875,-54.19921875,41.9921875,-390.13671875
-135.7421875,4.8828125,-179.6875,-457.03125
352.05078125,-76.66015625,-168.9453125,-193.84765625
