TP9,AF7,AF8,TP10
-385.7421875,-187.01171875,-238.76953125,-27.83203125
630.859375,986.328125,974.12109375,-25.390625
982.91015625,999.51171875,999.51171875,-39.55078125
842.7734375,230.46875,1.46484375,-52.24609375
846.6796875,-1000.0,-1000.0,-45.41015625
983.3984375,-374.51171875,-389.6484375,-34.1796875
939.94140625,926.7578125,901.3671875,-27.34375
970.703125,999.51171875,999.51171875,-30.76171875
838.37890625,253.41796875,152.83203125,-44.43359375
-214.35546875,-957.03125,-1000.0,-49.31640625
-1000.0,-1000.0,-733.88671875,-37.59765625
-979.4921875,-245.60546875,621.09375,-35.64453125
-985.3515625,999.51171875,999.51171875,-58.10546875
-1000.0,177.24609375,152.34375,-70.80078125
-1000.0,-1000.0,-1000.0,-51.26953125
-1000.0,-1000.0,-881.8359375,-38.0859375
-1000.0,-139.16015625,417.96875,-39.0625
-1000.0,999.51171875,999.51171875,-38.57421875
-1000.0,359.375,179.6875,-61.03515625
-1000.0,-950.1953125,-1000.0,-70.80078125
-1000.0,-1000.0,-1000.0,-60.05859375
-1000.0,-187.5,153.80859375,-56.15234375
-1000.0,999.51171875,999.51171875,-52.24609375
-1000.0,608.88671875,291.9921875,-56.640625
-1000.0,-770.99609375,-967.28515625,-52.734375
-1000.0,-1000.0,-1000.0,-42.96875
-1000.0,-215.33203125,-68.84765625,-31.25
-1000.0,999.51171875,999.51171875,-26.3671875
-1000.0,786.1328125,430.6640625,-36.1328125
-1000.0,-559.08203125,-889.6484375,-44.43359375
-1000.0,-1000.0,-1000.0,-41.50390625
-1000.0,-211.42578125,-189.94140625,-21.97265625
-1000.0,999.51171875,999.51171875,-20.99609375
-948.2421875,999.51171875,662.109375,-41.50390625
-1000.0,-193.84765625,-692.87109375,-48.33984375
-331.0546875,-1000.0,-1000.0,-42.96875
900.87890625,-165.52734375,-194.82421875,-37.59765625
997.0703125,999.51171875,999.51171875,-32.71484375
-30.76171875,999.51171875,889.6484375,-48.33984375
-1000.0,-57.6171875,-385.7421875,-60.05859375
-984.375,-1000.0,-1000.0,-52.734375
-979.4921875,-248.046875,-205.56640625,-46.38671875
-1000.0,963.37890625,999.51171875,-35.64453125
-1000.0,999.51171875,999.51171875,-41.50390625
-1000.0,118.1640625,-138.671875,-57.6171875
-1000.0,-1000.0,-1000.0,-53.7109375
-1000.0,-805.6640625,-351.5625,-43.9453125
-1000.0,530.76171875,924.31640625,-36.1328125
-1000.0,999.51171875,999.51171875,-36.62109375
-1000.0,171.38671875,41.9921875,-47.36328125
-979.4921875,-1000.0,-1000.0,-44.43359375
-1000.0,-768.5546875,-505.37109375,-23.4375
-847.16796875,597.16796875,826.171875,101.5625
-182.12890625,999.51171875,999.51171875,208.0078125
255.37109375,842.7734375,184.5703125,176.26953125
459.47265625,-612.79296875,-1000.0,157.71484375
817.87109375,-846.19140625,-731.4453125,213.37890625
976.5625,673.828125,627.44140625,289.55078125
958.984375,999.51171875,999.51171875,287.109375
958.984375,549.31640625,163.0859375,201.171875
929.19921875,-809.08203125,-1000.0,137.6953125
956.0546875,-1000.0,-945.80078125,165.0390625
959.47265625,84.47265625,312.98828125,227.05078125
981.4453125,999.51171875,999.51171875,223.14453125
894.53125,506.34765625,213.8671875,140.13671875
645.99609375,-840.8203125,-1000.0,84.9609375
772.94921875,-1000.0,-1000.0,122.0703125
982.421875,-84.9609375,92.28515625,194.82421875
960.9375,999.51171875,999.51171875,202.63671875
961.42578125,686.5234375,335.9375,123.53515625
966.796875,-661.1328125,-941.40625,47.8515625
965.8203125,-1000.0,-1000.0,32.71484375
965.8203125,-195.80078125,-123.53515625,42.48046875
965.33203125,999.51171875,999.51171875,-2.44140625
965.33203125,937.01171875,550.29296875,-89.35546875
966.30859375,-342.28515625,-802.734375,-122.55859375
963.8671875,-1000.0,-1000.0,-89.35546875
935.546875,-161.62109375,-164.0625,-33.69140625
999.51171875,999.51171875,999.51171875,-20.5078125
531.73828125,833.984375,751.953125,-67.87109375
-160.15625,-456.0546875,-578.61328125,-112.3046875
-98.14453125,-1000.0,-1000.0,-90.33203125
236.328125,-529.296875,-203.61328125,-28.80859375
595.703125,814.94140625,999.51171875,6.8359375
602.05078125,999.51171875,930.17578125,-21.484375
333.0078125,-66.40625,-312.98828125,-70.80078125
332.51953125,-1000.0,-1000.0,-53.22265625
709.47265625,-494.62890625,-256.34765625,22.4609375
934.5703125,834.9609375,962.890625,58.10546875
740.72265625,999.51171875,999.51171875,15.13671875
275.87890625,175.29296875,-1.46484375,-48.828125
35.15625,-1000.0,-1000.0,-152.83203125
305.17578125,-886.71875,-410.15625,-211.9140625
546.38671875,437.5,895.99609375,-185.546875
340.8203125,999.51171875,999.51171875,-204.58984375
-68.84765625,162.109375,115.234375,-218.26171875
-269.04296875,-1000.0,-1000.0,-190.91796875
-133.30078125,-909.66796875,-605.95703125,-139.16015625
169.43359375,404.296875,749.51171875,-70.80078125
120.60546875,999.51171875,999.51171875,-61.5234375
-419.43359375,137.20703125,172.8515625,-118.65234375
-687.01171875,-1000.0,-1000.0,-128.41796875
-520.99609375,-1000.0,-819.3359375,-74.70703125
-274.90234375,20.5078125,511.23046875,-21.97265625
-252.9296875,999.51171875,999.51171875,-16.6015625
-609.86328125,195.3125,164.55078125,-62.98828125
-813.96484375,-1000.0,-1000.0,-92.28515625
-536.1328125,-1000.0,-1000.0,-58.10546875
-56.640625,-111.81640625,183.10546875,-4.8828125
130.859375,999.51171875,999.51171875,42.48046875
-257.8125,464.35546875,247.55859375,20.5078125
-692.3828125,-898.92578125,-995.60546875,-44.921875
-584.9609375,-1000.0,-1000.0,2.44140625
-165.0390625,-97.65625,-2.9296875,83.0078125
30.76171875,999.51171875,999.51171875,100.5859375
-187.01171875,680.17578125,405.2734375,37.109375
-462.890625,-671.38671875,-904.78515625,-40.0390625
-267.578125,-1000.0,-1000.0,-10.25390625
194.3359375,-197.75390625,-168.45703125,51.7578125
302.734375,999.51171875,999.51171875,62.98828125
-77.1484375,918.9453125,609.375,7.8125
-505.37109375,-362.79296875,-748.046875,-59.08203125
-441.40625,-1000.0,-1000.0,-45.8984375
136.23046875,-155.2734375,-186.5234375,38.0859375
458.0078125,968.26171875,999.51171875,51.26953125
192.87109375,999.51171875,931.640625,-32.71484375
-255.859375,223.14453125,-316.40625,-104.00390625
-503.41796875,-1000.0,-1000.0,-109.86328125
-246.58203125,-342.7734375,-198.2421875,-49.31640625
-19.53125,972.16796875,999.51171875,-11.23046875
-266.11328125,999.51171875,992.1875,-52.734375
-631.34765625,26.3671875,-175.29296875,-118.65234375
-691.89453125,-1000.0,-1000.0,-120.1171875
-313.96484375,-627.9296875,-318.359375,-43.9453125
-10.7421875,725.09765625,932.6171875,3.90625
-196.77734375,999.51171875,999.51171875,-33.69140625
-594.23828125,189.94140625,71.77734375,-101.07421875
-643.06640625,-1000.0,-1000.0,-107.421875
-251.46484375,-728.02734375,-461.9140625,-43.9453125
91.30859375,652.83203125,867.1875,0.9765625
13.18359375,999.51171875,999.51171875,-35.15625
-299.31640625,189.94140625,143.5546875,-101.07421875
-396.484375,-1000.0,-1000.0,-106.93359375
-49.31640625,-678.22265625,-644.53125,-28.80859375
409.66796875,698.2421875,715.33203125,50.29296875
417.48046875,999.51171875,999.51171875,45.8984375
13.18359375,245.60546875,168.9453125,-29.296875
-250.48828125,-1000.0,-1000.0,-80.078125
-60.05859375,-1000.0,-898.4375,-46.38671875
338.8671875,191.40625,396.97265625,7.8125
454.1015625,999.51171875,999.51171875,3.41796875
168.45703125,327.1484375,186.03515625,-59.5703125
-127.9296875,-935.546875,-1000.0,-104.4921875
33.203125,-1000.0,-1000.0,-57.6171875
556.640625,-148.4375,104.00390625,16.11328125
739.2578125,999.51171875,999.51171875,13.671875
411.62109375,650.87890625,310.546875,-49.8046875
48.828125,-712.40234375,-956.0546875,-86.9140625
138.671875,-1000.0,-1000.0,-52.734375
560.546875,-180.6640625,-103.515625,18.06640625
686.5234375,996.58203125,999.51171875,24.90234375
430.17578125,999.51171875,549.8046875,-41.015625
171.38671875,-115.234375,-796.875,-90.8203125
298.33984375,-1000.0,-1000.0,-68.359375
762.20703125,-191.89453125,-196.2890625,8.30078125
985.83984375,999.51171875,999.51171875,39.0625
694.82421875,999.51171875,718.26171875,-24.4140625
299.8046875,-173.33984375,-631.8359375,-94.23828125
274.4140625,-1000.0,-1000.0,-83.0078125
640.625,-297.8515625,-195.80078125,-9.27734375
973.6328125,933.10546875,999.51171875,34.1796875
906.73828125,999.51171875,929.6875,-10.7421875
507.32421875,122.55859375,-318.84765625,-82.03125
338.37890625,-1000.0,-1000.0,-77.63671875
687.98828125,-195.80078125,-204.1015625,-0.9765625
976.5625,999.51171875,994.62890625,43.9453125
786.62109375,999.51171875,999.51171875,-9.765625
283.69140625,163.0859375,-69.3359375,-78.61328125
26.85546875,-1000.0,-1000.0,-83.0078125
383.30078125,-576.66015625,-358.3984375,-29.78515625
762.20703125,800.78125,920.8984375,31.25
606.4453125,999.51171875,999.51171875,11.71875
163.57421875,180.6640625,78.61328125,-79.1015625
-66.89453125,-1000.0,-1000.0,-100.5859375
280.76171875,-677.24609375,-558.59375,-27.34375
662.109375,709.47265625,792.96875,39.55078125
546.875,999.51171875,999.51171875,24.90234375
75.68359375,151.3671875,156.73828125,-58.10546875
-210.44921875,-1000.0,-1000.0,-94.7265625
220.703125,-1000.0,-805.6640625,-41.9921875
791.015625,137.20703125,529.78515625,19.04296875
753.90625,999.51171875,999.51171875,10.7421875
310.546875,196.77734375,159.66796875,-62.01171875
-5.37109375,-1000.0,-1000.0,-94.23828125
118.65234375,-1000.0,-965.33203125,-49.8046875
493.1640625,24.90234375,268.5546875,27.34375
566.40625,999.51171875,999.51171875,49.8046875
166.015625,861.81640625,285.64453125,-17.578125
-166.015625,-386.71875,-969.7265625,-72.265625
-1.46484375,-1000.0,-1000.0,-1.46484375
363.76953125,-224.609375,-24.90234375,163.57421875
475.5859375,999.51171875,999.51171875,235.83984375
100.09765625,607.421875,378.41796875,124.51171875
-386.71875,-784.1796875,-927.734375,12.20703125
-295.41015625,-1000.0,-1000.0,20.5078125
141.11328125,-215.8203125,-149.4140625,41.9921875
321.77734375,999.51171875,999.51171875,-12.20703125
64.453125,795.8984375,590.33203125,-146.484375
-344.23828125,-553.7109375,-766.6015625,-244.62890625
-510.25390625,-1000.0,-1000.0,-226.07421875
-335.44921875,-181.15234375,-186.03515625,-153.3203125
-195.80078125,999.51171875,999.51171875,-164.0625
-385.25390625,999.51171875,829.1015625,-253.41796875
-755.859375,-160.64453125,-477.5390625,-271.484375
-663.0859375,-1000.0,-1000.0,-266.11328125
-129.39453125,-401.3671875,-205.56640625,-288.57421875
220.703125,878.90625,999.51171875,-304.19921875
-68.359375,999.51171875,973.6328125,-319.3359375
-596.6796875,182.12890625,-217.28515625,-315.91796875
-678.7109375,-1000.0,-1000.0,-295.8984375
-312.5,-636.23046875,-297.36328125,-266.6015625
-260.25390625,753.90625,947.265625,-234.86328125
-800.78125,999.51171875,999.51171875,-225.09765625
-1000.0,131.34765625,23.4375,-232.421875
-950.1953125,-1000.0,-1000.0,-220.703125
-1000.0,-1000.0,-501.953125,-199.21875
-772.94921875,132.8125,834.47265625,-183.10546875
247.55859375,999.51171875,999.51171875,-185.05859375
930.17578125,414.55078125,132.32421875,-192.87109375
899.4140625,-1000.0,-1000.0,-175.29296875
999.51171875,-734.375,-642.578125,-150.390625
238.28125,725.09765625,716.796875,-141.6015625
-133.30078125,999.51171875,999.51171875,-145.01953125
979.98046875,927.24609375,169.43359375,-157.71484375
999.51171875,-281.73828125,-1000.0,-152.83203125
833.49609375,-1000.0,-900.87890625,-122.0703125
901.3671875,29.296875,392.578125,-104.00390625
941.40625,999.51171875,999.51171875,-111.328125
325.68359375,232.91015625,168.9453125,-129.8828125
-608.88671875,-982.91015625,-1000.0,-134.765625
-912.109375,-1000.0,-1000.0,-120.60546875
-424.8046875,-259.765625,76.171875,-94.23828125
-408.203125,999.51171875,999.51171875,-83.984375
-915.52734375,427.24609375,292.48046875,-95.703125
-1000.0,-927.24609375,-979.98046875,-92.28515625
-984.375,-1000.0,-1000.0,-81.54296875
-1000.0,-220.703125,-26.85546875,-72.265625
-1000.0,999.51171875,999.51171875,-71.2890625
-1000.0,845.703125,494.62890625,-83.984375
-1000.0,-481.93359375,-838.8671875,-92.28515625
-1000.0,-1000.0,-1000.0,-85.9375
-1000.0,-194.82421875,-182.6171875,-67.3828125
-1000.0,999.51171875,999.51171875,-61.5234375
-1000.0,919.921875,688.4765625,-71.2890625
-1000.0,-345.21484375,-663.57421875,-78.61328125
-1000.0,-1000.0,-1000.0,-70.3125
-998.046875,-300.29296875,-193.84765625,-51.26953125
-1000.0,944.82421875,999.51171875,-43.45703125
-961.9140625,999.51171875,907.71484375,-63.4765625
-867.67578125,-32.71484375,-354.98046875,-78.125
-585.9375,-1000.0,-1000.0,-67.87109375
35.64453125,-269.04296875,-217.28515625,-51.7578125
479.00390625,949.70703125,991.2109375,-40.0390625
307.6171875,999.51171875,999.51171875,-45.41015625
-226.07421875,212.890625,-86.9140625,-60.546875
-603.02734375,-1000.0,-1000.0,-61.5234375
-369.62890625,-590.33203125,-347.16796875,-51.7578125
55.17578125,773.92578125,915.0390625,-48.33984375
127.9296875,999.51171875,999.51171875,-59.5703125
-87.890625,510.7421875,150.87890625,-71.77734375
-225.09765625,-933.59375,-1000.0,-65.4296875
-84.47265625,-963.37890625,-554.19921875,-44.921875
58.59375,441.40625,807.6171875,-37.59765625
34.66796875,999.51171875,999.51171875,-37.59765625
-219.7265625,161.1328125,160.64453125,-47.8515625
-447.265625,-1000.0,-1000.0,-61.5234375
-263.671875,-1000.0,-761.23046875,-47.8515625
-17.08984375,120.60546875,586.42578125,-35.15625
-202.63671875,999.51171875,999.51171875,-46.38671875
-525.390625,279.78515625,169.921875,-69.82421875
-542.48046875,-1000.0,-1000.0,-87.890625
-219.23828125,-983.88671875,-908.203125,-71.2890625
101.5625,297.36328125,376.46484375,-61.5234375
2.44140625,999.51171875,999.51171875,-87.40234375
-448.73046875,267.578125,208.49609375,-91.796875
-860.3515625,-948.2421875,-1000.0,-83.0078125
-787.59765625,-1000.0,-1000.0,-69.3359375
-518.5546875,-250.0,29.296875,-76.66015625
-503.90625,999.51171875,999.51171875,-92.28515625
-815.91796875,575.68359375,362.3046875,-83.984375
-1000.0,-814.453125,-931.15234375,-78.61328125
-924.8046875,-1000.0,-1000.0,-80.078125
-564.453125,-187.98828125,-137.20703125,-71.77734375
-322.75390625,999.51171875,999.51171875,-76.66015625
-615.72265625,999.51171875,617.67578125,-85.9375
-1000.0,-161.1328125,-735.3515625,-73.73046875
-860.3515625,-1000.0,-1000.0,-61.03515625
-250.0,-238.28125,-201.66015625,-59.5703125
14.16015625,995.60546875,999.51171875,-57.6171875
-323.2421875,999.51171875,797.36328125,-61.5234375
-752.44140625,-113.28125,-527.34375,-63.96484375
-840.8203125,-1000.0,-1000.0,-62.98828125
-658.203125,-371.58203125,-189.94140625,-64.453125
-451.66015625,895.01953125,999.51171875,-69.82421875
-683.59375,999.51171875,999.0234375,-69.3359375
-985.83984375,214.84375,-160.64453125,-57.6171875
-1000.0,-1000.0,-1000.0,-42.96875
-745.1171875,-608.3984375,-283.203125,-42.48046875
-325.68359375,784.66796875,957.03125,-52.24609375
-309.5703125,999.51171875,999.51171875,-59.08203125
-493.1640625,197.265625,23.4375,-59.5703125
-439.94140625,-1000.0,-1000.0,-58.59375
-27.83203125,-654.78515625,-422.36328125,-50.78125
209.47265625,731.4453125,888.18359375,-50.78125
110.83984375,999.51171875,999.51171875,-61.5234375
-51.26953125,234.375,151.3671875,-48.33984375
-276.85546875,-1000.0,-1000.0,-33.203125
-199.21875,-809.5703125,-609.375,-40.52734375
149.4140625,549.31640625,750.9765625,-59.08203125
118.1640625,999.51171875,999.51171875,-61.03515625
-258.7890625,265.13671875,170.41015625,-47.36328125
-424.8046875,-1000.0,-1000.0,-43.45703125
-149.90234375,-1000.0,-855.95703125,-46.38671875
263.18359375,208.0078125,461.42578125,-49.31640625
355.95703125,999.51171875,999.51171875,-45.8984375
127.44140625,388.671875,174.31640625,-44.43359375
-0.9765625,-901.3671875,-1000.0,-45.41015625
165.52734375,-1000.0,-1000.0,-38.0859375
416.50390625,-174.8046875,126.46484375,-42.48046875
490.234375,999.51171875,999.51171875,-50.29296875
142.578125,454.1015625,258.7890625,-41.50390625
-250.9765625,-901.3671875,-985.83984375,-34.66796875
-145.01953125,-1000.0,-1000.0,-33.203125
194.82421875,-199.70703125,-56.640625,-41.015625
277.34375,999.51171875,999.51171875,-49.31640625
-20.01953125,931.15234375,482.421875,-48.33984375
-362.3046875,-342.28515625,-856.4453125,-47.8515625
-254.8828125,-1000.0,-1000.0,-45.8984375
169.43359375,-173.828125,-153.80859375,-45.8984375
265.625,999.51171875,999.51171875,-57.12890625
-21.484375,998.53515625,657.2265625,-60.546875
-330.56640625,-174.8046875,-690.4296875,-44.921875
-352.5390625,-1000.0,-1000.0,-40.0390625
-12.20703125,-360.3515625,-203.125,-50.78125
146.484375,940.91796875,999.51171875,-60.546875
-117.67578125,999.51171875,862.79296875,-57.6171875
-449.21875,-109.86328125,-429.6875,-47.8515625
-442.87109375,-1000.0,-1000.0,-37.59765625
-74.21875,-386.71875,-213.8671875,-41.50390625
158.203125,893.06640625,996.58203125,-53.22265625
3.90625,999.51171875,999.51171875,-58.10546875
-332.51953125,176.26953125,-126.46484375,-54.19921875
-463.37890625,-1000.0,-1000.0,-44.43359375
-134.27734375,-321.77734375,-295.8984375,-42.96875
168.45703125,953.61328125,946.2890625,-41.50390625
259.27734375,999.51171875,999.51171875,-48.33984375
229.4921875,211.42578125,73.2421875,-46.38671875
209.9609375,-1000.0,-1000.0,-36.62109375
526.3671875,-756.34765625,-525.390625,-43.9453125
827.63671875,612.79296875,818.84765625,-59.08203125
794.43359375,999.51171875,999.51171875,-57.12890625
488.28125,186.03515625,158.69140625,-49.31640625
335.44921875,-1000.0,-1000.0,-41.9921875
243.65234375,-1000.0,-776.3671875,-42.96875
223.14453125,33.203125,568.84765625,-51.7578125
322.265625,999.51171875,999.51171875,-49.8046875
36.1328125,289.0625,167.96875,-46.875
-250.0,-1000.0,-1000.0,-41.015625
8.7890625,-995.60546875,-902.83203125,-47.8515625
334.9609375,283.203125,388.671875,-60.05859375
204.1015625,999.51171875,999.51171875,-58.10546875
-310.546875,229.00390625,192.3828125,-52.24609375
-698.73046875,-965.33203125,-1000.0,-44.921875
-549.8046875,-1000.0,-1000.0,-46.38671875
-155.76171875,-235.3515625,58.59375,-53.7109375
9.765625,999.51171875,999.51171875,-54.19921875
-222.65625,662.59765625,340.8203125,-51.26953125
-438.4765625,-717.7734375,-943.84765625,-51.7578125
-148.92578125,-1000.0,-1000.0,-52.734375
354.98046875,-196.2890625,-109.86328125,-56.640625
615.72265625,999.51171875,999.51171875,-48.828125
525.390625,942.87109375,542.48046875,-37.59765625
162.109375,-323.73046875,-804.19921875,-41.50390625
298.33984375,-1000.0,-1000.0,-39.0625
793.45703125,-169.43359375,-192.3828125,-37.59765625
999.51171875,990.72265625,999.51171875,-52.24609375
863.28125,999.51171875,772.94921875,-54.6875
708.984375,2.44140625,-558.59375,-52.24609375
903.80859375,-1000.0,-1000.0,-58.59375
985.3515625,-184.08203125,-192.3828125,-54.6875
954.58984375,998.046875,999.51171875,-48.828125
966.796875,999.51171875,931.15234375,-45.41015625
965.8203125,97.65625,-307.6171875,-44.43359375
965.8203125,-1000.0,-1000.0,-39.55078125
965.33203125,-474.609375,-256.34765625,-37.59765625
965.33203125,867.1875,973.14453125,-47.8515625
965.33203125,999.51171875,999.51171875,-53.22265625
965.33203125,172.36328125,-61.03515625,-48.828125
967.28515625,-1000.0,-1000.0,-41.015625
958.984375,-766.11328125,-406.73828125,-35.64453125
961.9140625,596.19140625,885.25390625,-31.73828125
962.40234375,999.51171875,999.51171875,-37.109375
661.1328125,176.7578125,158.69140625,-34.1796875
344.23828125,-1000.0,-1000.0,-20.99609375
485.83984375,-1000.0,-643.06640625,-29.296875
731.93359375,163.57421875,724.12109375,-45.41015625
623.046875,999.51171875,999.51171875,-52.734375
184.5703125,136.23046875,156.73828125,-46.875
-157.2265625,-1000.0,-1000.0,-37.109375
-152.34375,-1000.0,-854.00390625,-32.2265625
96.19140625,-87.40234375,459.9609375,-35.15625
305.6640625,999.51171875,999.51171875,-42.96875
146.97265625,444.82421875,186.5234375,-39.0625
-147.94921875,-932.12890625,-1000.0,-38.57421875
64.453125,-1000.0,-966.30859375,-44.43359375
170.41015625,56.15234375,280.2734375,-39.0625
-587.890625,999.51171875,999.51171875,-40.52734375
-1000.0,232.421875,230.95703125,-38.0859375
-965.8203125,-979.00390625,-987.3046875,-39.55078125
-1000.0,-1000.0,-1000.0,-50.29296875
-857.421875,-255.37109375,-72.265625,-51.26953125
-571.77734375,999.51171875,999.51171875,-49.31640625
-767.08984375,653.3203125,402.83203125,-46.38671875
-1000.0,-727.5390625,-915.52734375,-37.109375
-983.3984375,-1000.0,-1000.0,-34.66796875
-760.25390625,-199.21875,-143.06640625,-46.38671875
-817.3828125,999.51171875,999.51171875,-45.8984375
-1000.0,900.390625,628.41796875,-33.203125
-996.09375,-370.60546875,-722.65625,-30.2734375
-997.0703125,-1000.0,-1000.0,-29.78515625
-1000.0,-350.5859375,-203.125,-30.2734375
-1000.0,942.87109375,999.51171875,-36.1328125
-1000.0,999.51171875,833.0078125,-45.41015625
-1000.0,-153.80859375,-476.5625,-38.0859375
-1000.0,-1000.0,-1000.0,-28.3203125
-1000.0,-461.9140625,-204.1015625,-40.0390625
-1000.0,842.7734375,993.1640625,-41.9921875
-1000.0,999.51171875,999.51171875,-29.296875
-982.421875,208.49609375,-94.7265625,-8.7890625
-1000.0,-1000.0,-1000.0,-4.8828125
-857.91015625,-566.89453125,-315.91796875,-29.78515625
-398.92578125,811.03515625,940.4296875,-28.80859375
-328.61328125,999.51171875,999.51171875,-23.92578125
-639.16015625,306.640625,72.75390625,-28.80859375
-787.59765625,-1000.0,-1000.0,-15.625
-341.30859375,-720.703125,-473.14453125,-18.5546875
124.0234375,687.98828125,857.91015625,-20.01953125
85.9375,999.51171875,999.51171875,-10.25390625
-166.9921875,182.6171875,159.66796875,-5.37109375
-268.06640625,-1000.0,-1000.0,-2.44140625
-115.234375,-1000.0,-721.19140625,-12.20703125
-62.01171875,141.11328125,634.765625,-16.6015625
-174.31640625,999.51171875,999.51171875,-16.11328125
-342.28515625,240.234375,163.57421875,-20.01953125
-425.78125,-1000.0,-1000.0,-16.11328125
-252.9296875,-1000.0,-916.015625,-6.34765625
76.66015625,61.5234375,365.72265625,-10.25390625
117.67578125,999.51171875,999.51171875,-28.80859375
-231.93359375,531.73828125,204.58984375,-40.0390625
-481.93359375,-852.05078125,-1000.0,-33.203125
-319.82421875,-1000.0,-1000.0,-22.94921875
40.0390625,85.9375,135.7421875,-19.53125
106.93359375,999.51171875,999.51171875,-23.4375
-174.8046875,564.453125,305.17578125,-15.625
-383.7890625,-766.6015625,-958.0078125,-11.23046875
-205.078125,-1000.0,-1000.0,-25.390625
189.453125,-212.40234375,-94.23828125,-24.4140625
324.21875,999.51171875,999.51171875,-28.3203125
53.7109375,786.1328125,491.2109375,-28.80859375
-274.90234375,-566.40625,-848.6328125,-20.5078125
-233.88671875,-1000.0,-1000.0,-18.06640625
139.6484375,-154.78515625,-187.5,-19.04296875
322.75390625,963.37890625,999.51171875,-29.296875
63.96484375,999.51171875,797.8515625,-33.69140625
-327.63671875,220.21484375,-522.4609375,-29.296875
-312.5,-1000.0,-1000.0,-28.3203125
115.234375,-392.578125,-194.3359375,-30.2734375
363.28125,948.73046875,999.51171875,-35.64453125
209.47265625,999.51171875,926.26953125,-39.55078125
-101.5625,32.71484375,-320.3125,-39.0625
-31.73828125,-1000.0,-1000.0,-40.52734375
435.546875,-413.0859375,-235.83984375,-41.9921875
616.2109375,895.01953125,986.328125,-42.48046875
391.11328125,999.51171875,999.51171875,-39.0625
7.8125,179.19921875,-90.33203125,-39.55078125
-107.91015625,-1000.0,-1000.0,-39.55078125
247.0703125,-705.078125,-370.60546875,-36.1328125
498.046875,672.8515625,907.71484375,-41.9921875
365.234375,999.51171875,999.51171875,-45.41015625
-5.37109375,166.015625,113.76953125,-44.921875
-233.3984375,-1000.0,-1000.0,-53.22265625
-7.8125,-942.87109375,-579.58984375,-51.26953125
279.78515625,347.65625,777.34375,-48.828125
227.05078125,999.51171875,999.51171875,-50.29296875
-127.44140625,151.3671875,154.296875,-40.52734375
-309.5703125,-1000.0,-1000.0,-35.15625
-50.78125,-1000.0,-796.38671875,-41.9921875
272.4609375,190.4296875,541.9921875,-50.29296875
252.9296875,999.51171875,999.51171875,-54.19921875
-99.609375,173.33984375,157.2265625,-47.8515625
-340.8203125,-1000.0,-1000.0,-42.48046875
-159.66796875,-1000.0,-983.88671875,-41.50390625
190.4296875,-106.93359375,241.69921875,-43.45703125
201.66015625,999.51171875,999.51171875,-48.828125
-186.5234375,393.5546875,224.609375,-48.33984375
-453.61328125,-921.875,-1000.0,-48.33984375
-296.875,-1000.0,-1000.0,-40.52734375
106.4453125,-203.125,-7.8125,-40.52734375
263.671875,999.51171875,999.51171875,-57.12890625
-13.18359375,998.046875,449.21875,-61.03515625
-305.6640625,-211.9140625,-874.51171875,-50.78125
-207.51953125,-1000.0,-1000.0,-38.57421875
149.90234375,-197.265625,-162.59765625,-42.96875
280.2734375,999.51171875,999.51171875,-48.828125
38.0859375,941.89453125,599.12109375,-47.36328125
-303.7109375,-325.1953125,-759.765625,-48.33984375
-292.96875,-1000.0,-1000.0,-45.41015625
79.1015625,-174.8046875,-197.75390625,-43.45703125
250.0,999.51171875,999.51171875,-40.52734375
-11.71875,999.51171875,812.5,-47.8515625
-331.54296875,-71.77734375,-503.41796875,-56.15234375
-307.6171875,-1000.0,-1000.0,-54.6875
95.21484375,-297.36328125,-198.73046875,-58.59375
356.4453125,964.35546875,999.51171875,-61.03515625
170.8984375,999.51171875,951.171875,-57.6171875
-200.1953125,-30.2734375,-263.671875,-47.36328125
-273.4375,-1000.0,-1000.0,-39.0625
125.0,-567.87109375,-296.38671875,-39.55078125
417.48046875,775.87890625,948.73046875,-47.36328125
251.953125,999.51171875,999.51171875,-50.29296875
-113.28125,167.96875,-3.41796875,-53.7109375
-245.1171875,-1000.0,-1000.0,-61.03515625
50.78125,-855.46875,-479.00390625,-59.08203125
387.6953125,473.6328125,843.75,-51.26953125
269.53125,999.51171875,999.51171875,-45.41015625
-142.08984375,193.359375,157.71484375,-41.50390625
-313.96484375,-1000.0,-1000.0,-27.83203125
-62.98828125,-1000.0,-721.19140625,-18.5546875
180.17578125,76.66015625,636.71875,-20.5078125
-33.69140625,999.51171875,999.51171875,-17.578125
-655.76171875,141.11328125,159.1796875,-16.11328125
-1000.0,-1000.0,-1000.0,-23.92578125
-996.58203125,-1000.0,-883.7890625,-49.8046875
-803.7109375,-83.984375,412.109375,-73.2421875
-688.96484375,999.51171875,999.51171875,-75.68359375
-874.0234375,794.921875,216.30859375,-65.91796875
-617.1875,-554.19921875,-1000.0,-53.22265625
419.43359375,-1000.0,-1000.0,-52.24609375
999.51171875,19.04296875,131.34765625,-58.10546875
592.7734375,999.51171875,999.51171875,-60.05859375
-783.69140625,139.16015625,228.515625,-47.8515625
-598.14453125,-1000.0,-994.62890625,-34.66796875
-10.7421875,-1000.0,-1000.0,-39.0625
196.2890625,-220.703125,-89.35546875,-46.875
911.1328125,999.51171875,999.51171875,-43.45703125
999.51171875,999.51171875,476.5625,-43.45703125
548.828125,-190.91796875,-864.74609375,-40.0390625
462.890625,-1000.0,-1000.0,-38.0859375
999.51171875,-87.890625,-156.73828125,-46.38671875
965.33203125,999.51171875,999.51171875,-50.78125
953.61328125,999.51171875,684.5703125,-48.828125
967.7734375,-40.0390625,-662.109375,-42.96875
966.796875,-1000.0,-1000.0,-32.71484375
919.43359375,-188.96484375,-188.96484375,-29.296875
999.51171875,999.51171875,999.51171875,-27.83203125
413.57421875,999.51171875,901.3671875,-34.66796875
-30.76171875,-137.6953125,-361.328125,-46.875
878.90625,-1000.0,-1000.0,-45.41015625
999.51171875,-364.74609375,-226.07421875,-40.52734375
930.6640625,904.78515625,999.0234375,-46.38671875
971.6796875,999.51171875,999.51171875,-53.7109375
965.8203125,127.44140625,-150.390625,-53.22265625
966.30859375,-1000.0,-1000.0,-45.41015625
901.85546875,-730.95703125,-368.65234375,-43.45703125
999.51171875,694.82421875,914.55078125,-48.33984375
238.28125,999.51171875,999.51171875,-52.734375
-1000.0,-142.08984375,37.109375,-56.15234375
-390.625,-1000.0,-1000.0,-53.7109375
844.23828125,-413.57421875,-481.93359375,-46.875
998.046875,871.09375,845.703125,-43.9453125
714.84375,999.51171875,999.51171875,-43.9453125
-239.2578125,174.31640625,159.1796875,-36.62109375
-1000.0,-982.91015625,-1000.0,-28.3203125
-990.72265625,-1000.0,-821.77734375,-35.64453125
-981.93359375,-253.41796875,506.8359375,-47.8515625
-1000.0,999.51171875,999.51171875,-48.33984375
-1000.0,171.38671875,154.78515625,-50.29296875
-1000.0,-1000.0,-1000.0,-45.41015625
-1000.0,-1000.0,-977.5390625,-42.96875
-1000.0,-240.234375,253.90625,-46.38671875
-1000.0,999.51171875,999.51171875,-41.015625
-1000.0,533.69140625,227.5390625,-40.52734375
-1000.0,-872.0703125,-1000.0,-48.33984375
-1000.0,-1000.0,-1000.0,-51.7578125
-1000.0,-73.2421875,87.40234375,-48.33984375
-1000.0,999.51171875,999.51171875,-43.45703125
-1000.0,398.92578125,314.453125,-41.9921875
-1000.0,-917.48046875,-950.1953125,-36.62109375
-984.86328125,-1000.0,-1000.0,-25.87890625
-1000.0,-198.73046875,-143.5546875,-32.71484375
-1000.0,999.51171875,999.51171875,-49.8046875
-451.171875,999.51171875,564.94140625,-51.26953125
-557.6171875,-155.76171875,-786.62109375,-47.8515625
-1000.0,-1000.0,-1000.0,-43.45703125
-804.19921875,-230.95703125,-192.87109375,-42.96875
65.4296875,979.98046875,999.51171875,-41.9921875
-456.54296875,999.51171875,822.265625,-42.48046875
-1000.0,-13.671875,-491.2109375,-46.38671875
-7.8125,-1000.0,-1000.0,-53.22265625
999.51171875,-201.171875,-201.171875,-62.5
676.26953125,999.51171875,999.51171875,-56.15234375
-571.77734375,999.51171875,928.22265625,-47.36328125
-1000.0,-160.15625,-315.4296875,-51.7578125
-954.58984375,-1000.0,-1000.0,-46.38671875
-1000.0,-530.2734375,-257.8125,-35.15625
-1000.0,788.57421875,962.40234375,-42.48046875
-1000.0,999.51171875,999.51171875,-59.08203125
-989.74609375,183.59375,4.39453125,-59.08203125
-1000.0,-1000.0,-1000.0,-48.33984375
-927.24609375,-886.71875,-441.89453125,-39.0625
-665.0390625,439.94140625,878.41796875,-39.0625
-618.65234375,999.51171875,999.51171875,-42.96875
-835.9375,156.73828125,115.72265625,-38.0859375
-941.89453125,-1000.0,-1000.0,-31.25
-712.40234375,-982.91015625,-646.97265625,-41.9921875
-349.609375,270.5078125,709.47265625,-45.41015625
-294.921875,999.51171875,999.51171875,-40.52734375
-571.77734375,237.79296875,172.8515625,-43.9453125
-664.0625,-1000.0,-1000.0,-38.57421875
-414.0625,-821.77734375,-783.69140625,-33.69140625
-108.88671875,525.87890625,561.03515625,-33.69140625
-78.125,999.51171875,999.51171875,-36.62109375
-331.0546875,340.8203125,172.8515625,-43.9453125
-495.60546875,-916.9921875,-1000.0,-42.96875
-340.8203125,-1000.0,-1000.0,-39.55078125
-56.640625,-156.73828125,160.15625,-36.62109375
-24.4140625,999.51171875,999.51171875,-35.15625
-277.83203125,617.1875,272.4609375,-40.0390625
-472.16796875,-753.90625,-977.05078125,-33.69140625
-352.05078125,-1000.0,-1000.0,-23.92578125
-94.7265625,-225.5859375,-60.05859375,-30.2734375
-84.47265625,999.51171875,999.51171875,-40.52734375
-379.39453125,667.96875,425.78125,-40.52734375
-667.96875,-714.84375,-895.01953125,-32.2265625
-589.84375,-1000.0,-1000.0,-27.83203125
-321.2890625,-205.078125,-184.08203125,-32.71484375
-294.43359375,999.51171875,999.51171875,-39.0625
-483.3984375,940.4296875,638.18359375,-39.55078125
-698.2421875,-331.0546875,-720.21484375,-37.109375
-628.90625,-1000.0,-1000.0,-34.1796875
-309.5703125,-155.2734375,-196.77734375,-41.9921875
-218.26171875,969.23828125,999.51171875,-60.05859375
-423.828125,999.51171875,864.2578125,-60.05859375
-636.71875,229.4921875,-420.8984375,-52.24609375
-578.125,-1000.0,-1000.0,-46.875
-218.26171875,-452.1484375,-211.9140625,-42.96875
-32.2265625,911.1328125,999.51171875,-47.36328125
-238.76953125,999.51171875,998.53515625,-48.33984375
-494.62890625,98.6328125,-168.45703125,-33.69140625
-487.79296875,-1000.0,-1000.0,-28.3203125
-225.09765625,-645.99609375,-317.3828125,-61.5234375
-54.6875,722.16796875,936.5234375,-83.0078125
-183.10546875,999.51171875,999.51171875,-75.1953125
-442.87109375,199.21875,51.26953125,-79.58984375
-508.30078125,-1000.0,-1000.0,-73.2421875
-250.48828125,-436.03515625,-426.7578125,-57.6171875
-19.04296875,889.6484375,886.23046875,-58.59375
-121.58203125,999.51171875,999.51171875,-63.4765625
-385.25390625,396.484375,166.50390625,-62.98828125
-460.44921875,-940.91796875,-1000.0,-48.33984375
-236.328125,-1000.0,-740.72265625,-51.7578125
10.25390625,117.1875,612.3046875,-66.40625
-19.53125,999.51171875,999.51171875,-62.5
-280.2734375,459.47265625,171.875,-62.01171875
-406.73828125,-905.76171875,-1000.0,-55.17578125
-201.66015625,-1000.0,-911.1328125,-43.45703125
76.66015625,80.078125,374.0234375,-41.50390625
74.70703125,999.51171875,999.51171875,-45.41015625
-188.96484375,428.7109375,206.0546875,-41.50390625
-350.5859375,-885.25390625,-1000.0,-33.203125
-206.0546875,-1000.0,-1000.0,-40.0390625
53.22265625,-179.19921875,79.58984375,-51.7578125
92.7734375,999.51171875,999.51171875,-51.7578125
-139.16015625,900.390625,355.46875,-52.24609375
-322.75390625,-385.7421875,-935.546875,-46.875
-195.3125,-1000.0,-1000.0,-33.69140625
100.09765625,-193.359375,-99.609375,-32.2265625
155.2734375,999.51171875,999.51171875,-33.69140625
-80.078125,936.03515625,529.296875,-34.1796875
-303.22265625,-332.03125,-814.94140625,-35.15625
-247.0703125,-1000.0,-1000.0,-39.0625
42.48046875,-188.4765625,-191.89453125,-36.1328125
171.875,999.51171875,999.51171875,-28.80859375
-17.08984375,970.703125,727.05078125,-34.1796875
-253.41796875,-242.1875,-619.140625,-46.875
-209.47265625,-1000.0,-1000.0,-45.41015625
77.1484375,-361.328125,-189.453125,-39.0625
201.171875,890.625,999.51171875,-44.43359375
34.1796875,999.51171875,969.23828125,-41.9921875
-211.42578125,199.70703125,-236.328125,-36.62109375
-235.3515625,-1000.0,-1000.0,-34.66796875
35.64453125,-253.90625,-214.35546875,-40.52734375
197.75390625,984.375,995.1171875,-61.03515625
44.921875,999.51171875,999.51171875,-64.453125
-204.58984375,208.49609375,-62.5,-50.78125
-258.7890625,-1000.0,-1000.0,-47.36328125
-3.41796875,-727.05078125,-381.8359375,-46.38671875
217.28515625,651.3671875,907.2265625,-47.8515625
121.09375,999.51171875,999.51171875,-49.31640625
-135.7421875,181.15234375,99.609375,-50.29296875
-213.8671875,-1000.0,-1000.0,-51.26953125
13.18359375,-782.2265625,-544.921875,-55.6640625
245.60546875,558.10546875,800.78125,-51.7578125
188.4765625,999.51171875,999.51171875,-41.015625
-104.98046875,581.0546875,185.05859375,-39.55078125
-295.41015625,-753.41796875,-1000.0,-28.3203125
-127.44140625,-1000.0,-834.9609375,-29.78515625
172.36328125,-34.66796875,494.140625,-35.64453125
159.66796875,999.51171875,999.51171875,-37.109375
-155.2734375,269.53125,166.9921875,-51.26953125
-321.2890625,-992.67578125,-1000.0,-47.36328125
-147.94921875,-1000.0,-977.05078125,-34.66796875
108.88671875,-106.4453125,254.8828125,-47.36328125
125.0,999.51171875,999.51171875,-49.31640625
-130.859375,480.95703125,240.234375,-37.59765625
-320.3125,-872.55859375,-997.0703125,-43.45703125
-180.17578125,-1000.0,-1000.0,-41.015625
111.81640625,-230.46875,11.23046875,-45.8984375
184.5703125,999.51171875,999.51171875,-61.5234375
-7.8125,605.46875,370.60546875,-54.6875
-184.08203125,-784.66796875,-925.29296875,-41.50390625
-162.59765625,-1000.0,-1000.0,-38.0859375
-3.90625,-194.82421875,-164.0625,-42.48046875
8.30078125,999.51171875,999.51171875,-46.875
-207.03125,971.19140625,627.44140625,-38.0859375
-390.625,-273.92578125,-730.95703125,-39.0625
-333.49609375,-1000.0,-1000.0,-45.41015625
-131.8359375,-181.640625,-191.89453125,-40.0390625
-56.640625,999.51171875,999.51171875,-38.0859375
-263.18359375,999.51171875,820.3125,-47.36328125
-520.01953125,-145.01953125,-492.67578125,-39.0625
-185.546875,-1000.0,-1000.0,-32.2265625
194.3359375,-357.421875,-201.66015625,-40.52734375
-166.015625,916.50390625,999.51171875,-34.1796875
-380.37109375,999.51171875,989.2578125,-40.52734375
-411.62109375,61.03515625,-194.3359375,-55.17578125
-225.09765625,-1000.0,-1000.0,-45.8984375
620.1171875,-282.71484375,-270.01953125,-39.0625
999.51171875,972.16796875,973.14453125,-41.9921875
936.5234375,999.51171875,999.51171875,-45.8984375
964.84375,174.8046875,-2.9296875,-45.41015625
970.703125,-1000.0,-1000.0,-47.8515625
927.734375,-663.0859375,-452.63671875,-43.45703125
999.51171875,738.28125,877.44140625,-43.45703125
672.8515625,999.51171875,999.51171875,-53.22265625
-405.76171875,140.13671875,133.30078125,-47.36328125
-970.703125,-1000.0,-1000.0,-35.15625
-1000.0,-1000.0,-679.6875,-35.15625
-789.0625,84.47265625,678.7109375,-38.0859375
-819.3359375,999.51171875,999.51171875,-47.36328125
-1000.0,130.37109375,164.0625,-57.12890625
-982.91015625,-1000.0,-1000.0,-49.31640625
-1000.0,-1000.0,-898.92578125,-48.33984375
-896.484375,-238.76953125,394.04296875,-46.875
-793.9453125,999.51171875,999.51171875,-36.62109375
-981.4453125,278.3203125,174.8046875,-37.59765625
-1000.0,-994.62890625,-1000.0,-38.57421875
-1000.0,-1000.0,-1000.0,-39.55078125
-763.18359375,-202.63671875,105.46875,-51.26953125
-575.68359375,999.51171875,999.51171875,-52.734375
-240.234375,998.046875,313.4765625,-47.8515625
680.6640625,-325.1953125,-972.65625,-43.9453125
999.51171875,-1000.0,-1000.0,-41.9921875
935.05859375,266.11328125,11.71875,-42.96875
967.28515625,999.51171875,999.51171875,-43.9453125
965.8203125,981.93359375,504.39453125,-50.78125
965.33203125,-105.95703125,-824.21875,-44.921875
965.33203125,-1000.0,-1000.0,-34.1796875
965.33203125,-186.5234375,-180.17578125,-36.62109375
965.33203125,999.51171875,999.51171875,-40.0390625
965.33203125,999.51171875,681.15234375,-48.828125
965.8203125,-125.48828125,-668.9453125,-54.6875
965.33203125,-1000.0,-1000.0,-43.45703125
965.33203125,-164.55078125,-191.40625,-30.76171875
972.65625,978.515625,999.51171875,-42.96875
927.734375,999.51171875,939.94140625,-49.31640625
999.51171875,220.703125,-297.36328125,-47.36328125
804.6875,-1000.0,-1000.0,-53.7109375
-129.39453125,-627.9296875,-213.37890625,-49.8046875
-83.984375,761.71875,997.0703125,-54.6875
789.55078125,999.51171875,999.51171875,-63.4765625
992.1875,172.8515625,-97.16796875,-52.734375
937.98828125,-1000.0,-1000.0,-40.0390625
967.7734375,-762.20703125,-368.1640625,-36.62109375
965.8203125,606.93359375,914.0625,-42.96875
965.33203125,999.51171875,999.51171875,-58.10546875
965.33203125,172.36328125,75.1953125,-62.5
965.8203125,-1000.0,-1000.0,-46.38671875
965.8203125,-871.09375,-535.15625,-41.015625
965.33203125,451.171875,809.5703125,-50.29296875
965.33203125,999.51171875,999.51171875,-53.22265625
965.33203125,230.95703125,170.41015625,-57.12890625
965.8203125,-1000.0,-1000.0,-57.12890625
965.33203125,-1000.0,-741.69921875,-51.26953125
965.33203125,254.8828125,611.81640625,-55.17578125
965.33203125,999.51171875,999.51171875,-57.12890625
965.33203125,244.62890625,162.59765625,-45.8984375
965.8203125,-1000.0,-1000.0,-34.1796875
965.33203125,-1000.0,-959.47265625,-46.38671875
965.33203125,59.5703125,291.015625,-65.91796875
965.33203125,999.51171875,999.51171875,-68.359375
965.33203125,438.96484375,219.23828125,-58.59375
965.33203125,-875.48828125,-1000.0,-56.15234375
965.33203125,-1000.0,-1000.0,-51.7578125
965.33203125,-214.84375,29.296875,-41.50390625
965.33203125,999.51171875,999.51171875,-33.69140625
965.33203125,841.796875,381.34765625,-43.9453125
965.8203125,-486.81640625,-924.31640625,-57.12890625
965.8203125,-1000.0,-1000.0,-56.15234375
965.33203125,-163.57421875,-115.72265625,-53.7109375
965.33203125,978.515625,999.51171875,-46.875
965.33203125,999.51171875,637.6953125,-41.9921875
965.33203125,66.89453125,-709.9609375,-28.3203125
965.33203125,-1000.0,-1000.0,-26.3671875
965.33203125,-255.859375,-190.4296875,-39.55078125
965.8203125,999.0234375,999.51171875,-44.921875
965.33203125,999.51171875,804.19921875,-50.78125
965.33203125,-45.41015625,-514.6484375,-51.7578125
965.33203125,-1000.0,-1000.0,-43.9453125
965.33203125,-473.14453125,-200.68359375,-37.109375
965.33203125,855.46875,999.51171875,-32.71484375
965.33203125,999.51171875,968.75,-38.0859375
965.33203125,124.51171875,-241.2109375,-44.43359375
965.8203125,-1000.0,-1000.0,-39.0625
966.30859375,-214.35546875,-222.16796875,-31.25
957.51953125,990.234375,982.421875,-33.69140625
983.3984375,999.51171875,999.51171875,-45.8984375
895.99609375,187.01171875,-8.30078125,-52.24609375
792.48046875,-1000.0,-1000.0,-40.52734375
925.29296875,-960.44921875,-445.3125,-24.90234375
963.37890625,312.98828125,870.1171875,-19.53125
988.76953125,999.51171875,999.51171875,-35.64453125
832.03125,159.66796875,127.9296875,-47.36328125
552.24609375,-1000.0,-1000.0,-49.31640625
769.04296875,-969.23828125,-648.4375,-47.36328125
970.703125,296.38671875,710.44921875,-40.52734375
990.234375,999.51171875,999.51171875,-46.38671875
757.32421875,182.6171875,169.43359375,-61.03515625
363.76953125,-1000.0,-1000.0,-57.6171875
565.91796875,-1000.0,-858.88671875,-36.1328125
918.9453125,26.3671875,458.0078125,-27.34375
993.65234375,999.51171875,999.51171875,-38.0859375
687.98828125,271.484375,173.828125,-49.31640625
248.046875,-997.55859375,-1000.0,-49.31640625
369.62890625,-1000.0,-998.53515625,-33.203125
810.05859375,26.85546875,206.54296875,-19.53125
974.12109375,999.51171875,999.51171875,-33.203125
629.8828125,812.5,319.3359375,-55.6640625
163.57421875,-462.890625,-947.265625,-61.03515625
199.21875,-1000.0,-1000.0,-44.43359375
675.78125,-228.515625,-86.42578125,-20.5078125
915.0390625,999.51171875,999.51171875,-19.04296875
564.453125,502.9296875,398.4375,-45.8984375
107.421875,-880.37109375,-919.921875,-49.8046875
126.953125,-1000.0,-1000.0,-26.85546875
595.21484375,-212.40234375,-168.9453125,-14.6484375
871.09375,999.51171875,999.51171875,-20.99609375
586.9140625,876.46484375,640.13671875,-41.9921875
112.3046875,-416.015625,-714.35546875,-50.78125
22.4609375,-1000.0,-1000.0,-47.8515625
449.70703125,-318.84765625,-201.66015625,-38.0859375
789.0625,943.84765625,999.51171875,-23.92578125
583.984375,999.51171875,853.515625,-24.90234375
83.984375,-83.0078125,-442.87109375,-51.7578125
-93.75,-1000.0,-1000.0,-61.5234375
312.5,-417.96875,-209.47265625,-38.0859375
692.3828125,875.9765625,997.55859375,-39.0625
542.48046875,999.51171875,999.51171875,-46.38671875
79.58984375,202.63671875,-123.53515625,-37.59765625
-147.94921875,-1000.0,-1000.0,-29.78515625
192.3828125,-641.6015625,-321.77734375,-19.53125
614.74609375,750.9765625,937.01171875,-20.5078125
524.4140625,999.51171875,999.51171875,-45.41015625
47.8515625,161.1328125,57.6171875,-55.6640625
-220.21484375,-1000.0,-1000.0,-45.41015625
78.125,-933.10546875,-535.64453125,-29.78515625
546.38671875,363.76953125,809.08203125,-12.6953125
541.9921875,999.51171875,999.51171875,-24.4140625
63.96484375,153.3203125,151.3671875,-45.41015625
-258.30078125,-1000.0,-1000.0,-45.41015625
-20.99609375,-996.09375,-712.40234375,-39.55078125
443.84765625,229.4921875,641.11328125,-31.73828125
508.30078125,999.51171875,999.51171875,-35.15625
98.6328125,663.0859375,169.921875,-46.38671875
-250.0,-647.94921875,-1000.0,-47.8515625
-87.890625,-1000.0,-959.47265625,-36.62109375
390.625,-144.53125,293.9453125,-24.90234375
531.73828125,999.51171875,999.51171875,-31.25
133.7890625,347.16796875,190.4296875,-41.015625
-257.32421875,-957.03125,-1000.0,-36.1328125
-145.99609375,-1000.0,-1000.0,-25.87890625
336.42578125,-224.609375,41.50390625,-10.7421875
555.6640625,999.51171875,999.51171875,-4.39453125
200.1953125,630.37109375,334.9609375,-27.34375
-242.1875,-767.578125,-952.63671875,-38.0859375
-191.89453125,-1000.0,-1000.0,-23.92578125
292.96875,-117.1875,-77.63671875,-9.27734375
543.45703125,999.51171875,999.51171875,-8.7890625
247.55859375,964.35546875,540.0390625,-26.3671875
-205.56640625,-252.9296875,-799.8046875,-41.50390625
-245.60546875,-1000.0,-1000.0,-33.203125
225.09765625,-189.94140625,-196.2890625,-13.18359375
532.2265625,999.51171875,999.51171875,-11.23046875
272.4609375,977.5390625,734.86328125,-26.85546875
-203.125,-243.65234375,-610.83984375,-33.69140625
-319.3359375,-1000.0,-1000.0,-29.296875
76.171875,-263.671875,-192.87109375,-13.18359375
386.71875,954.58984375,999.51171875,-12.6953125
187.5,999.51171875,944.3359375,-30.76171875
-282.71484375,39.0625,-284.1796875,-40.52734375
-463.37890625,-1000.0,-1000.0,-33.203125
-83.49609375,-570.3125,-255.859375,-16.6015625
287.109375,782.2265625,965.33203125,-18.06640625
143.5546875,999.51171875,999.51171875,-29.78515625
-337.40234375,192.87109375,-4.39453125,-50.78125
-636.71875,-1000.0,-1000.0,-41.9921875
-345.21484375,-725.09765625,-392.578125,-22.94921875
134.27734375,646.484375,905.2734375,-25.390625
105.46875,999.51171875,999.51171875,-40.52734375
-329.1015625,258.7890625,116.69921875,-58.59375
-581.54296875,-1000.0,-1000.0,-53.7109375
-260.25390625,-833.49609375,-566.89453125,-42.48046875
275.390625,540.0390625,790.0390625,-29.296875
362.3046875,999.51171875,999.51171875,-33.203125
-35.64453125,150.390625,158.203125,-54.19921875
-325.1953125,-1000.0,-1000.0,-54.6875
-98.14453125,-1000.0,-795.41015625,-34.1796875
345.703125,171.38671875,539.55078125,-32.71484375
429.6875,999.51171875,999.51171875,-47.36328125
-18.06640625,430.17578125,189.94140625,-62.5
-437.01171875,-1000.0,-1000.0,-62.98828125
-227.05078125,-809.5703125,-900.390625,-35.15625
270.5078125,601.07421875,396.484375,-19.53125
382.32421875,999.51171875,999.51171875,-32.71484375
35.15625,342.28515625,218.26171875,-47.36328125
-305.6640625,-905.2734375,-992.67578125,-41.015625
-150.390625,-1000.0,-1000.0,-25.87890625
372.55859375,-235.83984375,-42.96875,-24.90234375
645.01953125,999.51171875,999.51171875,-35.15625
361.328125,744.140625,386.71875,-48.828125
-55.6640625,-625.0,-922.36328125,-54.19921875
-25.390625,-1000.0,-1000.0,-47.8515625
464.84375,-166.50390625,-153.80859375,-41.50390625
764.16015625,978.02734375,999.51171875,-37.59765625
520.99609375,999.51171875,737.3046875,-36.1328125
56.640625,45.8984375,-600.09765625,-46.875
-27.83203125,-1000.0,-1000.0,-41.9921875
431.640625,-276.3671875,-199.70703125,-28.80859375
747.0703125,999.51171875,999.51171875,-43.45703125
520.5078125,999.51171875,815.91796875,-62.98828125
59.5703125,-137.6953125,-501.46484375,-64.453125
-72.265625,-1000.0,-1000.0,-50.29296875
346.6796875,-288.0859375,-200.1953125,-33.203125
715.33203125,930.6640625,999.51171875,-30.2734375
530.76171875,999.51171875,982.421875,-48.33984375
44.43359375,213.37890625,-192.87109375,-62.5
-176.26953125,-1000.0,-1000.0,-57.6171875
149.4140625,-728.515625,-319.3359375,-49.31640625
550.29296875,654.78515625,941.89453125,-43.9453125
452.1484375,999.51171875,999.51171875,-45.41015625
-46.38671875,161.62109375,5.37109375,-52.24609375
-321.2890625,-1000.0,-1000.0,-47.8515625
-13.671875,-870.1171875,-479.4921875,-36.62109375
449.70703125,458.984375,847.65625,-31.73828125
469.7265625,999.51171875,999.51171875,-41.015625
62.98828125,192.87109375,143.5546875,-59.08203125
-202.63671875,-1000.0,-1000.0,-62.01171875
52.734375,-564.94140625,-603.515625,-47.8515625
342.28515625,819.3359375,755.37109375,-42.96875
207.03125,999.51171875,999.51171875,-45.8984375
-280.2734375,148.92578125,166.9921875,-61.5234375
-697.75390625,-1000.0,-1000.0,-68.359375
-487.79296875,-1000.0,-907.71484375,-46.875
102.05078125,18.5546875,382.32421875,-27.83203125
340.33203125,999.51171875,999.51171875,-40.0390625
10.7421875,364.74609375,183.59375,-58.59375
-315.91796875,-928.22265625,-1000.0,-60.546875
-122.55859375,-1000.0,-1000.0,-47.36328125
399.4140625,-182.6171875,116.69921875,-29.296875
613.28125,999.51171875,999.51171875,-39.0625
257.32421875,636.71875,301.7578125,-56.640625
-171.38671875,-738.28125,-962.40234375,-51.7578125
-99.12109375,-1000.0,-1000.0,-31.25
391.6015625,-202.1484375,-87.890625,-19.04296875
644.04296875,999.51171875,999.51171875,-28.3203125
345.21484375,904.296875,486.328125,-46.875
-112.79296875,-393.5546875,-856.4453125,-64.453125
-137.6953125,-1000.0,-1000.0,-62.01171875
344.23828125,-143.06640625,-153.3203125,-44.43359375
643.5546875,999.51171875,999.51171875,-49.8046875
390.625,999.51171875,722.16796875,-61.03515625
-62.5,-43.45703125,-616.69921875,-52.24609375
-163.0859375,-1000.0,-1000.0,-57.6171875
256.34765625,-405.2734375,-198.73046875,-97.65625
600.09765625,936.03515625,999.51171875,-115.234375
406.73828125,999.51171875,876.46484375,-112.3046875
-72.265625,-139.6484375,-402.83203125,-112.3046875
-240.72265625,-1000.0,-1000.0,-101.5625
169.921875,-394.53125,-216.30859375,-88.8671875
564.94140625,883.7890625,987.79296875,-86.42578125
418.45703125,999.51171875,999.51171875,-97.16796875
-62.98828125,199.21875,-74.70703125,-91.30859375
-304.19921875,-1000.0,-1000.0,-72.265625
46.38671875,-375.9765625,-307.6171875,-68.84765625
468.75,935.05859375,945.80078125,-63.96484375
370.1171875,999.51171875,999.51171875,-64.453125
-115.72265625,166.9921875,71.77734375,-66.40625
-395.01953125,-1000.0,-1000.0,-56.640625
-102.05078125,-982.421875,-565.4296875,-53.22265625
359.86328125,275.390625,783.69140625,-62.5
373.53515625,999.51171875,999.51171875,-64.453125
-72.265625,153.80859375,149.4140625,-50.78125
-385.7421875,-1000.0,-1000.0,-43.45703125
-150.390625,-1000.0,-758.30078125,-25.87890625
314.94140625,208.0078125,587.890625,-25.390625
410.15625,999.51171875,999.51171875,-35.15625
2.9296875,321.77734375,170.41015625,-35.15625
-378.41796875,-948.73046875,-1000.0,-34.66796875
-223.14453125,-1000.0,-951.171875,-29.78515625
260.7421875,-74.70703125,302.24609375,-25.87890625
425.78125,999.51171875,999.51171875,-30.2734375
39.0625,446.77734375,224.12109375,-40.0390625
-372.0703125,-898.4375,-1000.0,-35.15625
-258.7890625,-1000.0,-1000.0,-27.34375
237.3046875,-116.2109375,58.10546875,-22.94921875
453.125,999.51171875,999.51171875,-26.3671875
128.90625,999.51171875,388.671875,-38.57421875
-300.78125,-137.20703125,-912.59765625,-37.109375
-289.55078125,-1000.0,-1000.0,-26.3671875
191.89453125,-206.0546875,-136.71875,-14.16015625
468.26171875,999.51171875,999.51171875,-16.6015625
187.5,900.87890625,569.82421875,-25.87890625
-265.13671875,-390.625,-782.2265625,-34.66796875
-316.89453125,-1000.0,-1000.0,-34.1796875
137.6953125,-188.4765625,-193.359375,-32.71484375
457.03125,990.72265625,999.51171875,-35.15625
236.328125,999.51171875,809.5703125,-43.45703125
-227.5390625,-61.5234375,-510.7421875,-50.78125
-349.609375,-1000.0,-1000.0,-41.50390625
96.6796875,-187.5,-190.4296875,-26.3671875
458.0078125,999.51171875,999.51171875,-24.4140625
273.92578125,999.51171875,936.03515625,-42.48046875
-184.08203125,-47.36328125,-298.33984375,-50.29296875
-363.76953125,-1000.0,-1000.0,-38.0859375
23.4375,-439.94140625,-259.27734375,-26.85546875
446.2890625,865.72265625,963.8671875,-16.6015625
333.984375,999.51171875,999.51171875,-28.3203125
-144.53125,190.91796875,-7.32421875,-45.8984375
-382.32421875,-1000.0,-1000.0,-39.0625
-47.8515625,-784.66796875,-420.8984375,-25.87890625
408.203125,568.84765625,883.30078125,-20.01953125
384.27734375,999.51171875,999.51171875,-28.3203125
-77.63671875,237.79296875,160.15625,-40.52734375
-387.6953125,-990.234375,-1000.0,-41.015625
-148.92578125,-1000.0,-675.29296875,-31.25
270.01953125,38.57421875,686.03515625,-19.04296875
243.1640625,999.51171875,999.51171875,-30.2734375
-193.84765625,224.609375,169.43359375,-42.48046875
-675.29296875,-1000.0,-1000.0,-42.48046875
-970.21484375,-1000.0,-840.8203125,-35.64453125
-999.51171875,-51.7578125,481.4453125,-28.80859375
-993.1640625,999.51171875,999.51171875,-41.50390625
-1000.0,291.015625,180.6640625,-57.6171875
-1000.0,-1000.0,-1000.0,-56.15234375
-1000.0,-1000.0,-980.46875,-40.0390625
-1000.0,41.015625,251.953125,-26.3671875
-1000.0,999.51171875,999.51171875,-20.99609375
-1000.0,383.30078125,250.9765625,-35.64453125
-998.046875,-910.15625,-981.93359375,-57.12890625
-1000.0,-1000.0,-1000.0,-53.7109375
-980.46875,-237.79296875,-54.6875,-40.0390625
-965.33203125,999.51171875,999.51171875,-45.41015625
-1000.0,690.91796875,419.921875,-62.5
-1000.0,-691.40625,-900.87890625,-60.05859375
-999.0234375,-1000.0,-1000.0,-39.55078125
-1000.0,-195.3125,-157.2265625,-24.4140625
-1000.0,999.51171875,999.51171875,-24.4140625
-1000.0,850.09765625,622.0703125,-30.76171875
-1000.0,-462.40234375,-732.421875,-41.50390625
-1000.0,-1000.0,-1000.0,-37.59765625
-1000.0,-250.48828125,-198.73046875,-29.296875
-1000.0,961.9140625,999.51171875,-30.76171875
-1000.0,999.51171875,868.1640625,-37.109375
-1000.0,-28.3203125,-418.9453125,-55.17578125
-1000.0,-1000.0,-1000.0,-60.05859375
-1000.0,-471.6796875,-213.37890625,-47.8515625
-1000.0,849.609375,994.62890625,-43.45703125
-1000.0,999.51171875,999.51171875,-45.8984375
-1000.0,206.0546875,-109.86328125,-54.19921875
-1000.0,-1000.0,-1000.0,-43.9453125
-1000.0,-617.1875,-318.359375,-21.484375
-1000.0,767.578125,937.01171875,-18.06640625
-1000.0,999.51171875,999.51171875,-34.1796875
-1000.0,229.98046875,76.66015625,-53.7109375
-1000.0,-1000.0,-1000.0,-58.59375
-1000.0,-966.30859375,-533.203125,-41.9921875
-1000.0,329.58984375,813.96484375,-26.85546875
-1000.0,999.51171875,999.51171875,-38.57421875
-1000.0,145.5078125,149.90234375,-50.29296875
-1000.0,-1000.0,-1000.0,-39.0625
-1000.0,-1000.0,-766.6015625,-20.01953125
-1000.0,-4.8828125,578.61328125,-13.18359375
-1000.0,999.51171875,999.51171875,-26.3671875
-1000.0,250.48828125,161.1328125,-41.9921875
-1000.0,-1000.0,-1000.0,-49.8046875
-1000.0,-1000.0,-925.29296875,-41.50390625
-1000.0,-8.7890625,341.796875,-24.90234375
-1000.0,999.51171875,999.51171875,-36.1328125
-1000.0,765.625,237.79296875,-52.734375
-991.2109375,-548.828125,-1000.0,-51.7578125
-1000.0,-1000.0,-1000.0,-38.0859375
-870.1171875,-159.66796875,76.66015625,-20.99609375
-812.01171875,999.51171875,999.51171875,-12.20703125
-1000.0,492.1875,301.7578125,-31.25
-1000.0,-877.9296875,-959.9609375,-48.33984375
-994.62890625,-1000.0,-1000.0,-39.55078125
-1000.0,-216.796875,-128.41796875,-33.203125
-1000.0,999.51171875,999.51171875,-33.69140625
-1000.0,840.8203125,501.953125,-51.26953125
-1000.0,-485.3515625,-842.28515625,-63.4765625
-1000.0,-1000.0,-1000.0,-46.38671875
-1000.0,-185.546875,-192.87109375,-28.3203125
-1000.0,954.58984375,999.51171875,-32.2265625
-1000.0,999.51171875,822.75390625,-45.41015625
-1000.0,220.21484375,-490.72265625,-54.6875
-1000.0,-1000.0,-1000.0,-52.24609375
-1000.0,-498.53515625,-196.2890625,-32.2265625
-1000.0,891.6015625,999.51171875,-20.5078125
-1000.0,999.51171875,928.7109375,-31.25
-1000.0,35.64453125,-315.4296875,-48.33984375
-1000.0,-1000.0,-1000.0,-34.66796875
-1000.0,-503.41796875,-246.58203125,-14.6484375
-1000.0,843.75,977.05078125,-24.90234375
-1000.0,999.51171875,999.51171875,-41.015625
-996.58203125,181.15234375,-63.4765625,-53.22265625
-995.1171875,-1000.0,-1000.0,-54.19921875
-1000.0,-736.328125,-385.25390625,-43.9453125
-793.45703125,634.765625,900.390625,-32.2265625
-543.9453125,999.51171875,999.51171875,-16.6015625
-640.13671875,209.47265625,126.46484375,-19.53125
-712.40234375,-1000.0,-1000.0,-51.7578125
-293.9453125,-780.76171875,-596.19140625,-58.59375
111.81640625,595.21484375,764.16015625,-45.41015625
-71.2890625,999.51171875,999.51171875,-56.15234375
-550.29296875,161.62109375,155.76171875,-84.47265625
-796.38671875,-1000.0,-1000.0,-82.51953125
-549.31640625,-966.796875,-806.15234375,-68.359375
-105.46875,283.69140625,528.80859375,-65.4296875
-5.859375,999.51171875,999.51171875,-61.5234375
-379.39453125,322.75390625,167.48046875,-72.265625
-666.015625,-950.1953125,-1000.0,-65.91796875
-452.1484375,-1000.0,-980.95703125,-46.38671875
15.13671875,-25.390625,242.67578125,-37.59765625
148.92578125,999.51171875,999.51171875,-43.9453125
-205.56640625,630.859375,267.08984375,-53.7109375
-517.578125,-741.2109375,-991.69921875,-50.29296875
-311.03515625,-1000.0,-1000.0,-30.76171875
205.56640625,-3.90625,41.9921875,-16.6015625
366.2109375,999.51171875,999.51171875,-26.85546875
62.98828125,976.07421875,454.1015625,-43.9453125
-268.5546875,-183.59375,-866.69921875,-58.59375
-199.21875,-1000.0,-1000.0,-55.6640625
233.88671875,-210.9375,-154.78515625,-25.87890625
403.80859375,999.51171875,999.51171875,-22.4609375
87.890625,843.75,586.9140625,-41.015625
-264.16015625,-484.86328125,-769.53125,-41.50390625
-187.98828125,-1000.0,-1000.0,-33.203125
301.26953125,-165.0390625,-198.73046875,-30.76171875
663.0859375,980.46875,999.51171875,-35.15625
476.5625,999.51171875,863.76953125,-44.43359375
103.02734375,45.41015625,-431.640625,-57.6171875
101.5625,-1000.0,-1000.0,-51.26953125
497.55859375,-200.1953125,-190.91796875,-41.50390625
739.2578125,999.51171875,999.51171875,-40.52734375
521.484375,999.51171875,967.28515625,-50.29296875
151.85546875,13.671875,-226.5625,-53.7109375
-35.64453125,-1000.0,-1000.0,-46.38671875
210.9375,-608.3984375,-301.26953125,-42.48046875
782.2265625,739.74609375,944.82421875,-35.64453125
976.5625,999.51171875,999.51171875,-47.8515625
900.87890625,177.734375,22.4609375,-64.453125
999.51171875,-1000.0,-1000.0,-56.640625
25.87890625,-868.1640625,-425.29296875,-42.48046875
-1000.0,462.890625,885.25390625,-31.25
-981.93359375,999.51171875,999.51171875,-38.0859375
-876.46484375,127.44140625,157.2265625,-51.26953125
-873.53515625,-1000.0,-1000.0,-54.6875
-1000.0,-1000.0,-705.078125,-45.41015625
-881.34765625,-132.32421875,653.3203125,-35.15625
-632.32421875,999.51171875,999.51171875,-42.96875
-770.5078125,164.0625,159.66796875,-59.5703125
-1000.0,-1000.0,-1000.0,-57.12890625
-965.33203125,-1000.0,-912.59765625,-41.50390625
-1000.0,-111.81640625,366.2109375,-25.390625
-735.83984375,999.51171875,999.51171875,-26.85546875
337.890625,981.4453125,218.26171875,-48.828125
-38.57421875,-209.9609375,-1000.0,-56.15234375
-1000.0,-1000.0,-1000.0,-38.0859375
-997.0703125,-211.42578125,79.1015625,-23.92578125
-975.5859375,999.51171875,999.51171875,-36.62109375
-1000.0,592.28515625,295.8984375,-53.22265625
-1000.0,-794.921875,-964.84375,-56.640625
-982.91015625,-1000.0,-1000.0,-42.48046875
-1000.0,-190.4296875,-109.86328125,-28.80859375
-924.8046875,999.51171875,999.51171875,-37.109375
-277.83203125,997.55859375,490.234375,-54.6875
-270.01953125,-208.49609375,-857.421875,-70.80078125
-956.54296875,-1000.0,-1000.0,-61.03515625
-946.77734375,-176.26953125,-154.296875,-41.50390625
-817.87109375,999.51171875,999.51171875,-35.64453125
-628.41796875,999.51171875,734.375,-40.0390625
-104.98046875,-36.62109375,-603.02734375,-53.22265625
-359.375,-1000.0,-1000.0,-49.8046875
-1000.0,-214.35546875,-191.89453125,-34.66796875
-1000.0,991.69921875,999.51171875,-39.0625
-982.421875,999.51171875,924.8046875,-55.17578125
-1000.0,32.71484375,-323.73046875,-64.453125
-1000.0,-1000.0,-1000.0,-54.6875
-1000.0,-490.72265625,-229.98046875,-33.69140625
-1000.0,851.5625,989.74609375,-23.4375
-1000.0,999.51171875,999.51171875,-27.83203125
-1000.0,141.6015625,-98.14453125,-39.0625
-1000.0,-1000.0,-1000.0,-44.921875
-1000.0,-831.54296875,-363.28125,-28.3203125
-1000.0,503.90625,916.015625,-24.4140625
-1000.0,999.51171875,999.51171875,-45.41015625
-1000.0,180.6640625,76.66015625,-52.24609375
-1000.0,-1000.0,-1000.0,-43.45703125
-1000.0,-764.6484375,-514.16015625,-20.01953125
-1000.0,578.61328125,822.75390625,-9.27734375
-1000.0,999.51171875,999.51171875,-16.6015625
-1000.0,496.58203125,172.36328125,-33.69140625
-1000.0,-831.0546875,-1000.0,-49.31640625
-1000.0,-1000.0,-813.4765625,-43.9453125
-1000.0,-34.1796875,521.97265625,-31.73828125
-1000.0,999.51171875,999.51171875,-27.34375
-993.65234375,202.1484375,155.2734375,-33.69140625
-1000.0,-1000.0,-1000.0,-49.31640625
-984.375,-1000.0,-995.1171875,-46.38671875
-752.9296875,-209.47265625,217.7734375,-31.73828125
-674.31640625,999.51171875,999.51171875,-37.109375
-888.18359375,491.2109375,222.16796875,-42.48046875
-1000.0,-903.80859375,-1000.0,-48.33984375
-928.7109375,-1000.0,-1000.0,-43.9453125
-599.609375,-56.640625,57.6171875,-30.2734375
-445.3125,999.51171875,999.51171875,-33.69140625
-715.8203125,703.61328125,357.91015625,-55.6640625
-953.125,-633.30078125,-929.6875,-57.6171875
-779.78515625,-1000.0,-1000.0,-44.921875
-400.87890625,-193.84765625,-146.484375,-40.0390625
-288.57421875,999.51171875,999.51171875,-28.3203125
-560.546875,946.2890625,576.171875,-41.015625
-791.9921875,-317.3828125,-776.85546875,-64.94140625
-712.890625,-1000.0,-1000.0,-54.6875
-432.6171875,-179.6875,-193.84765625,-34.66796875
-292.96875,999.51171875,999.51171875,-33.203125
-458.984375,999.51171875,792.96875,-47.8515625
-671.875,-135.7421875,-532.2265625,-53.22265625
-619.62890625,-1000.0,-1000.0,-41.015625
-293.9453125,-291.015625,-194.82421875,-31.73828125
-89.35546875,933.10546875,999.51171875,-34.66796875
-261.23046875,999.51171875,976.5625,-42.48046875
-530.76171875,183.10546875,-214.84375,-41.50390625
-496.58203125,-1000.0,-1000.0,-36.62109375
-163.0859375,-508.30078125,-270.99609375,-31.25
84.9609375,855.46875,958.49609375,-28.3203125
6.34765625,999.51171875,999.51171875,-46.38671875
-225.09765625,244.62890625,29.78515625,-71.2890625
-169.921875,-1000.0,-1000.0,-64.453125
349.609375,-708.984375,-440.4296875,-41.9921875
823.73046875,683.10546875,879.8828125,-41.50390625
913.57421875,999.51171875,999.51171875,-56.15234375
942.3828125,215.33203125,134.27734375,-62.01171875
970.703125,-1000.0,-1000.0,-62.98828125
963.37890625,-842.28515625,-633.30078125,-48.828125
965.8203125,506.8359375,727.5390625,-32.71484375
965.33203125,999.51171875,999.51171875,-47.36328125
965.33203125,247.55859375,174.31640625,-70.3125
967.28515625,-1000.0,-1000.0,-64.453125
955.078125,-700.1953125,-782.71484375,-45.8984375
965.8203125,695.80078125,563.4765625,-33.203125
901.85546875,999.51171875,999.51171875,-42.96875
421.38671875,159.66796875,165.0390625,-71.2890625
-101.5625,-981.4453125,-1000.0,-66.89453125
-276.85546875,-1000.0,-1000.0,-46.38671875
-443.84765625,-262.20703125,143.06640625,-42.48046875
-800.78125,999.51171875,999.51171875,-39.0625
-1000.0,335.44921875,269.04296875,-55.17578125
-991.2109375,-971.19140625,-980.46875,-58.59375
-998.046875,-1000.0,-1000.0,-38.0859375
-1000.0,-244.62890625,-55.17578125,-27.83203125
-1000.0,999.51171875,999.51171875,-31.25
-1000.0,682.12890625,463.8671875,-48.33984375
-998.53515625,-685.05859375,-866.2109375,-61.03515625
-1000.0,-1000.0,-1000.0,-51.7578125
-991.69921875,-309.5703125,-186.5234375,-37.109375
-973.6328125,983.88671875,999.51171875,-40.0390625
-984.375,977.05078125,678.22265625,-55.17578125
-1000.0,-297.8515625,-674.8046875,-59.5703125
-875.0,-1000.0,-1000.0,-42.48046875
-408.203125,-224.609375,-198.2421875,-28.80859375
-186.03515625,963.8671875,999.51171875,-33.69140625
-508.30078125,999.51171875,877.9296875,-52.734375
-899.4140625,77.63671875,-402.34375,-62.01171875
-1000.0,-1000.0,-1000.0,-50.29296875
-827.1484375,-492.67578125,-214.35546875,-34.66796875
-670.41015625,887.6953125,999.51171875,-33.69140625
-776.3671875,999.51171875,989.2578125,-42.48046875
-916.015625,-48.33984375,-189.94140625,-49.31640625
-883.7890625,-1000.0,-1000.0,-46.875
-677.734375,-506.8359375,-317.87109375,-21.97265625
-542.96875,828.125,931.15234375,-14.16015625
-671.38671875,999.51171875,999.51171875,-46.875
-904.296875,203.61328125,79.1015625,-72.75390625
-874.0234375,-1000.0,-1000.0,-70.3125
-328.61328125,-354.00390625,-438.96484375,-63.96484375
313.96484375,930.17578125,886.23046875,-56.15234375
474.12109375,999.51171875,999.51171875,-62.01171875
228.02734375,466.796875,149.4140625,-81.0546875
293.9453125,-1000.0,-1000.0,-76.171875
818.84765625,-812.5,-709.47265625,-55.17578125
982.91015625,618.65234375,643.5546875,-49.8046875
968.75,999.51171875,999.51171875,-63.4765625
763.18359375,198.2421875,160.15625,-77.1484375
602.5390625,-1000.0,-1000.0,-74.21875
623.53515625,-1000.0,-947.75390625,-50.29296875
805.6640625,4.8828125,309.5703125,-31.25
971.19140625,999.51171875,999.51171875,-36.62109375
307.6171875,373.53515625,214.35546875,-53.7109375
-476.5625,-920.8984375,-1000.0,-58.10546875
-717.28515625,-1000.0,-1000.0,-41.50390625
-753.90625,-219.23828125,98.14453125,-31.25
-856.93359375,999.51171875,999.51171875,-41.50390625
-984.375,692.3828125,371.09375,-57.6171875
-1000.0,-684.5703125,-922.8515625,-59.08203125
-939.453125,-1000.0,-1000.0,-44.921875
-700.1953125,-166.015625,-121.09375,-35.15625
-568.84765625,973.6328125,999.51171875,-38.57421875
-770.5078125,999.51171875,576.66015625,-49.31640625
-581.0546875,72.75390625,-775.390625,-62.01171875
503.41796875,-1000.0,-1000.0,-53.22265625
999.51171875,-187.01171875,-186.03515625,-28.80859375
930.17578125,995.1171875,999.51171875,-29.296875
962.890625,999.51171875,796.875,-52.24609375
967.28515625,173.828125,-524.4140625,-62.01171875
965.8203125,-1000.0,-1000.0,-49.8046875
965.8203125,-250.0,-188.96484375,-28.3203125
965.33203125,981.93359375,999.51171875,-19.04296875
965.33203125,999.51171875,964.35546875,-33.203125
965.33203125,201.66015625,-243.65234375,-43.9453125
965.8203125,-1000.0,-1000.0,-42.96875
965.33203125,-280.76171875,-234.86328125,-37.109375
965.33203125,972.16796875,982.421875,-36.1328125
965.33203125,999.51171875,999.51171875,-40.0390625
965.33203125,214.84375,-41.9921875,-45.41015625
965.8203125,-1000.0,-1000.0,-48.828125
965.8203125,-754.8828125,-404.296875,-31.73828125
965.33203125,619.62890625,895.01953125,-19.04296875
965.33203125,999.51171875,999.51171875,-41.9921875
965.33203125,171.875,113.28125,-55.6640625
965.8203125,-1000.0,-1000.0,-50.78125
965.8203125,-868.65234375,-591.796875,-39.0625
965.33203125,435.05859375,761.71875,-25.87890625
967.7734375,999.51171875,999.51171875,-37.109375
957.03125,520.99609375,175.78125,-52.734375
944.82421875,-788.0859375,-1000.0,-39.0625
941.40625,-1000.0,-834.47265625,-23.92578125
243.1640625,-161.62109375,490.234375,-24.4140625
-821.2890625,999.51171875,999.51171875,-34.1796875
-1000.0,161.62109375,169.921875,-56.640625
-969.23828125,-1000.0,-1000.0,-63.4765625
-971.19140625,-1000.0,-1000.0,-50.78125
-391.6015625,-257.32421875,194.3359375,-34.66796875
140.13671875,999.51171875,999.51171875,-36.62109375
54.6875,600.09765625,256.34765625,-53.7109375
-135.25390625,-793.45703125,-989.2578125,-62.98828125
-28.3203125,-1000.0,-1000.0,-44.43359375
367.1875,-208.0078125,-12.6953125,-10.7421875
490.234375,999.51171875,999.51171875,-3.41796875
43.9453125,558.59375,380.859375,-38.0859375
-417.96875,-824.70703125,-921.875,-66.40625
-490.72265625,-1000.0,-1000.0,-55.17578125
-248.53515625,-201.171875,-168.9453125,-38.0859375
-239.74609375,999.51171875,999.51171875,-39.0625
-579.1015625,944.82421875,634.27734375,-59.08203125
-894.04296875,-320.3125,-722.16796875,-70.80078125
-1000.0,-1000.0,-1000.0,-56.15234375
-730.95703125,-184.5703125,-190.91796875,-36.1328125
-532.2265625,999.51171875,999.51171875,-36.1328125
-788.0859375,992.67578125,841.796875,-50.78125
-1000.0,-195.3125,-460.44921875,-59.08203125
-895.5078125,-1000.0,-1000.0,-49.8046875
-338.37890625,-349.609375,-207.03125,-25.390625
161.62109375,911.62109375,999.51171875,-21.97265625
93.26171875,999.51171875,980.46875,-45.41015625
-266.6015625,104.00390625,-201.66015625,-63.96484375
-390.13671875,-1000.0,-1000.0,-53.22265625
-32.2265625,-600.5859375,-312.01171875,-32.2265625
306.15234375,767.08984375,932.6171875,-39.0625
198.2421875,999.51171875,999.51171875,-47.36328125
-125.9765625,176.26953125,81.54296875,-45.8984375
-224.609375,-1000.0,-1000.0,-47.36328125
101.5625,-891.6015625,-510.7421875,-43.9453125
459.47265625,431.15234375,833.49609375,-42.96875
403.3203125,999.51171875,999.51171875,-53.7109375
-72.75390625,160.64453125,143.06640625,-63.96484375
-397.94921875,-1000.0,-1000.0,-67.87109375
-164.55078125,-951.171875,-690.91796875,-46.875
140.625,316.89453125,666.50390625,-30.76171875
-31.73828125,999.51171875,999.51171875,-42.96875
-436.5234375,270.01953125,166.50390625,-57.12890625
-684.5703125,-971.6796875,-1000.0,-60.546875
-537.109375,-1000.0,-902.34375,-55.6640625
-296.875,-35.64453125,389.6484375,-46.875
-389.6484375,999.51171875,999.51171875,-47.8515625
-730.46875,188.96484375,172.36328125,-62.5
-1000.0,-1000.0,-1000.0,-61.5234375
-925.78125,-1000.0,-1000.0,-50.29296875
-523.92578125,-247.55859375,78.125,-43.9453125
-323.2421875,999.51171875,999.51171875,-47.8515625
-548.33984375,536.1328125,292.48046875,-60.05859375
-776.85546875,-855.46875,-970.21484375,-62.98828125
-637.20703125,-1000.0,-1000.0,-42.96875
-188.96484375,-178.7109375,-85.44921875,-25.390625
-27.34375,999.51171875,999.51171875,-24.4140625
-329.58984375,679.19921875,471.19140625,-46.875
-713.8671875,-689.94140625,-861.81640625,-68.359375
-661.1328125,-1000.0,-1000.0,-45.8984375
-214.84375,-202.1484375,-201.66015625,-25.87890625
-18.06640625,999.51171875,999.51171875,-28.3203125
-305.6640625,999.51171875,722.65625,-42.48046875
-723.6328125,-184.5703125,-625.9765625,-53.7109375
-746.09375,-1000.0,-1000.0,-42.48046875
-358.3984375,-241.2109375,-189.94140625,-26.3671875
-142.08984375,945.80078125,999.51171875,-18.06640625
-320.3125,999.51171875,965.8203125,-37.59765625
-573.2421875,209.9609375,-245.1171875,-62.01171875
-583.0078125,-1000.0,-1000.0,-52.734375
-208.49609375,-215.8203125,-211.9140625,-29.78515625
95.703125,999.51171875,999.51171875,-24.90234375
-85.9375,999.51171875,999.51171875,-45.8984375
-517.578125,143.06640625,-87.890625,-67.87109375
-665.52734375,-1000.0,-1000.0,-59.5703125
-322.265625,-611.328125,-359.375,-36.1328125
4.39453125,761.71875,916.015625,-27.83203125
-102.5390625,999.51171875,999.51171875,-45.8984375
-520.5078125,183.59375,95.21484375,-66.89453125
-716.30859375,-1000.0,-1000.0,-62.5
-420.41015625,-815.91796875,-537.59765625,-42.96875
-39.0625,538.57421875,809.08203125,-35.64453125
-55.6640625,999.51171875,999.51171875,-52.24609375
-462.890625,150.87890625,163.0859375,-71.2890625
-729.4921875,-1000.0,-1000.0,-65.91796875
-418.9453125,-1000.0,-770.5078125,-43.45703125
88.37890625,179.6875,573.2421875,-24.90234375
132.8125,999.51171875,999.51171875,-35.64453125
-220.703125,282.71484375,164.55078125,-61.03515625
-493.65234375,-981.4453125,-1000.0,-62.01171875
-360.83984375,-1000.0,-976.07421875,-43.9453125
33.69140625,15.13671875,261.23046875,-35.64453125
142.578125,999.51171875,999.51171875,-41.9921875
-188.96484375,271.484375,202.63671875,-54.6875
-508.7890625,-967.7734375,-1000.0,-56.15234375
-385.25390625,-1000.0,-1000.0,-44.921875
54.19921875,-208.0078125,-8.7890625,-33.69140625
203.61328125,999.51171875,999.51171875,-30.2734375
19.53125,906.73828125,398.4375,-46.875
-193.359375,-386.71875,-915.0390625,-56.640625
-28.80859375,-1000.0,-1000.0,-37.109375
494.140625,-117.1875,-117.67578125,-28.80859375
818.84765625,979.4921875,999.51171875,-42.48046875
679.6875,999.51171875,674.8046875,-58.10546875
287.109375,200.1953125,-665.52734375,-65.91796875
186.5234375,-1000.0,-1000.0,-54.6875
526.3671875,-334.9609375,-203.125,-43.45703125
648.92578125,996.09375,999.51171875,-55.17578125
302.24609375,999.51171875,822.265625,-70.80078125
-106.4453125,-120.60546875,-493.65234375,-70.80078125
-210.44921875,-1000.0,-1000.0,-54.6875
201.66015625,-379.39453125,-200.1953125,-41.9921875
562.5,894.04296875,999.51171875,-46.875
437.98828125,999.51171875,994.62890625,-68.359375
186.03515625,170.8984375,-185.546875,-72.75390625
234.86328125,-1000.0,-1000.0,-56.15234375
700.68359375,-199.21875,-238.28125,-35.15625
981.93359375,999.51171875,977.05078125,-35.15625
952.1484375,999.51171875,999.51171875,-53.7109375
663.57421875,210.44921875,6.8359375,-65.4296875
494.62890625,-1000.0,-1000.0,-67.87109375
817.3828125,-827.63671875,-466.796875,-49.31640625
979.4921875,521.484375,855.95703125,-35.15625
971.19140625,999.51171875,999.51171875,-45.41015625
904.78515625,185.05859375,138.18359375,-63.96484375
850.5859375,-1000.0,-1000.0,-65.91796875
960.44921875,-722.65625,-636.71875,-40.52734375
967.7734375,655.2734375,726.5625,-16.11328125
967.7734375,999.51171875,999.51171875,-22.4609375
946.77734375,167.96875,160.15625,-52.24609375
921.38671875,-995.1171875,-1000.0,-60.546875
965.8203125,-1000.0,-916.9921875,-49.8046875
962.40234375,-120.1171875,363.76953125,-41.50390625
960.9375,999.51171875,999.51171875,-44.43359375
947.265625,442.87109375,182.6171875,-62.98828125
675.29296875,-899.4140625,-1000.0,-64.453125
383.30078125,-1000.0,-1000.0,-38.0859375
479.00390625,-192.87109375,138.18359375,-20.99609375
408.69140625,999.51171875,999.51171875,-33.69140625
11.23046875,764.16015625,336.9140625,-55.6640625
-369.140625,-586.9140625,-943.84765625,-55.17578125
-430.17578125,-1000.0,-1000.0,-46.38671875
-75.68359375,-224.609375,-77.1484375,-34.1796875
126.46484375,999.51171875,999.51171875,-38.57421875
-171.875,616.69921875,454.58984375,-61.03515625
-478.515625,-774.90234375,-875.0,-69.3359375
-291.50390625,-1000.0,-1000.0,-55.17578125
112.3046875,-203.61328125,-180.17578125,-37.109375
302.734375,999.51171875,999.51171875,-36.62109375
-46.38671875,933.10546875,683.10546875,-43.9453125
-548.33984375,-335.44921875,-666.015625,-49.8046875
-680.6640625,-1000.0,-1000.0,-49.8046875
-237.3046875,-220.21484375,-196.77734375,-32.71484375
177.24609375,988.76953125,999.51171875,-28.3203125
-48.828125,999.51171875,884.765625,-36.62109375
-565.4296875,-93.26171875,-389.16015625,-42.48046875
-839.35546875,-1000.0,-1000.0,-44.43359375
-540.52734375,-500.0,-232.421875,-29.296875
-164.55078125,865.72265625,997.0703125,-23.4375
-623.046875,999.51171875,999.51171875,-46.875
-1000.0,-94.7265625,-158.203125,-57.6171875
-981.4453125,-1000.0,-1000.0,-47.36328125
-995.60546875,-808.10546875,-362.3046875,-35.64453125
-1000.0,483.3984375,913.57421875,-23.4375
-1000.0,999.51171875,999.51171875,-26.85546875
-1000.0,150.87890625,64.94140625,-48.828125
-1000.0,-1000.0,-1000.0,-49.8046875
-1000.0,-969.23828125,-541.9921875,-31.25
-1000.0,300.29296875,804.6875,-31.73828125
-1000.0,999.51171875,999.51171875,-43.45703125
-1000.0,140.625,151.85546875,-56.640625
-1000.0,-1000.0,-1000.0,-53.22265625
-1000.0,-1000.0,-773.4375,-34.66796875
-1000.0,40.52734375,568.359375,-20.99609375
-1000.0,999.51171875,999.51171875,-33.203125
-1000.0,662.59765625,175.29296875,-54.6875
-1000.0,-698.73046875,-1000.0,-55.17578125
-1000.0,-1000.0,-946.2890625,-40.52734375
-1000.0,3.90625,315.91796875,-23.4375
-1000.0,999.51171875,999.51171875,-29.78515625
-1000.0,393.06640625,211.42578125,-61.03515625
-1000.0,-912.109375,-1000.0,-63.96484375
-1000.0,-1000.0,-1000.0,-42.96875
-1000.0,-242.67578125,20.99609375,-32.2265625
-1000.0,999.51171875,999.51171875,-31.73828125
-1000.0,571.2890625,342.7734375,-49.8046875
-1000.0,-831.0546875,-949.70703125,-59.08203125
-1000.0,-1000.0,-1000.0,-41.50390625
-1000.0,-120.1171875,-87.890625,-17.08984375
-1000.0,999.51171875,999.51171875,-5.859375
-1000.0,939.453125,591.30859375,-28.80859375
-1000.0,-291.9921875,-752.44140625,-38.0859375
-1000.0,-1000.0,-1000.0,-7.8125
-1000.0,-273.92578125,-199.21875,0.48828125
-1000.0,979.00390625,999.51171875,-24.90234375
-1000.0,999.51171875,782.71484375,-51.7578125
-991.69921875,-155.76171875,-547.36328125,-62.98828125
-1000.0,-1000.0,-1000.0,-44.921875
-899.90234375,-287.109375,-193.359375,-17.578125
-721.19140625,938.4765625,999.51171875,-16.11328125
-794.921875,999.51171875,957.51953125,-28.3203125
-936.5234375,147.94921875,-250.48828125,-26.3671875
-907.2265625,-1000.0,-1000.0,-15.13671875
-654.296875,-520.99609375,-268.5546875,6.34765625
-471.19140625,846.19140625,958.0078125,2.9296875
-545.41015625,999.51171875,999.51171875,-19.04296875
-724.12109375,194.3359375,22.94921875,-34.1796875
-740.72265625,-1000.0,-1000.0,-26.3671875
-508.7890625,-748.53515625,-424.31640625,-4.8828125
-320.3125,599.12109375,884.27734375,-4.8828125
-379.8828125,999.51171875,999.51171875,-24.4140625
-554.19921875,514.16015625,165.52734375,-41.015625
-605.95703125,-893.06640625,-1000.0,-32.71484375
-418.9453125,-1000.0,-651.3671875,-17.578125
-221.6796875,309.5703125,716.796875,-24.90234375
-256.34765625,999.51171875,999.51171875,-38.57421875
-447.265625,179.6875,158.203125,-45.41015625
-521.484375,-1000.0,-1000.0,-41.9921875
-351.07421875,-1000.0,-853.515625,-20.01953125
-144.53125,83.49609375,458.984375,-7.8125
-153.3203125,999.51171875,999.51171875,-22.94921875
-354.00390625,519.04296875,193.359375,-45.41015625
-468.26171875,-912.59765625,-1000.0,-51.26953125
-319.3359375,-1000.0,-960.9375,-32.2265625
-90.8203125,311.5234375,291.015625,-13.18359375
-73.2421875,999.51171875,999.51171875,-20.99609375
-262.6953125,548.33984375,275.87890625,-42.48046875
-395.5078125,-761.23046875,-968.75,-52.734375
-279.296875,-1000.0,-1000.0,-31.73828125
-67.87109375,-227.5390625,-53.22265625,-18.5546875
-23.4375,999.51171875,999.51171875,-31.25
-193.359375,661.1328125,414.0625,-46.38671875
-354.98046875,-722.65625,-901.85546875,-59.5703125
-279.78515625,-1000.0,-1000.0,-54.6875
-52.24609375,-172.8515625,-167.96875,-39.55078125
26.3671875,982.421875,999.51171875,-36.1328125
-135.7421875,999.51171875,749.51171875,-60.05859375
-317.3828125,0.48828125,-586.9140625,-74.70703125
-280.76171875,-1000.0,-1000.0,-56.15234375
-52.24609375,-298.828125,-193.84765625,-35.15625
53.7109375,955.56640625,999.51171875,-28.3203125
-88.37890625,999.51171875,890.625,-49.31640625
-277.83203125,82.51953125,-381.34765625,-67.3828125
-270.01953125,-1000.0,-1000.0,-52.734375
-47.36328125,-406.73828125,-208.49609375,-36.62109375
79.58984375,900.87890625,999.0234375,-36.1328125
-39.55078125,999.51171875,999.51171875,-44.921875
-240.234375,215.8203125,-114.2578125,-60.05859375
-272.94921875,-1000.0,-1000.0,-57.6171875
-56.640625,-545.41015625,-313.4765625,-33.69140625
103.02734375,842.28515625,941.89453125,-17.578125
-3.90625,999.51171875,999.51171875,-33.203125
-217.7734375,157.2265625,57.6171875,-57.12890625
-268.5546875,-1000.0,-1000.0,-48.828125
-69.82421875,-1000.0,-537.109375,-24.4140625
111.328125,244.62890625,806.640625,-20.5078125
46.875,999.51171875,999.51171875,-39.55078125
-171.38671875,184.5703125,161.1328125,-63.96484375
-257.32421875,-1000.0,-1000.0,-67.87109375
-81.54296875,-738.28125,-674.31640625,-47.8515625
118.1640625,627.44140625,689.94140625,-27.34375
72.265625,999.51171875,999.51171875,-41.9921875
-142.578125,229.00390625,166.50390625,-58.59375
-245.60546875,-993.1640625,-1000.0,-50.78125
-107.421875,-1000.0,-940.91796875,-37.109375
94.7265625,28.3203125,323.73046875,-27.34375
89.35546875,999.51171875,999.51171875,-38.0859375
-122.55859375,377.9296875,203.125,-61.5234375
-251.953125,-916.9921875,-1000.0,-61.5234375
-125.0,-1000.0,-1000.0,-33.69140625
88.37890625,-203.125,62.98828125,-15.625
110.3515625,999.51171875,999.51171875,-27.83203125
-80.56640625,758.30078125,369.140625,-52.24609375
-240.234375,-598.6328125,-928.7109375,-62.5
-152.83203125,-1000.0,-1000.0,-40.0390625
73.73046875,-204.1015625,-114.2578125,-21.484375
127.9296875,999.51171875,999.51171875,-32.2265625
-48.828125,854.00390625,531.73828125,-53.22265625
-218.26171875,-469.7265625,-814.94140625,-63.96484375
-163.57421875,-1000.0,-1000.0,-48.33984375
66.89453125,-161.1328125,-187.5,-26.3671875
146.97265625,975.5859375,999.51171875,-23.4375
-24.90234375,999.51171875,764.16015625,-52.24609375
-209.9609375,116.69921875,-565.4296875,-72.265625
-191.89453125,-1000.0,-1000.0,-62.01171875
29.296875,-423.828125,-192.3828125,-47.36328125
156.73828125,913.57421875,999.51171875,-34.1796875
37.59765625,999.51171875,955.078125,-37.59765625
-157.2265625,69.82421875,-264.6484375,-49.31640625
-188.4765625,-1000.0,-1000.0,-55.6640625
25.390625,-416.50390625,-236.81640625,-37.109375
175.78125,895.5078125,974.12109375,-13.671875
62.5,999.51171875,999.51171875,-29.78515625
-137.20703125,214.84375,-7.32421875,-48.33984375
-178.22265625,-1000.0,-1000.0,-33.203125
16.6015625,-490.72265625,-358.3984375,-13.671875
175.78125,875.48828125,922.36328125,-7.32421875
85.9375,999.51171875,999.51171875,-19.04296875
-125.0,175.78125,112.79296875,-39.55078125
-191.89453125,-1000.0,-1000.0,-35.64453125
-9.27734375,-964.84375,-616.69921875,-10.25390625
171.38671875,304.6875,738.76953125,0.0
110.83984375,999.51171875,999.51171875,-19.53125
-110.83984375,193.359375,170.41015625,-41.015625
-213.8671875,-1000.0,-1000.0,-42.96875
-64.94140625,-1000.0,-806.640625,-30.76171875
130.37109375,113.76953125,525.87890625,-20.5078125
114.2578125,999.51171875,999.51171875,-25.87890625
-102.5390625,448.2421875,189.453125,-47.36328125
-228.02734375,-875.48828125,-1000.0,-54.19921875
-83.984375,-1000.0,-995.60546875,-25.390625
127.9296875,-153.3203125,224.609375,-5.859375
135.25390625,999.51171875,999.51171875,-19.04296875
-61.5234375,476.07421875,245.1171875,-39.55078125
-204.1015625,-887.6953125,-993.1640625,-44.921875
-100.5859375,-1000.0,-1000.0,-24.4140625
123.046875,-205.078125,-10.25390625,0.0
172.8515625,999.51171875,999.51171875,1.46484375
-21.484375,716.796875,404.78515625,-25.390625
-195.80078125,-651.85546875,-904.78515625,-41.9921875
-129.8828125,-1000.0,-1000.0,-37.109375
83.984375,-194.3359375,-167.48046875,-23.92578125
154.296875,999.51171875,999.51171875,-23.4375
-18.5546875,944.3359375,616.2109375,-42.48046875
-200.1953125,-320.80078125,-741.69921875,-55.6640625
-151.3671875,-1000.0,-1000.0,-41.9921875
80.078125,-172.8515625,-194.82421875,-16.11328125
172.36328125,997.0703125,999.51171875,-18.06640625
19.04296875,999.51171875,848.6328125,-44.43359375
-176.26953125,-51.26953125,-452.63671875,-58.59375
-172.36328125,-1000.0,-1000.0,-40.0390625
51.7578125,-178.7109375,-199.70703125,-23.92578125
156.25,996.09375,999.51171875,-35.15625
13.18359375,999.51171875,961.9140625,-56.15234375
-183.10546875,84.9609375,-234.375,-71.77734375
-214.35546875,-1000.0,-1000.0,-67.3828125
-16.11328125,-617.67578125,-312.5,-44.43359375
132.32421875,744.62890625,937.01171875,-30.76171875
34.1796875,999.51171875,999.51171875,-41.015625
-174.8046875,178.7109375,38.57421875,-61.5234375
-226.5625,-1000.0,-1000.0,-56.640625
-31.73828125,-861.81640625,-483.3984375,-32.71484375
132.8125,474.609375,843.26171875,-24.90234375
62.01171875,999.51171875,999.51171875,-45.8984375
-141.6015625,139.6484375,156.73828125,-64.453125
-203.125,-1000.0,-1000.0,-51.26953125
-25.87890625,-1000.0,-745.60546875,-31.73828125
174.8046875,38.57421875,605.95703125,-27.83203125
161.62109375,999.51171875,999.51171875,-48.828125
-38.0859375,276.85546875,160.64453125,-80.078125
-139.16015625,-994.140625,-1000.0,-83.49609375
7.32421875,-1000.0,-923.828125,-54.19921875
260.25390625,8.30078125,350.09765625,-20.5078125
344.23828125,999.51171875,999.51171875,-22.4609375
218.75,581.0546875,204.58984375,-49.8046875
102.05078125,-799.8046875,-1000.0,-61.03515625
200.68359375,-1000.0,-1000.0,-47.36328125
395.99609375,38.0859375,145.01953125,-38.0859375
416.015625,999.51171875,999.51171875,-41.015625
208.984375,594.23828125,301.7578125,-52.734375
17.08984375,-742.67578125,-956.54296875,-58.10546875
101.5625,-1000.0,-1000.0,-36.62109375
286.1328125,-193.359375,-108.3984375,-19.04296875
768.06640625,999.51171875,999.51171875,-29.78515625
764.16015625,987.79296875,516.6015625,-51.7578125
552.734375,-283.203125,-833.984375,-56.15234375
956.0546875,-1000.0,-1000.0,-46.38671875
984.375,18.5546875,-149.90234375,-31.25
949.21875,999.51171875,999.51171875,-29.78515625
968.75,998.53515625,681.15234375,-54.6875
965.8203125,-88.8671875,-659.66796875,-64.94140625
965.33203125,-1000.0,-1000.0,-52.734375
965.33203125,-307.6171875,-198.2421875,-35.15625
965.33203125,943.84765625,999.51171875,-19.53125
965.33203125,999.51171875,920.41015625,-41.015625
965.8203125,68.359375,-331.54296875,-78.125
965.8203125,-1000.0,-1000.0,-67.87109375
965.33203125,-418.45703125,-226.07421875,-42.48046875
965.33203125,893.5546875,978.02734375,-39.0625
965.33203125,999.51171875,999.51171875,-47.8515625
965.33203125,200.1953125,-22.94921875,-54.6875
965.33203125,-1000.0,-1000.0,-41.015625
965.8203125,-773.92578125,-386.23046875,-20.5078125
965.33203125,584.47265625,905.2734375,-15.625
964.84375,999.51171875,999.51171875,-40.0390625
965.33203125,253.41796875,125.0,-69.82421875
965.8203125,-1000.0,-1000.0,-66.40625
968.26171875,-1000.0,-582.51953125,-37.59765625
951.66015625,204.58984375,773.92578125,-15.625
971.6796875,999.51171875,999.51171875,-30.2734375
872.0703125,134.27734375,158.69140625,-52.734375
480.46875,-1000.0,-1000.0,-51.7578125
-436.5234375,-1000.0,-813.96484375,-30.76171875
-915.0390625,-259.27734375,516.6015625,-18.06640625
-704.1015625,999.51171875,999.51171875,-28.3203125
-367.67578125,238.76953125,163.57421875,-49.31640625
559.08203125,-1000.0,-1000.0,-57.12890625
999.51171875,-1000.0,-990.234375,-51.26953125
925.29296875,-70.80078125,222.16796875,-37.59765625
927.24609375,999.51171875,999.51171875,-41.50390625
999.51171875,818.84765625,288.57421875,-65.91796875
-21.484375,-477.5390625,-979.00390625,-57.12890625
-1000.0,-1000.0,-1000.0,-31.25
-1000.0,-191.89453125,24.90234375,-21.484375
-130.37109375,999.51171875,999.51171875,-23.4375
999.51171875,923.828125,399.90234375,-47.36328125
952.1484375,-355.46875,-905.76171875,-62.01171875
940.91796875,-1000.0,-1000.0,-44.921875
969.23828125,-180.17578125,-155.76171875,-27.34375
968.75,999.51171875,999.51171875,-31.73828125
964.84375,999.51171875,629.8828125,-45.41015625
903.3203125,-150.87890625,-725.5859375,-55.6640625
941.40625,-1000.0,-1000.0,-49.31640625
976.07421875,-175.78125,-185.546875,-27.83203125
960.9375,968.26171875,999.51171875,-29.78515625
968.26171875,999.51171875,926.26953125,-54.19921875
902.83203125,228.02734375,-321.77734375,-56.640625
999.51171875,-1000.0,-1000.0,-38.0859375
196.2890625,-1000.0,-212.40234375,-24.90234375
-1000.0,317.87109375,999.51171875,-24.90234375
-1000.0,860.3515625,951.66015625,-39.55078125
-736.81640625,-660.64453125,-270.5078125,-58.59375
-330.56640625,-1000.0,-1000.0,-52.734375
258.7890625,-444.82421875,-271.97265625,-28.80859375
914.0625,833.984375,950.68359375,-20.99609375
999.51171875,999.51171875,999.51171875,-41.015625
625.0,193.84765625,52.734375,-68.84765625
452.1484375,-1000.0,-1000.0,-60.546875
958.49609375,-800.29296875,-450.68359375,-40.0390625
983.88671875,560.05859375,870.60546875,-44.921875
946.2890625,999.51171875,999.51171875,-55.17578125
969.7265625,163.0859375,146.97265625,-57.6171875
965.33203125,-1000.0,-1000.0,-53.22265625
965.33203125,-941.89453125,-675.78125,-40.0390625
965.33203125,332.03125,685.546875,-29.78515625
965.8203125,999.51171875,999.51171875,-38.57421875
965.8203125,291.50390625,165.0390625,-52.734375
965.33203125,-1000.0,-1000.0,-52.734375
965.8203125,-1000.0,-890.13671875,-32.71484375
965.33203125,237.79296875,411.1328125,-20.5078125
965.33203125,999.51171875,999.51171875,-40.0390625
965.33203125,313.96484375,168.9453125,-67.3828125
965.33203125,-929.19921875,-1000.0,-73.2421875
965.8203125,-1000.0,-1000.0,-57.12890625
965.8203125,-238.76953125,76.171875,-40.52734375
965.33203125,999.51171875,999.51171875,-42.96875
965.33203125,623.53515625,287.59765625,-51.26953125
965.33203125,-779.78515625,-978.02734375,-45.8984375
965.33203125,-1000.0,-1000.0,-27.83203125
965.33203125,-90.33203125,-48.828125,-24.90234375
965.33203125,999.51171875,999.51171875,-41.015625
965.33203125,999.51171875,515.625,-61.5234375
965.33203125,-100.5859375,-820.3125,-73.73046875
965.8203125,-1000.0,-1000.0,-56.15234375
965.33203125,-249.51171875,-191.40625,-34.66796875
965.33203125,999.51171875,999.51171875,-30.2734375
965.33203125,999.51171875,687.01171875,-46.875
965.33203125,-197.75390625,-665.0390625,-74.21875
965.33203125,-1000.0,-1000.0,-64.94140625
965.33203125,-235.3515625,-197.265625,-38.57421875
965.33203125,970.21484375,999.51171875,-28.80859375
965.33203125,999.51171875,898.92578125,-41.015625
965.8203125,33.203125,-368.65234375,-58.59375
965.8203125,-1000.0,-1000.0,-47.8515625
965.8203125,-257.32421875,-207.03125,-29.78515625
965.33203125,960.9375,996.58203125,-34.66796875
965.33203125,999.51171875,999.51171875,-52.734375
965.33203125,208.49609375,-93.75,-69.82421875
965.33203125,-1000.0,-1000.0,-73.73046875
966.30859375,-735.3515625,-357.421875,-48.33984375
960.44921875,641.11328125,917.96875,-30.76171875
976.5625,999.51171875,999.51171875,-44.43359375
930.17578125,149.4140625,84.47265625,-62.5
874.51171875,-1000.0,-1000.0,-62.01171875
952.1484375,-1000.0,-600.09765625,-41.9921875
958.49609375,141.11328125,750.48828125,-24.90234375
985.3515625,999.51171875,999.51171875,-40.52734375
866.2109375,198.2421875,162.59765625,-60.05859375
576.171875,-1000.0,-1000.0,-49.31640625
742.1875,-1000.0,-780.2734375,-36.62109375
966.796875,129.39453125,564.94140625,-28.3203125
992.67578125,999.51171875,999.51171875,-27.83203125
780.76171875,226.07421875,160.15625,-63.4765625
389.16015625,-995.60546875,-1000.0,-77.63671875
545.8984375,-1000.0,-962.40234375,-51.26953125
899.4140625,-45.8984375,277.34375,-33.203125
989.74609375,999.51171875,999.51171875,-39.55078125
707.51953125,865.72265625,253.41796875,-58.10546875
268.06640625,-403.80859375,-990.234375,-61.03515625
334.9609375,-1000.0,-1000.0,-41.9921875
786.1328125,-189.94140625,15.625,-28.3203125
949.70703125,999.51171875,999.51171875,-35.64453125
25.390625,363.76953125,343.26171875,-54.6875
-765.625,-953.125,-942.87109375,-62.5
-403.3203125,-1000.0,-1000.0,-49.31640625
213.8671875,-226.07421875,-138.671875,-36.1328125
556.15234375,999.51171875,999.51171875,-36.62109375
360.3515625,857.421875,559.5703125,-57.12890625
49.8046875,-466.796875,-791.50390625,-68.84765625
125.0,-1000.0,-1000.0,-49.31640625
641.11328125,-160.15625,-186.03515625,-20.01953125
983.3984375,986.81640625,999.51171875,-18.5546875
762.6953125,999.51171875,772.94921875,-55.17578125
288.57421875,13.18359375,-551.7578125,-71.77734375
187.01171875,-1000.0,-1000.0,-55.17578125
600.5859375,-200.1953125,-193.84765625,-29.78515625
762.20703125,999.51171875,999.51171875,-32.71484375
431.15234375,999.51171875,935.546875,-45.8984375
-132.32421875,-119.140625,-294.43359375,-52.734375
-562.5,-1000.0,-1000.0,-52.734375
-373.046875,-636.71875,-277.83203125,-35.64453125
-602.05078125,747.0703125,965.33203125,-32.2265625
-997.55859375,999.51171875,999.51171875,-41.9921875
-949.21875,-161.62109375,-64.453125,-47.8515625
-999.0234375,-1000.0,-1000.0,-48.828125
-1000.0,-1000.0,-460.9375,-31.73828125
-1000.0,97.16796875,853.515625,-21.484375
-1000.0,999.51171875,999.51171875,-38.0859375
-1000.0,173.828125,124.0234375,-56.640625
-1000.0,-1000.0,-1000.0,-57.12890625
-1000.0,-899.4140625,-603.515625,-25.87890625
-1000.0,385.25390625,750.0,-12.20703125
-1000.0,999.51171875,999.51171875,-33.69140625
-985.3515625,504.39453125,176.7578125,-51.7578125
-1000.0,-839.35546875,-1000.0,-59.5703125
-942.87109375,-1000.0,-885.25390625,-49.8046875
-270.99609375,29.296875,417.96875,-32.71484375
455.56640625,999.51171875,999.51171875,-34.1796875
755.37109375,687.01171875,179.6875,-51.26953125
814.453125,-713.8671875,-1000.0,-61.5234375
883.30078125,-1000.0,-1000.0,-45.41015625
980.46875,202.1484375,184.5703125,-23.92578125
959.9609375,999.51171875,999.51171875,-39.0625
965.8203125,940.4296875,301.26953125,-62.98828125
965.8203125,-279.296875,-970.21484375,-64.453125
965.8203125,-1000.0,-1000.0,-45.41015625
965.33203125,43.9453125,-4.8828125,-23.92578125
965.8203125,999.51171875,999.51171875,-29.296875
965.8203125,779.296875,431.640625,-52.734375
930.17578125,-495.60546875,-880.859375,-60.546875
999.51171875,-1000.0,-1000.0,-41.015625
599.12109375,-329.58984375,-191.89453125,-23.4375
-475.5859375,973.6328125,999.51171875,-30.76171875
-456.0546875,981.93359375,687.98828125,-50.78125
-480.95703125,-275.390625,-663.57421875,-64.94140625
-1000.0,-1000.0,-1000.0,-48.828125
-989.2578125,-469.7265625,-203.61328125,-9.27734375
-996.09375,889.6484375,999.51171875,-24.90234375
-678.22265625,999.51171875,854.4921875,-87.890625
-186.5234375,-187.5,-442.87109375,-103.515625
213.37890625,-1000.0,-1000.0,-89.84375
740.72265625,-266.11328125,-216.796875,-78.61328125
980.46875,937.01171875,995.1171875,-76.66015625
952.63671875,999.51171875,999.51171875,-99.609375
963.37890625,222.16796875,-122.55859375,-112.79296875
966.30859375,-1000.0,-1000.0,-110.83984375
966.796875,-606.93359375,-336.42578125,-97.16796875
958.984375,763.18359375,921.38671875,-81.54296875
973.6328125,999.51171875,999.51171875,-89.84375
941.40625,415.0390625,121.58203125,-101.5625
730.95703125,-998.53515625,-1000.0,-93.75
803.7109375,-919.921875,-530.76171875,-65.4296875
978.515625,465.8203125,820.3125,-46.875
979.00390625,999.51171875,999.51171875,-57.12890625
880.859375,173.33984375,163.0859375,-81.54296875
708.49609375,-1000.0,-1000.0,-78.125
848.6328125,-1000.0,-762.6953125,-53.7109375
968.75,71.77734375,584.47265625,-49.8046875
692.3828125,999.51171875,999.51171875,-65.91796875
299.31640625,328.125,173.828125,-81.54296875
125.0,-969.7265625,-1000.0,-71.2890625
218.75,-1000.0,-916.015625,-49.31640625
367.67578125,22.4609375,361.81640625,-34.66796875
307.12890625,999.51171875,999.51171875,-38.57421875
189.94140625,275.390625,198.2421875,-53.7109375
-109.375,-964.35546875,-1000.0,-56.15234375
-262.20703125,-1000.0,-1000.0,-33.203125
-35.15625,-232.91015625,9.27734375,-16.11328125
414.55078125,999.51171875,999.51171875,-28.80859375
695.80078125,841.30859375,361.81640625,-51.7578125
531.25,-488.76953125,-934.5703125,-66.40625
565.91796875,-1000.0,-1000.0,-58.59375
742.1875,-224.609375,-127.9296875,-36.1328125
999.51171875,999.51171875,999.51171875,-30.76171875
103.515625,601.5625,556.640625,-47.8515625
-1000.0,-778.3203125,-791.9921875,-57.12890625
-845.703125,-1000.0,-1000.0,-36.62109375
-94.23828125,-291.9921875,-206.0546875,-22.94921875
676.26953125,938.4765625,999.51171875,-35.64453125
864.2578125,999.51171875,771.484375,-53.22265625
681.640625,-8.7890625,-562.01171875,-58.59375
775.87890625,-1000.0,-1000.0,-48.33984375
983.88671875,-312.5,-197.265625,-31.25
961.9140625,933.10546875,999.51171875,-21.484375
961.42578125,999.51171875,987.79296875,-41.9921875
966.30859375,228.515625,-193.84765625,-60.05859375
965.8203125,-1000.0,-1000.0,-35.15625
965.8203125,-607.91015625,-270.01953125,-17.578125
965.33203125,784.1796875,965.8203125,-36.62109375
965.33203125,999.51171875,999.51171875,-50.78125
965.33203125,186.5234375,-13.18359375,-54.19921875
965.33203125,-1000.0,-1000.0,-49.31640625
970.21484375,-801.26953125,-427.24609375,-33.203125
924.31640625,560.05859375,885.25390625,-24.4140625
999.51171875,999.51171875,999.51171875,-36.1328125
678.22265625,160.15625,120.60546875,-49.8046875
-527.83203125,-1000.0,-1000.0,-48.828125
-1000.0,-969.23828125,-571.2890625,-33.203125
-962.890625,303.7109375,782.2265625,-20.5078125
-998.53515625,999.51171875,999.51171875,-30.2734375
-1000.0,121.09375,156.25,-49.31640625
-1000.0,-1000.0,-1000.0,-54.6875
-1000.0,-1000.0,-875.9765625,-39.55078125
-1000.0,-251.953125,427.24609375,-20.01953125
-1000.0,999.51171875,999.51171875,-27.83203125
-1000.0,266.11328125,168.9453125,-51.7578125
-1000.0,-1000.0,-1000.0,-60.05859375
-1000.0,-1000.0,-1000.0,-38.0859375
-1000.0,-169.43359375,170.41015625,-18.5546875
-1000.0,999.51171875,999.51171875,-26.3671875
-1000.0,667.48046875,285.64453125,-47.36328125
-1000.0,-697.265625,-969.23828125,-57.6171875
-1000.0,-1000.0,-1000.0,-40.0390625
-1000.0,-193.359375,-66.40625,-20.99609375
-1000.0,999.51171875,999.51171875,-25.390625
-1000.0,957.03125,470.703125,-49.31640625
-1000.0,-291.50390625,-860.3515625,-55.6640625
-1000.0,-1000.0,-1000.0,-45.41015625
-1000.0,-204.1015625,-179.19921875,-31.25
-1000.0,958.0078125,999.51171875,-30.76171875
-1000.0,999.51171875,692.3828125,-56.640625
-1000.0,185.05859375,-655.76171875,-74.70703125
-1000.0,-1000.0,-1000.0,-59.08203125
-1000.0,-310.546875,-200.68359375,-30.2734375
-1000.0,999.51171875,999.51171875,-35.64453125
-1000.0,999.51171875,849.609375,-59.08203125
-1000.0,-91.796875,-447.75390625,-62.01171875
-1000.0,-1000.0,-1000.0,-50.78125
-1000.0,-470.21484375,-217.7734375,-39.0625
-1000.0,845.21484375,994.62890625,-30.2734375
-1000.0,999.51171875,999.51171875,-38.0859375
-1000.0,190.4296875,-125.9765625,-50.29296875
-1000.0,-1000.0,-1000.0,-45.8984375
-1000.0,-299.8046875,-281.73828125,-33.203125
-1000.0,965.33203125,955.078125,-32.2265625
-1000.0,999.51171875,999.51171875,-52.24609375
-1000.0,195.80078125,62.5,-71.2890625
-1000.0,-1000.0,-1000.0,-67.87109375
-1000.0,-928.7109375,-531.25,-46.875
-1000.0,367.67578125,812.01171875,-28.80859375
-1000.0,999.51171875,999.51171875,-39.0625
-999.51171875,173.828125,152.34375,-57.6171875
-996.09375,-1000.0,-1000.0,-57.12890625
-1000.0,-1000.0,-760.7421875,-45.41015625
-920.41015625,127.44140625,583.0078125,-36.62109375
-876.46484375,999.51171875,999.51171875,-46.875
-989.2578125,851.5625,187.01171875,-65.4296875
-1000.0,-418.9453125,-1000.0,-57.12890625
-1000.0,-1000.0,-953.125,-42.48046875
-957.03125,-50.78125,311.03515625,-34.1796875
-937.01171875,999.51171875,999.51171875,-38.0859375
-1000.0,468.26171875,210.9375,-61.5234375
-998.53515625,-881.34765625,-1000.0,-67.87109375
-1000.0,-1000.0,-1000.0,-46.875
-821.77734375,-173.828125,81.0546875,-25.390625
-729.4921875,999.51171875,999.51171875,-18.5546875
-920.8984375,825.1953125,357.421875,-45.8984375
-1000.0,-498.046875,-932.12890625,-68.84765625
-880.859375,-1000.0,-1000.0,-46.875
-497.0703125,-194.3359375,-117.1875,-25.87890625
-333.0078125,999.51171875,999.51171875,-35.64453125
-531.73828125,924.8046875,557.6171875,-57.12890625
-721.6796875,-349.12109375,-790.52734375,-68.359375
-560.546875,-1000.0,-1000.0,-50.78125
-128.41796875,-197.265625,-197.265625,-21.484375
135.7421875,990.72265625,999.51171875,-27.83203125
-88.8671875,999.51171875,774.90234375,-58.59375
-496.58203125,-70.3125,-557.12890625,-79.58984375
-539.55078125,-1000.0,-1000.0,-70.80078125
-232.91015625,-179.19921875,-188.4765625,-37.59765625
-98.14453125,997.55859375,999.51171875,-32.2265625
-285.64453125,999.51171875,939.94140625,-49.8046875
-547.36328125,53.22265625,-285.64453125,-66.40625
-536.62109375,-1000.0,-1000.0,-66.40625
-189.94140625,-593.75,-263.671875,-38.57421875
65.91796875,760.7421875,964.35546875,-23.4375
-1.953125,999.51171875,999.51171875,-36.62109375
-290.0390625,198.73046875,-17.08984375,-66.89453125
-478.515625,-1000.0,-1000.0,-72.265625
-318.359375,-629.39453125,-379.39453125,-39.55078125
-119.140625,762.20703125,906.25,-29.296875
-242.67578125,999.51171875,999.51171875,-54.19921875
-523.92578125,156.25,144.53125,-65.4296875
-608.88671875,-1000.0,-1000.0,-41.9921875
-339.84375,-1000.0,-643.06640625,-26.3671875
-28.3203125,169.43359375,718.26171875,-27.34375
-94.7265625,999.51171875,999.51171875,-28.3203125
-478.02734375,186.03515625,168.45703125,-45.8984375
-678.22265625,-1000.0,-1000.0,-55.6640625
-443.84765625,-1000.0,-827.63671875,-40.0390625
-103.515625,114.2578125,498.53515625,-21.484375
-74.70703125,999.51171875,999.51171875,-24.90234375
-244.62890625,393.06640625,176.7578125,-37.109375
-276.85546875,-918.9453125,-1000.0,-39.55078125
-27.34375,-1000.0,-1000.0,-26.3671875
308.59375,-69.82421875,208.0078125,-20.01953125
386.71875,999.51171875,999.51171875,-40.0390625
79.58984375,464.35546875,247.55859375,-66.40625
-208.984375,-880.859375,-991.2109375,-69.3359375
-112.3046875,-1000.0,-1000.0,-54.19921875
137.6953125,-200.1953125,-20.5078125,-27.34375
198.2421875,999.51171875,999.51171875,-14.6484375
-60.546875,818.359375,435.546875,-41.50390625
-390.13671875,-516.6015625,-884.27734375,-60.546875
-330.078125,-1000.0,-1000.0,-40.0390625
-23.92578125,-198.2421875,-151.3671875,-23.4375
27.34375,999.51171875,999.51171875,-32.71484375
-245.60546875,876.46484375,649.90234375,-49.8046875
-605.46875,-426.7578125,-701.66015625,-61.5234375
-599.12109375,-1000.0,-1000.0,-43.9453125
-271.97265625,-235.83984375,-199.70703125,-16.6015625
-259.765625,986.328125,999.51171875,-27.34375
-533.203125,999.51171875,860.83984375,-54.6875
-779.296875,-130.859375,-432.6171875,-60.546875
-749.51171875,-1000.0,-1000.0,-42.48046875
-315.91796875,-456.54296875,-208.49609375,-21.484375
-34.1796875,847.16796875,992.67578125,-18.5546875
-239.2578125,999.51171875,999.51171875,-32.71484375
-623.53515625,208.0078125,-91.796875,-57.12890625
-713.8671875,-1000.0,-1000.0,-64.94140625
-401.85546875,-408.69140625,-288.57421875,-46.875
-113.76953125,920.8984375,955.56640625,-39.55078125
-299.8046875,999.51171875,999.51171875,-58.10546875
-687.01171875,185.05859375,56.640625,-77.63671875
-764.16015625,-1000.0,-1000.0,-72.265625
-531.73828125,-860.83984375,-493.1640625,-47.8515625
-337.40234375,473.14453125,839.35546875,-27.34375
-456.0546875,999.51171875,999.51171875,-41.9921875
-720.703125,156.25,157.71484375,-62.98828125
-791.50390625,-1000.0,-1000.0,-62.01171875
-535.15625,-984.375,-699.70703125,-47.36328125
-208.49609375,256.34765625,656.73828125,-31.25
-161.1328125,999.51171875,999.51171875,-41.015625
-377.9296875,281.25,167.96875,-62.5
-579.1015625,-973.6328125,-1000.0,-65.4296875
-484.86328125,-1000.0,-922.36328125,-44.921875
-160.15625,-15.13671875,352.5390625,-19.04296875
-157.71484375,999.51171875,999.51171875,-27.34375
-483.3984375,392.578125,196.77734375,-66.40625
-604.4921875,-941.89453125,-1000.0,-69.3359375
-416.50390625,-1000.0,-1000.0,-52.24609375
-141.6015625,-17.08984375,93.26171875,-42.48046875
-134.27734375,999.51171875,999.51171875,-45.8984375
-364.74609375,587.890625,320.3125,-68.84765625
-518.5546875,-758.30078125,-950.1953125,-73.2421875
-455.078125,-1000.0,-1000.0,-46.875
-209.9609375,-218.26171875,-116.69921875,-28.3203125
-110.3515625,999.51171875,999.51171875,-40.0390625
-310.05859375,765.13671875,502.44140625,-69.3359375
-509.765625,-595.21484375,-842.7734375,-78.125
-429.19921875,-1000.0,-1000.0,-60.05859375
-114.2578125,-164.55078125,-184.5703125,-36.62109375
8.7890625,976.07421875,999.51171875,-32.2265625
-174.31640625,999.51171875,788.0859375,-48.33984375
-294.921875,75.68359375,-534.1796875,-55.17578125
-198.73046875,-1000.0,-1000.0,-51.7578125
113.28125,-456.0546875,-204.58984375,-33.203125
264.6484375,891.6015625,999.51171875,-30.2734375
110.83984375,999.51171875,930.6640625,-52.734375
-124.0234375,55.17578125,-313.96484375,-67.3828125
-140.13671875,-1000.0,-1000.0,-61.5234375
152.34375,-393.06640625,-238.76953125,-37.59765625
338.8671875,905.76171875,971.6796875,-27.83203125
169.921875,999.51171875,999.51171875,-36.62109375
-197.265625,205.56640625,-12.20703125,-52.734375
-335.9375,-1000.0,-1000.0,-57.12890625
-34.66796875,-207.03125,-304.6875,-40.0390625
251.953125,999.51171875,946.2890625,-22.94921875
53.22265625,999.51171875,999.51171875,-40.0390625
-341.30859375,181.15234375,119.140625,-59.5703125
-451.171875,-1000.0,-1000.0,-56.15234375
-185.05859375,-1000.0,-649.90234375,-35.15625
88.8671875,78.61328125,705.56640625,-13.18359375
45.8984375,999.51171875,999.51171875,-29.296875
-17.08984375,212.40234375,163.57421875,-62.5
548.33984375,-1000.0,-1000.0,-64.94140625
999.51171875,-1000.0,-842.7734375,-42.48046875
947.75390625,227.5390625,479.98046875,-37.109375
959.47265625,999.51171875,999.51171875,-43.45703125
967.28515625,363.28125,165.0390625,-62.01171875
965.8203125,-924.8046875,-1000.0,-69.82421875
965.8203125,-1000.0,-1000.0,-46.38671875
964.35546875,-78.61328125,194.82421875,-31.73828125
966.796875,999.51171875,999.51171875,-42.96875
965.8203125,673.828125,258.30078125,-62.98828125
937.5,-694.3359375,-994.62890625,-62.98828125
954.1015625,-1000.0,-1000.0,-48.828125
970.703125,-22.4609375,29.296875,-31.25
971.19140625,999.51171875,999.51171875,-29.296875
900.390625,999.51171875,515.13671875,-48.828125
999.51171875,92.28515625,-812.98828125,-49.8046875
443.84765625,-1000.0,-1000.0,-42.48046875
-528.3203125,-676.7578125,-166.50390625,-30.2734375
-26.3671875,952.1484375,999.51171875,-27.34375
-669.43359375,485.3515625,604.4921875,-49.31640625
-1000.0,-951.171875,-754.39453125,-66.40625
-947.75390625,-1000.0,-1000.0,-58.59375
-1000.0,-420.8984375,-196.77734375,-41.9921875
-1000.0,924.8046875,999.51171875,-42.96875
-1000.0,999.51171875,852.05078125,-48.828125
-1000.0,-220.703125,-449.21875,-51.26953125
-1000.0,-1000.0,-1000.0,-43.45703125
-1000.0,-327.1484375,-189.94140625,-30.2734375
-1000.0,926.26953125,999.51171875,-34.66796875
-1000.0,999.51171875,991.2109375,-56.640625
-1000.0,63.4765625,-175.29296875,-67.3828125
-1000.0,-1000.0,-1000.0,-57.12890625
-1000.0,-687.01171875,-298.33984375,-40.0390625
-1000.0,659.1796875,937.98828125,-38.57421875
-1000.0,999.51171875,999.51171875,-54.6875
-1000.0,220.703125,99.12109375,-61.03515625
-1000.0,-1000.0,-1000.0,-56.15234375
-1000.0,-855.95703125,-489.74609375,-42.96875
-1000.0,499.0234375,849.609375,-35.64453125
-1000.0,999.51171875,999.51171875,-44.921875
-1000.0,138.671875,155.2734375,-53.22265625
-1000.0,-1000.0,-1000.0,-50.78125
-1000.0,-1000.0,-710.44921875,-35.64453125
-1000.0,27.83203125,644.04296875,-24.4140625
-1000.0,999.51171875,999.51171875,-40.52734375
-995.60546875,205.078125,161.62109375,-56.15234375
-1000.0,-1000.0,-1000.0,-53.7109375
-993.1640625,-1000.0,-937.01171875,-39.0625
-811.5234375,-112.79296875,323.2421875,-21.484375
-725.09765625,999.51171875,999.51171875,-25.87890625
-895.99609375,952.63671875,241.2109375,-46.38671875
-992.1875,-277.34375,-1000.0,-52.734375
-822.75390625,-1000.0,-1000.0,-35.64453125
-542.48046875,-182.12890625,97.65625,-21.484375
-479.00390625,999.51171875,999.51171875,-24.90234375
-659.1796875,739.74609375,336.42578125,-42.48046875
-798.33984375,-621.58203125,-946.2890625,-59.5703125
-675.78125,-1000.0,-1000.0,-50.29296875
-411.1328125,-184.5703125,-84.47265625,-26.3671875
-340.8203125,999.51171875,999.51171875,-34.66796875
-516.6015625,986.328125,562.98828125,-56.15234375
-669.43359375,-236.328125,-785.64453125,-62.01171875
-573.73046875,-1000.0,-1000.0,-49.31640625
-300.78125,-175.78125,-151.85546875,-29.296875
-191.40625,999.51171875,999.51171875,-26.85546875
-330.56640625,999.51171875,780.2734375,-35.15625
-511.71875,-48.33984375,-539.0625,-49.8046875
-481.4453125,-1000.0,-1000.0,-51.7578125
-209.9609375,-263.18359375,-189.453125,-33.69140625
-68.359375,952.1484375,999.51171875,-35.64453125
-212.40234375,999.51171875,958.0078125,-51.7578125
-419.921875,189.453125,-253.90625,-64.453125
-422.8515625,-1000.0,-1000.0,-57.12890625
-167.48046875,-529.78515625,-248.046875,-32.71484375
7.8125,854.98046875,979.98046875,-20.5078125
-122.55859375,999.51171875,999.51171875,-48.828125
-353.515625,131.8359375,-62.98828125,-68.359375
-384.765625,-1000.0,-1000.0,-55.17578125
-152.34375,-709.9609375,-393.5546875,-40.52734375
27.83203125,658.69140625,900.390625,-31.73828125
-69.3359375,999.51171875,999.51171875,-42.48046875
-294.921875,168.9453125,103.02734375,-62.5
-360.83984375,-1000.0,-1000.0,-56.15234375
-147.94921875,-903.3203125,-606.93359375,-22.4609375
68.84765625,383.30078125,747.0703125,-8.7890625
-0.9765625,999.51171875,999.51171875,-36.1328125
-242.67578125,568.359375,167.96875,-59.08203125
-333.984375,-768.06640625,-1000.0,-51.26953125
-162.109375,-1000.0,-855.95703125,-35.15625
57.12890625,-31.25,460.9375,-35.15625
46.875,999.51171875,999.51171875,-42.96875
-182.6171875,341.796875,164.0625,-51.26953125
-315.4296875,-965.8203125,-1000.0,-61.5234375
-168.45703125,-1000.0,-989.74609375,-45.8984375
67.3828125,-55.6640625,226.07421875,-23.92578125
82.51953125,999.51171875,999.51171875,-22.94921875
-141.11328125,617.1875,264.16015625,-41.9921875
-298.828125,-812.98828125,-1000.0,-53.22265625
-171.875,-1000.0,-1000.0,-40.0390625
71.77734375,185.05859375,92.28515625,-26.3671875
104.00390625,999.51171875,999.51171875,-31.73828125
-100.09765625,565.4296875,355.46875,-54.19921875
-278.3203125,-754.39453125,-923.828125,-61.03515625
-188.4765625,-1000.0,-1000.0,-39.0625
69.82421875,-185.05859375,-179.19921875,-23.92578125
142.08984375,999.51171875,999.51171875,-29.296875
-54.6875,999.51171875,628.41796875,-50.29296875
-257.8125,-142.578125,-729.00390625,-63.96484375
-217.28515625,-1000.0,-1000.0,-53.22265625
36.1328125,-227.5390625,-198.2421875,-35.64453125
149.90234375,970.21484375,999.51171875,-34.66796875
-8.7890625,999.51171875,869.140625,-48.33984375
-225.09765625,85.9375,-419.43359375,-66.40625
-232.421875,-1000.0,-1000.0,-64.453125
15.13671875,-388.18359375,-209.9609375,-43.9453125
159.1796875,921.875,999.51171875,-33.203125
19.53125,999.51171875,972.16796875,-38.57421875
-189.94140625,114.74609375,-221.6796875,-46.38671875
-220.21484375,-1000.0,-1000.0,-37.59765625
0.48828125,-570.3125,-303.7109375,-18.5546875
172.36328125,791.015625,937.01171875,-13.671875
60.05859375,999.51171875,999.51171875,-32.2265625
-175.78125,229.4921875,70.80078125,-55.6640625
-245.1171875,-1000.0,-1000.0,-57.6171875
-44.921875,-995.60546875,-516.6015625,-42.96875
152.83203125,279.296875,830.56640625,-26.3671875
85.44921875,999.51171875,999.51171875,-28.80859375
-149.4140625,138.18359375,123.53515625,-43.9453125
-246.09375,-1000.0,-1000.0,-48.33984375
-75.68359375,-1000.0,-743.1640625,-38.0859375
127.44140625,-0.48828125,601.07421875,-31.73828125
93.26171875,999.51171875,999.51171875,-37.59765625
-145.5078125,292.48046875,170.41015625,-50.78125
-262.6953125,-1000.0,-1000.0,-50.78125
-92.28515625,-849.12109375,-837.40234375,-36.1328125
129.8828125,497.0703125,483.3984375,-15.13671875
125.48828125,999.51171875,999.51171875,-14.16015625
-93.26171875,338.8671875,189.453125,-40.52734375
-235.83984375,-933.10546875,-1000.0,-49.31640625
-99.609375,-1000.0,-1000.0,-40.0390625
130.37109375,-54.6875,136.23046875,-34.66796875
152.83203125,999.51171875,999.51171875,-39.0625
-65.4296875,507.8125,299.31640625,-52.24609375
-224.609375,-839.84375,-960.9375,-55.6640625
-118.65234375,-1000.0,-1000.0,-47.36328125
121.58203125,-195.80078125,-89.84375,-35.15625
185.05859375,999.51171875,999.51171875,-33.203125
-16.6015625,989.74609375,572.265625,-58.59375
-219.23828125,-233.3984375,-777.83203125,-64.94140625
-163.0859375,-1000.0,-1000.0,-48.33984375
84.47265625,-198.2421875,-171.875,-25.87890625
166.50390625,999.51171875,999.51171875,-17.08984375
-20.5078125,925.78125,697.75390625,-42.96875
-238.28125,-350.5859375,-648.92578125,-62.98828125
-207.03125,-1000.0,-1000.0,-48.33984375
52.24609375,-154.78515625,-194.3359375,-36.1328125
172.8515625,968.26171875,999.51171875,-30.2734375
20.5078125,999.51171875,937.5,-29.296875
-215.33203125,233.88671875,-291.50390625,-44.921875
-251.46484375,-1000.0,-1000.0,-46.875
18.5546875,-519.53125,-245.60546875,-20.5078125
213.37890625,873.046875,987.79296875,-15.625
87.40234375,999.51171875,999.51171875,-49.31640625
-229.98046875,97.16796875,-110.3515625,-67.87109375
272.4609375,-1000.0,-1000.0,-59.5703125
999.51171875,-390.13671875,-337.890625,-33.203125
956.0546875,909.66796875,921.38671875,-17.08984375
949.70703125,999.51171875,999.51171875,-41.50390625
969.7265625,254.8828125,125.9765625,-76.66015625
965.33203125,-1000.0,-1000.0,-74.70703125
965.33203125,-410.15625,-498.53515625,-51.26953125
967.28515625,909.66796875,845.703125,-44.921875
959.9609375,999.51171875,999.51171875,-59.08203125
937.5,364.2578125,165.52734375,-59.08203125
999.51171875,-908.203125,-1000.0,-58.10546875
400.390625,-1000.0,-830.56640625,-51.7578125
-548.828125,-211.9140625,496.58203125,-40.0390625
-898.4375,999.51171875,999.51171875,-41.50390625
-995.60546875,169.43359375,161.1328125,-55.17578125
-991.2109375,-1000.0,-1000.0,-62.5
-1000.0,-1000.0,-968.75,-41.015625
-972.16796875,-208.49609375,268.5546875,-21.484375
-964.84375,999.51171875,999.51171875,-33.69140625
-1000.0,360.3515625,227.05078125,-55.17578125
-1000.0,-952.63671875,-1000.0,-57.6171875
-999.51171875,-1000.0,-1000.0,-40.52734375
-1000.0,-250.48828125,13.671875,-17.578125
-1000.0,999.51171875,999.51171875,-32.2265625
-988.76953125,544.921875,357.91015625,-56.15234375
-1000.0,-842.7734375,-934.5703125,-59.08203125
-917.48046875,-1000.0,-1000.0,-49.8046875
-621.58203125,-163.57421875,-143.5546875,-32.2265625
-178.7109375,958.984375,999.51171875,-35.15625
399.90234375,999.51171875,611.81640625,-54.6875
751.953125,226.07421875,-737.3046875,-61.03515625
941.89453125,-1000.0,-1000.0,-50.78125
790.0390625,-298.33984375,-205.56640625,-25.87890625
352.5390625,999.51171875,999.51171875,-24.90234375
-201.171875,958.49609375,796.875,-53.7109375
-571.2890625,-294.921875,-526.85546875,-67.87109375
-500.48828125,-1000.0,-1000.0,-53.22265625
293.9453125,-224.609375,-198.73046875,-31.25
999.51171875,958.49609375,999.51171875,-31.73828125
531.25,999.51171875,986.81640625,-39.55078125
-528.3203125,116.69921875,-195.3125,-52.734375
-792.48046875,-1000.0,-1000.0,-56.640625
-621.09375,-372.0703125,-257.32421875,-38.57421875
-589.84375,927.24609375,971.19140625,-29.78515625
-429.6875,999.51171875,999.51171875,-43.45703125
-439.453125,150.390625,-10.25390625,-65.4296875
-807.12890625,-1000.0,-1000.0,-59.5703125
-733.88671875,-844.23828125,-459.9609375,-32.71484375
-537.109375,486.328125,861.328125,-29.296875
-640.625,999.51171875,999.51171875,-44.43359375
-794.43359375,169.43359375,121.09375,-57.6171875
-635.25390625,-1000.0,-1000.0,-51.7578125
-28.80859375,-887.6953125,-670.8984375,-37.109375
306.640625,434.08203125,683.10546875,-36.62109375
-18.06640625,999.51171875,999.51171875,-33.203125
-649.90234375,156.73828125,167.48046875,-49.8046875
-958.984375,-1000.0,-1000.0,-61.5234375
-785.15625,-1000.0,-888.18359375,-36.62109375
-555.17578125,6.8359375,411.1328125,-29.78515625
-553.22265625,999.51171875,999.51171875,-38.0859375
-755.859375,355.95703125,183.59375,-57.6171875
-870.60546875,-936.03515625,-1000.0,-68.359375
-679.6875,-1000.0,-1000.0,-49.8046875
-391.6015625,-159.66796875,138.671875,-26.3671875
-341.30859375,999.51171875,999.51171875,-26.85546875
-540.52734375,712.40234375,292.96875,-42.48046875
-676.26953125,-647.4609375,-970.703125,-53.22265625
-539.55078125,-1000.0,-1000.0,-48.33984375
-259.27734375,-197.75390625,-49.31640625,-27.34375
-176.7578125,999.51171875,999.51171875,-23.92578125
-378.41796875,741.2109375,461.9140625,-46.38671875
-562.5,-623.046875,-862.79296875,-69.82421875
-470.21484375,-1000.0,-1000.0,-55.17578125
-181.15234375,-172.36328125,-187.98828125,-27.83203125
-64.94140625,987.79296875,999.51171875,-30.2734375
-243.1640625,999.51171875,748.53515625,-51.7578125
-449.21875,-41.9921875,-590.33203125,-67.87109375
-415.52734375,-1000.0,-1000.0,-54.6875
-136.71875,-186.03515625,-194.82421875,-31.25
-0.48828125,999.51171875,999.51171875,-28.80859375
-166.9921875,999.51171875,885.25390625,-50.78125
-385.7421875,-0.9765625,-384.765625,-68.84765625
-389.16015625,-1000.0,-1000.0,-58.59375
-156.73828125,-479.98046875,-229.98046875,-36.1328125
-19.53125,850.09765625,981.93359375,-20.5078125
-190.91796875,999.51171875,999.51171875,-32.2265625
-451.171875,188.4765625,-68.84765625,-61.03515625
-487.3046875,-1000.0,-1000.0,-58.59375
-251.46484375,-587.890625,-339.84375,-35.15625
-70.3125,796.38671875,922.36328125,-28.80859375
-166.015625,999.51171875,999.51171875,-38.0859375
-402.83203125,213.37890625,134.27734375,-53.22265625
-482.421875,-1000.0,-1000.0,-58.59375
-251.46484375,-818.84765625,-570.80078125,-35.64453125
-36.62109375,522.4609375,787.59765625,-32.71484375
-97.65625,999.51171875,999.51171875,-60.05859375
-317.87109375,375.0,166.50390625,-80.56640625
-404.78515625,-945.80078125,-1000.0,-75.68359375
-206.0546875,-1000.0,-803.22265625,-46.38671875
25.87890625,142.08984375,534.66796875,-29.296875
-5.859375,999.51171875,999.51171875,-42.96875
-241.69921875,213.37890625,153.80859375,-64.94140625
-355.46875,-984.86328125,-1000.0,-64.453125
-196.2890625,-1000.0,-1000.0,-46.875
28.3203125,-206.54296875,198.2421875,-40.0390625
40.52734375,999.51171875,999.51171875,-49.31640625
-170.8984375,483.3984375,219.23828125,-56.640625
-319.82421875,-889.6484375,-1000.0,-65.91796875
-193.84765625,-1000.0,-1000.0,-65.4296875
55.6640625,-168.45703125,11.71875,-47.8515625
91.30859375,999.51171875,999.51171875,-51.26953125
-119.62890625,965.33203125,448.2421875,-72.75390625
-302.24609375,-277.34375,-877.9296875,-73.73046875
-214.35546875,-1000.0,-1000.0,-61.03515625
52.24609375,-180.17578125,-131.8359375,-35.64453125
123.046875,999.51171875,999.51171875,-35.64453125
-81.54296875,897.94921875,562.5,-68.359375
-274.90234375,-381.8359375,-784.66796875,-76.171875
-211.42578125,-1000.0,-1000.0,-53.22265625
47.36328125,-251.46484375,-205.078125,-36.62109375
145.01953125,983.3984375,999.51171875,-44.921875
-35.64453125,999.51171875,780.76171875,-61.5234375
-246.09375,-141.11328125,-545.8984375,-67.87109375
-231.93359375,-1000.0,-1000.0,-52.24609375
26.3671875,-371.09375,-202.1484375,-26.85546875
174.8046875,892.578125,999.51171875,-14.16015625
16.11328125,999.51171875,999.51171875,-35.15625
-216.30859375,209.9609375,-155.76171875,-68.84765625
-249.0234375,-1000.0,-1000.0,-74.70703125
-13.18359375,-687.01171875,-313.96484375,-47.36328125
160.64453125,703.61328125,952.1484375,-36.62109375
39.55078125,999.51171875,999.51171875,-53.7109375
-193.359375,163.57421875,-28.80859375,-66.40625
-246.58203125,-1000.0,-1000.0,-60.05859375
-30.2734375,-804.19921875,-470.703125,-45.8984375
150.390625,551.26953125,851.07421875,-46.38671875
56.15234375,999.51171875,999.51171875,-55.17578125
-179.6875,168.45703125,131.34765625,-70.80078125
-252.44140625,-1000.0,-1000.0,-69.82421875
-54.19921875,-896.484375,-642.08984375,-45.8984375
143.5546875,416.50390625,716.30859375,-33.203125
96.6796875,999.51171875,999.51171875,-30.76171875
-149.90234375,181.15234375,165.0390625,-52.734375
-277.34375,-1000.0,-1000.0,-72.265625
-108.3984375,-1000.0,-889.6484375,-55.17578125
111.328125,-4.39453125,407.71484375,-39.55078125
99.12109375,999.51171875,999.51171875,-50.78125
-129.8828125,295.8984375,175.78125,-62.01171875
-267.08984375,-991.69921875,-1000.0,-60.546875
-124.51171875,-1000.0,-1000.0,-41.015625
118.65234375,11.71875,161.62109375,-14.16015625
137.6953125,999.51171875,999.51171875,-22.4609375
-100.09765625,452.1484375,271.484375,-50.29296875
-269.53125,-875.0,-975.09765625,-62.01171875
-154.296875,-1000.0,-1000.0,-42.96875
89.84375,-200.68359375,-73.2421875,-20.99609375
140.13671875,999.51171875,999.51171875,-30.2734375
-55.17578125,890.625,481.4453125,-44.921875
-235.3515625,-405.76171875,-852.05078125,-47.8515625
-173.828125,-1000.0,-1000.0,-42.48046875
81.54296875,-166.015625,-184.08203125,-24.4140625
172.8515625,965.33203125,999.51171875,-28.3203125
-16.11328125,999.51171875,780.76171875,-58.59375
-216.30859375,197.75390625,-546.38671875,-66.40625
-182.6171875,-1000.0,-1000.0,-42.48046875
70.3125,-253.41796875,-194.3359375,-30.76171875
184.08203125,999.51171875,999.51171875,-29.296875
26.3671875,999.51171875,892.08984375,-39.0625
-185.546875,63.4765625,-372.0703125,-55.6640625
-192.3828125,-1000.0,-1000.0,-46.38671875
49.8046875,-580.56640625,-252.9296875,-27.34375
208.49609375,788.0859375,986.81640625,-18.06640625
78.125,999.51171875,999.51171875,-32.71484375
-153.3203125,100.09765625,-140.625,-59.08203125
-191.40625,-1000.0,-1000.0,-51.7578125
20.99609375,-780.2734375,-373.046875,-26.3671875
183.59375,562.98828125,909.1796875,-20.5078125
80.078125,999.51171875,999.51171875,-37.109375
-152.34375,168.45703125,64.94140625,-57.12890625
-211.9140625,-1000.0,-1000.0,-51.26953125
-10.7421875,-902.34375,-563.4765625,-28.80859375
175.29296875,407.2265625,781.73828125,-18.06640625
102.5390625,999.51171875,999.51171875,-31.73828125
-136.23046875,208.984375,157.71484375,-50.78125
-227.05078125,-1000.0,-1000.0,-48.33984375
-45.8984375,-1000.0,-792.96875,-29.296875
161.1328125,239.2578125,548.33984375,-18.06640625
118.65234375,999.51171875,999.51171875,-32.2265625
-125.9765625,267.08984375,163.57421875,-59.08203125
-244.140625,-982.421875,-1000.0,-60.05859375
-86.42578125,-1000.0,-974.609375,-37.59765625
147.94921875,-1.953125,262.20703125,-23.92578125
166.50390625,999.51171875,999.51171875,-34.66796875
-58.59375,454.58984375,224.12109375,-54.6875
-209.47265625,-878.41796875,-1000.0,-52.24609375
-84.9609375,-1000.0,-1000.0,-39.55078125
142.578125,-151.85546875,24.4140625,-37.109375
183.10546875,999.51171875,999.51171875,-39.55078125
-18.06640625,999.51171875,441.89453125,-54.6875
-208.0078125,-158.203125,-877.9296875,-69.3359375
-127.44140625,-1000.0,-1000.0,-52.734375
113.28125,-218.75,-135.7421875,-38.57421875
172.8515625,999.51171875,999.51171875,-41.9921875
-18.06640625,775.390625,563.96484375,-53.7109375
-214.84375,-573.73046875,-786.62109375,-55.6640625
-163.0859375,-1000.0,-1000.0,-46.38671875
93.75,-234.375,-204.1015625,-28.3203125
187.5,987.3046875,999.51171875,-27.34375
0.0,999.51171875,799.8046875,-54.19921875
-215.8203125,-163.57421875,-523.4375,-67.87109375
-190.4296875,-1000.0,-1000.0,-51.26953125
77.63671875,-188.4765625,-188.4765625,-25.87890625
195.80078125,986.81640625,999.51171875,-28.80859375
33.203125,999.51171875,964.35546875,-48.828125
-178.7109375,58.10546875,-235.3515625,-51.7578125
-198.73046875,-1000.0,-1000.0,-38.57421875
48.33984375,-444.82421875,-273.4375,-20.5078125
208.984375,877.9296875,960.9375,-22.4609375
66.40625,999.51171875,999.51171875,-49.31640625
-167.96875,185.546875,-3.90625,-62.5
-218.26171875,-1000.0,-1000.0,-53.7109375
1.953125,-732.91015625,-436.03515625,-38.0859375
191.40625,643.06640625,878.90625,-35.64453125
101.5625,999.51171875,999.51171875,-52.24609375
-146.484375,149.90234375,129.8828125,-72.265625
-235.3515625,-1000.0,-1000.0,-67.3828125
-46.38671875,-1000.0,-692.3828125,-41.9921875
156.73828125,144.04296875,662.109375,-24.90234375
104.4921875,999.51171875,999.51171875,-40.0390625
