TP9,AF7,AF8,TP10
-590.8203125,-1000.0,-1000.0,-13.18359375
-128.90625,-695.3125,-384.765625,33.203125
451.171875,652.34375,898.92578125,53.7109375
366.2109375,999.51171875,999.51171875,14.16015625
-236.328125,177.24609375,117.1875,-40.52734375
-601.07421875,-1000.0,-1000.0,-41.015625
-216.796875,-843.75,-589.35546875,13.671875
398.4375,501.46484375,768.06640625,49.8046875
432.6171875,999.51171875,999.51171875,30.76171875
-158.203125,149.4140625,160.15625,-30.2734375
-613.28125,-1000.0,-1000.0,-48.828125
-310.05859375,-1000.0,-826.66015625,-7.32421875
333.0078125,166.50390625,500.0,38.57421875
453.61328125,999.51171875,999.51171875,28.80859375
-94.7265625,301.7578125,169.43359375,-25.390625
-587.890625,-992.67578125,-1000.0,-61.03515625
-375.0,-1000.0,-995.1171875,-59.5703125
276.85546875,121.58203125,227.5390625,-34.1796875
482.91015625,999.51171875,999.51171875,-28.80859375
-20.99609375,378.41796875,232.421875,-71.2890625
-554.19921875,-906.73828125,-991.2109375,-84.47265625
-441.40625,-1000.0,-1000.0,-59.5703125
195.3125,-225.09765625,-55.6640625,-33.203125
499.51171875,999.51171875,999.51171875,-40.0390625
66.89453125,600.09765625,386.23046875,-79.58984375
-525.87890625,-787.109375,-921.38671875,-92.28515625
-515.13671875,-1000.0,-1000.0,-56.15234375
133.7890625,-165.52734375,-179.6875,1.46484375
514.6484375,966.796875,999.51171875,19.53125
166.015625,999.51171875,747.55859375,-48.33984375
-449.21875,136.23046875,-592.28515625,-103.515625
-558.59375,-1000.0,-1000.0,-47.8515625
56.640625,-249.51171875,-196.77734375,19.53125
499.0234375,999.51171875,999.51171875,30.2734375
224.12109375,999.51171875,879.39453125,-28.3203125
-391.11328125,-44.921875,-401.85546875,-88.8671875
-593.75,-1000.0,-1000.0,-65.4296875
-42.96875,-415.0390625,-223.14453125,-11.23046875
483.88671875,884.765625,989.74609375,3.41796875
307.6171875,999.51171875,999.51171875,-28.3203125
-314.94140625,173.828125,-104.00390625,-77.1484375
-601.5625,-1000.0,-1000.0,-62.01171875
-101.5625,-478.515625,-317.3828125,-0.48828125
459.9609375,877.9296875,938.96484375,23.4375
338.8671875,999.51171875,999.51171875,-20.5078125
-262.20703125,176.7578125,72.75390625,-71.2890625
-617.67578125,-1000.0,-1000.0,-63.4765625
-220.21484375,-890.13671875,-548.33984375,-27.83203125
397.4609375,431.15234375,800.29296875,-19.04296875
394.04296875,999.51171875,999.51171875,-49.31640625
-200.68359375,156.73828125,144.53125,-84.47265625
-599.609375,-1000.0,-1000.0,-63.96484375
-283.69140625,-984.86328125,-770.99609375,-7.32421875
337.890625,270.5078125,572.265625,20.01953125
452.63671875,999.51171875,999.51171875,-5.859375
-113.76953125,173.828125,155.76171875,-56.15234375
-605.95703125,-1000.0,-1000.0,-66.40625
-373.046875,-1000.0,-995.60546875,-27.34375
275.87890625,-93.26171875,220.703125,21.97265625
478.02734375,999.51171875,999.51171875,8.30078125
-38.57421875,408.203125,213.37890625,-47.36328125
-576.66015625,-916.50390625,-1000.0,-74.70703125
-428.22265625,-1000.0,-1000.0,-44.921875
219.23828125,-155.2734375,-12.6953125,-7.32421875
486.81640625,994.62890625,999.51171875,-29.296875
72.75390625,999.51171875,444.82421875,-69.3359375
-488.76953125,-29.296875,-877.44140625,-75.68359375
-506.34765625,-1000.0,-1000.0,-48.828125
136.71875,-211.42578125,-157.71484375,-14.6484375
516.11328125,999.51171875,999.51171875,7.32421875
144.04296875,928.22265625,606.93359375,-20.99609375
-460.9375,-338.37890625,-750.9765625,-70.3125
-545.41015625,-1000.0,-1000.0,-74.70703125
65.4296875,-230.95703125,-207.51953125,-29.78515625
507.32421875,980.46875,999.51171875,-19.04296875
214.35546875,999.51171875,823.2421875,-67.87109375
-408.69140625,-71.77734375,-492.1875,-99.12109375
-583.49609375,-1000.0,-1000.0,-76.171875
-9.765625,-363.76953125,-204.1015625,-9.27734375
496.09375,917.48046875,999.51171875,41.015625
277.83203125,999.51171875,997.0703125,-2.44140625
-335.9375,86.9140625,-178.7109375,-49.8046875
-591.30859375,-1000.0,-1000.0,-24.4140625
-68.84765625,-275.390625,-248.046875,27.83203125
485.3515625,962.890625,966.30859375,47.36328125
338.8671875,999.51171875,999.51171875,10.25390625
-260.7421875,202.63671875,53.22265625,-41.50390625
-596.6796875,-1000.0,-1000.0,-35.15625
-155.76171875,-632.8125,-435.05859375,32.2265625
450.1953125,755.37109375,880.859375,51.26953125
389.16015625,999.51171875,999.51171875,-7.32421875
-219.7265625,185.05859375,176.26953125,-82.03125
-614.2578125,-1000.0,-1000.0,-72.265625
-244.140625,-786.1328125,-635.7421875,8.30078125
383.30078125,560.546875,728.515625,54.6875
424.8046875,999.51171875,999.51171875,31.25
-143.06640625,291.015625,166.50390625,-40.52734375
-606.4453125,-965.33203125,-1000.0,-65.91796875
-357.421875,-1000.0,-929.19921875,-16.11328125
288.0859375,20.5078125,339.35546875,40.52734375
464.84375,999.51171875,999.51171875,48.828125
-34.1796875,641.11328125,221.6796875,1.46484375
-556.15234375,-700.1953125,-1000.0,-28.80859375
-423.33984375,-1000.0,-1000.0,18.06640625
228.515625,-153.3203125,66.89453125,73.73046875
486.81640625,999.51171875,999.51171875,56.15234375
19.04296875,644.53125,334.47265625,-11.71875
-521.97265625,-726.5625,-941.40625,-45.8984375
-463.37890625,-1000.0,-1000.0,1.46484375
148.4375,-211.42578125,-148.92578125,60.546875
503.41796875,999.51171875,999.51171875,80.078125
118.1640625,820.3125,509.27734375,57.6171875
-492.1875,-526.3671875,-844.23828125,38.0859375
-527.34375,-1000.0,-1000.0,81.54296875
89.84375,-154.78515625,-180.17578125,127.44140625
486.328125,999.51171875,999.51171875,134.765625
181.15234375,903.3203125,724.609375,93.75
-428.7109375,-357.91015625,-619.140625,33.203125
-567.87109375,-1000.0,-1000.0,50.78125
20.5078125,-320.80078125,-194.82421875,117.1875
487.79296875,908.203125,999.51171875,137.20703125
245.60546875,999.51171875,985.83984375,84.47265625
-362.79296875,178.22265625,-203.61328125,30.76171875
-600.5859375,-1000.0,-1000.0,37.109375
-60.546875,-444.82421875,-246.58203125,85.9375
488.76953125,901.85546875,970.21484375,110.3515625
317.87109375,999.51171875,999.51171875,54.6875
-265.625,151.85546875,18.06640625,9.765625
-561.5234375,-1000.0,-1000.0,37.109375
-124.51171875,-740.72265625,-391.6015625,78.125
464.84375,625.0,900.390625,96.19140625
398.4375,999.51171875,999.51171875,75.1953125
-209.9609375,162.59765625,168.9453125,18.06640625
-599.609375,-1000.0,-1000.0,24.4140625
-234.86328125,-952.63671875,-624.0234375,94.7265625
397.4609375,310.546875,740.72265625,145.01953125
451.171875,999.51171875,999.51171875,124.51171875
-129.39453125,297.36328125,173.828125,43.9453125
-583.49609375,-954.1015625,-1000.0,23.92578125
-310.05859375,-1000.0,-907.71484375,99.609375
332.51953125,-72.75390625,386.23046875,131.34765625
489.74609375,999.51171875,999.51171875,83.984375
-45.8984375,301.7578125,178.7109375,39.55078125
-551.26953125,-989.2578125,-1000.0,22.94921875
-372.55859375,-1000.0,-1000.0,59.5703125
270.01953125,-42.48046875,164.55078125,110.3515625
501.953125,999.51171875,999.51171875,100.09765625
32.2265625,627.9296875,315.91796875,34.1796875
-518.5546875,-729.4921875,-959.47265625,-26.85546875
-438.4765625,-1000.0,-1000.0,-13.671875
215.8203125,-145.01953125,-39.55078125,78.125
524.90234375,999.51171875,999.51171875,99.12109375
90.33203125,672.8515625,458.49609375,-14.16015625
-499.51171875,-689.453125,-866.69921875,-96.6796875
-507.32421875,-1000.0,-1000.0,-73.2421875
122.55859375,-189.453125,-189.94140625,-45.41015625
520.5078125,999.51171875,999.51171875,-44.43359375
187.5,983.88671875,722.65625,-91.796875
-413.0859375,-234.86328125,-625.0,-150.390625
-539.55078125,-1000.0,-1000.0,-140.13671875
54.19921875,-215.8203125,-196.2890625,-67.87109375
528.80859375,996.09375,999.51171875,-44.43359375
264.6484375,999.51171875,913.0859375,-104.00390625
-361.328125,-96.6796875,-342.7734375,-164.55078125
-588.37890625,-1000.0,-1000.0,-166.015625
-54.19921875,-482.91015625,-252.44140625,-109.86328125
481.93359375,854.4921875,981.93359375,-80.078125
296.875,999.51171875,999.51171875,-120.60546875
-325.1953125,57.12890625,-109.375,-169.43359375
-602.5390625,-1000.0,-1000.0,-147.4609375
-124.0234375,-499.51171875,-354.00390625,-70.80078125
448.2421875,831.54296875,908.69140625,-38.57421875
358.88671875,999.51171875,999.51171875,-67.3828125
-215.8203125,377.44140625,158.203125,-104.98046875
-589.84375,-989.2578125,-1000.0,-104.00390625
-229.00390625,-995.1171875,-574.70703125,-46.875
396.97265625,332.51953125,785.64453125,-7.32421875
430.6640625,999.51171875,999.51171875,-27.83203125
-153.80859375,176.26953125,174.8046875,-78.61328125
-590.33203125,-1000.0,-1000.0,-98.14453125
-294.43359375,-1000.0,-809.5703125,-60.546875
339.35546875,101.07421875,527.34375,-22.4609375
463.8671875,999.51171875,999.51171875,-48.33984375
-91.796875,217.7734375,175.78125,-107.91015625
-591.796875,-1000.0,-1000.0,-135.7421875
-370.1171875,-1000.0,-942.87109375,-99.609375
279.296875,205.56640625,310.546875,-48.33984375
469.23828125,999.51171875,999.51171875,-53.7109375
-4.39453125,600.5859375,304.19921875,-88.8671875
-517.578125,-713.37890625,-963.8671875,-85.44921875
-420.8984375,-1000.0,-1000.0,-47.36328125
205.078125,-207.03125,-2.44140625,13.18359375
494.140625,999.51171875,999.51171875,30.76171875
54.19921875,708.984375,435.546875,-22.94921875
-535.64453125,-664.55078125,-882.8125,-53.22265625
-521.97265625,-1000.0,-1000.0,-27.83203125
119.140625,-197.75390625,-161.62109375,-18.5546875
501.46484375,999.51171875,999.51171875,-22.4609375
154.78515625,920.8984375,651.3671875,-37.59765625
-453.61328125,-362.3046875,-703.125,-68.359375
-556.15234375,-1000.0,-1000.0,-47.8515625
54.6875,-171.875,-195.80078125,16.6015625
496.58203125,995.1171875,999.51171875,16.11328125
219.23828125,999.51171875,880.859375,-20.99609375
-392.08984375,-32.2265625,-397.94921875,-57.6171875
-593.75,-1000.0,-1000.0,-78.125
-37.109375,-472.16796875,-235.83984375,-11.23046875
491.69921875,849.609375,991.2109375,25.87890625
297.8515625,999.51171875,999.51171875,-34.1796875
-318.84765625,190.91796875,-135.7421875,-88.37890625
-601.5625,-1000.0,-1000.0,-71.77734375
-115.72265625,-656.73828125,-339.35546875,0.9765625
465.8203125,733.88671875,926.26953125,36.62109375
344.7265625,999.51171875,999.51171875,-4.39453125
-276.3671875,169.921875,71.77734375,-72.265625
-619.140625,-1000.0,-1000.0,-78.125
-204.1015625,-861.328125,-531.25,-14.16015625
409.1796875,474.12109375,813.4765625,29.296875
408.203125,999.51171875,999.51171875,-14.16015625
-190.91796875,190.91796875,165.52734375,-81.0546875
-611.81640625,-1000.0,-1000.0,-76.66015625
-260.7421875,-621.09375,-662.59765625,-16.6015625
375.48828125,763.18359375,701.171875,19.04296875
451.66015625,999.51171875,999.51171875,3.41796875
-113.28125,193.359375,166.015625,-62.5
-599.609375,-1000.0,-1000.0,-98.6328125
-351.5625,-1000.0,-951.171875,-73.2421875
299.31640625,99.12109375,303.22265625,-41.50390625
485.83984375,999.51171875,999.51171875,-41.9921875
-13.18359375,446.2890625,228.02734375,-94.7265625
-546.38671875,-869.62890625,-1000.0,-101.07421875
-418.9453125,-1000.0,-1000.0,-36.1328125
224.12109375,-174.31640625,14.6484375,16.6015625
495.1171875,999.51171875,999.51171875,7.32421875
73.73046875,969.23828125,434.5703125,-33.69140625
-482.91015625,-269.04296875,-882.32421875,-47.36328125
-489.2578125,-1000.0,-1000.0,-36.62109375
139.16015625,-193.84765625,-154.78515625,2.44140625
502.44140625,999.51171875,999.51171875,15.625
122.55859375,945.3125,581.0546875,-37.59765625
-478.02734375,-313.96484375,-772.4609375,-88.37890625
-551.26953125,-1000.0,-1000.0,-58.59375
67.3828125,-191.89453125,-207.03125,-14.6484375
502.44140625,969.23828125,999.51171875,5.37109375
200.1953125,999.51171875,798.33984375,-14.16015625
-413.0859375,114.2578125,-523.92578125,-46.875
-576.171875,-1000.0,-1000.0,26.85546875
3.90625,-263.18359375,-204.58984375,130.859375
492.1875,999.51171875,999.51171875,145.01953125
251.46484375,999.51171875,956.54296875,49.8046875
-355.95703125,-40.52734375,-254.39453125,-14.6484375
-608.88671875,-1000.0,-1000.0,-10.25390625
-109.375,-583.984375,-319.3359375,23.92578125
461.9140625,761.23046875,939.453125,108.88671875
328.125,999.51171875,999.51171875,104.4921875
-284.1796875,158.69140625,-9.27734375,32.2265625
-621.09375,-1000.0,-1000.0,-13.18359375
-165.0390625,-358.88671875,-397.94921875,-3.41796875
450.68359375,937.98828125,896.97265625,62.5
377.44140625,999.51171875,999.51171875,62.5
-220.703125,187.5,149.90234375,-0.9765625
-607.91015625,-1000.0,-1000.0,0.0
-258.7890625,-951.171875,-717.28515625,59.5703125
369.140625,329.58984375,637.6953125,66.40625
429.6875,999.51171875,999.51171875,52.734375
-149.90234375,177.734375,162.59765625,20.5078125
-605.46875,-1000.0,-1000.0,6.34765625
-342.28515625,-1000.0,-916.50390625,61.5234375
300.78125,37.59765625,361.81640625,101.5625
480.95703125,999.51171875,999.51171875,92.7734375
-36.1328125,445.80078125,215.8203125,35.15625
-570.80078125,-875.0,-1000.0,7.32421875
-420.41015625,-1000.0,-1000.0,37.59765625
229.4921875,-221.6796875,49.31640625,101.07421875
495.60546875,999.51171875,999.51171875,82.03125
24.90234375,597.65625,344.7265625,-54.6875
-550.78125,-791.9921875,-943.84765625,-119.62890625
-482.91015625,-1000.0,-1000.0,-86.42578125
170.8984375,-178.22265625,-101.5625,-28.80859375
504.8828125,999.51171875,999.51171875,-13.671875
115.234375,999.51171875,556.15234375,-69.3359375
-472.16796875,-184.08203125,-785.64453125,-117.1875
-533.203125,-1000.0,-1000.0,-94.7265625
87.40234375,-250.9765625,-196.2890625,-37.59765625
519.53125,993.1640625,999.51171875,-6.34765625
209.47265625,999.51171875,783.203125,-49.8046875
-416.015625,-140.625,-545.41015625,-116.2109375
-573.2421875,-1000.0,-1000.0,-102.05078125
15.625,-317.87109375,-196.77734375,-27.83203125
501.46484375,929.6875,999.51171875,7.8125
255.37109375,999.51171875,952.1484375,-30.76171875
-360.3515625,118.65234375,-267.08984375,-75.68359375
-608.88671875,-1000.0,-1000.0,-105.46875
-81.0546875,-350.09765625,-252.9296875,-94.23828125
476.07421875,944.3359375,975.09765625,-68.84765625
313.4765625,999.51171875,999.51171875,-95.21484375
-310.05859375,112.79296875,-48.828125,-133.7890625
-617.67578125,-1000.0,-1000.0,-105.46875
-163.0859375,-788.0859375,-448.73046875,-55.17578125
431.640625,554.19921875,869.140625,-86.42578125
377.9296875,999.51171875,999.51171875,-151.85546875
-230.46875,158.203125,101.5625,-205.56640625
-606.93359375,-1000.0,-1000.0,-201.171875
-236.81640625,-937.01171875,-642.08984375,-141.11328125
387.6953125,348.14453125,710.44921875,-109.375
431.15234375,999.51171875,999.51171875,-133.30078125
-159.66796875,208.0078125,171.38671875,-179.19921875
-610.83984375,-1000.0,-1000.0,-178.7109375
-324.21875,-1000.0,-887.20703125,-128.41796875
305.6640625,25.87890625,416.015625,-97.65625
452.1484375,999.51171875,999.51171875,-108.3984375
-80.56640625,228.02734375,168.9453125,-144.04296875
-592.28515625,-989.2578125,-1000.0,-154.78515625
-407.2265625,-1000.0,-1000.0,-105.46875
242.1875,-197.75390625,124.0234375,-47.8515625
481.93359375,999.51171875,999.51171875,-42.96875
6.8359375,485.3515625,287.109375,-76.66015625
-538.0859375,-883.7890625,-970.703125,-83.49609375
-447.75390625,-1000.0,-1000.0,-3.90625
200.68359375,-217.28515625,-73.73046875,109.86328125
529.78515625,999.51171875,999.51171875,182.6171875
116.69921875,791.015625,482.421875,195.80078125
-478.515625,-558.59375,-855.46875,182.12890625
-493.1640625,-1000.0,-1000.0,223.14453125
140.625,-182.6171875,-175.78125,290.52734375
511.71875,999.51171875,999.51171875,278.80859375
168.45703125,999.51171875,705.078125,190.4296875
-429.6875,-186.03515625,-642.578125,119.140625
-559.5703125,-1000.0,-1000.0,122.55859375
49.31640625,-184.5703125,-191.89453125,184.5703125
506.34765625,999.51171875,999.51171875,216.796875
222.16796875,999.51171875,897.4609375,167.48046875
-397.4609375,-133.30078125,-366.69921875,74.21875
-601.5625,-1000.0,-1000.0,60.05859375
-54.6875,-480.95703125,-235.83984375,122.0703125
465.8203125,833.984375,974.12109375,145.99609375
292.96875,999.51171875,999.51171875,87.890625
-316.40625,193.359375,-32.2265625,9.27734375
-625.9765625,-1000.0,-1000.0,0.0
-152.83203125,-546.875,-344.7265625,53.7109375
436.03515625,838.37890625,921.875,100.5859375
356.4453125,999.51171875,999.51171875,78.61328125
-233.3984375,170.8984375,145.99609375,16.6015625
-610.3515625,-1000.0,-1000.0,-1.46484375
-238.28125,-965.8203125,-621.58203125,49.8046875
388.671875,309.5703125,743.65234375,112.79296875
405.76171875,999.51171875,999.51171875,83.984375
-198.73046875,144.53125,150.87890625,10.7421875
-615.72265625,-1000.0,-1000.0,9.27734375
-303.7109375,-1000.0,-834.47265625,57.6171875
326.171875,90.33203125,486.81640625,85.9375
453.125,999.51171875,999.51171875,51.7578125
-95.21484375,315.4296875,175.29296875,-22.94921875
-579.1015625,-995.60546875,-1000.0,-51.26953125
-344.23828125,-1000.0,-956.0546875,-2.44140625
290.0390625,139.16015625,291.015625,41.50390625
475.09765625,999.51171875,999.51171875,25.390625
-8.30078125,540.0390625,267.08984375,-45.41015625
-547.36328125,-781.25,-977.5390625,-95.21484375
-437.98828125,-1000.0,-1000.0,-45.41015625
208.49609375,-213.37890625,-25.390625,28.3203125
509.765625,999.51171875,999.51171875,29.296875
85.44921875,745.1171875,441.40625,-32.71484375
-507.32421875,-623.53515625,-886.23046875,-84.47265625
-493.1640625,-1000.0,-1000.0,-48.828125
154.78515625,-193.359375,-131.34765625,20.99609375
512.6953125,999.51171875,999.51171875,31.73828125
147.94921875,821.77734375,640.13671875,-25.390625
-451.171875,-502.44140625,-709.47265625,-92.7734375
-538.57421875,-1000.0,-1000.0,-79.58984375
65.4296875,-260.7421875,-200.1953125,0.48828125
498.53515625,979.98046875,999.51171875,42.48046875
216.796875,999.51171875,853.515625,2.9296875
-392.578125,-164.0625,-444.82421875,-60.05859375
-576.66015625,-1000.0,-1000.0,-58.59375
-9.765625,-312.5,-203.61328125,8.7890625
498.53515625,921.875,991.69921875,43.45703125
296.38671875,999.51171875,999.51171875,-10.7421875
-320.80078125,192.3828125,-82.03125,-74.70703125
-616.2109375,-1000.0,-1000.0,-69.3359375
-120.1171875,-550.29296875,-327.63671875,4.39453125
467.7734375,829.1015625,930.6640625,60.05859375
350.5859375,999.51171875,999.51171875,15.625
-259.765625,208.984375,106.4453125,-63.4765625
-611.81640625,-1000.0,-1000.0,-71.2890625
-210.44921875,-843.26171875,-539.0625,-5.37109375
405.76171875,509.765625,814.94140625,43.9453125
394.53125,999.51171875,999.51171875,18.5546875
-205.078125,148.92578125,152.34375,-59.5703125
-607.91015625,-1000.0,-1000.0,-79.58984375
-274.4140625,-1000.0,-758.7890625,-16.11328125
359.375,165.0390625,586.9140625,43.9453125
449.21875,999.51171875,999.51171875,31.25
-129.39453125,194.3359375,161.1328125,-48.33984375
-605.95703125,-1000.0,-1000.0,-87.890625
-356.93359375,-1000.0,-959.9609375,-39.55078125
293.9453125,-39.55078125,280.2734375,31.73828125
491.2109375,999.51171875,999.51171875,38.0859375
-3.41796875,689.453125,273.4375,-36.62109375
-545.41015625,-695.80078125,-996.09375,-81.0546875
-422.8515625,-1000.0,-1000.0,-43.45703125
234.86328125,56.640625,100.09765625,18.5546875
506.8359375,999.51171875,999.51171875,25.87890625
52.24609375,427.24609375,331.54296875,-29.296875
-517.578125,-885.7421875,-938.96484375,-72.265625
-477.5390625,-1000.0,-1000.0,-52.734375
154.78515625,-219.23828125,-155.2734375,12.6953125
504.8828125,999.51171875,999.51171875,25.390625
125.48828125,852.5390625,573.73046875,-37.109375
-484.375,-472.65625,-781.25,-100.5859375
-550.78125,-1000.0,-1000.0,-79.58984375
81.54296875,-160.15625,-188.4765625,-9.27734375
500.0,974.12109375,999.51171875,12.6953125
194.3359375,999.51171875,862.79296875,-27.83203125
-418.45703125,126.953125,-431.15234375,-89.35546875
-596.6796875,-1000.0,-1000.0,-79.58984375
-9.765625,-359.375,-204.1015625,-0.48828125
482.421875,955.078125,999.51171875,24.4140625
250.48828125,999.51171875,963.37890625,-14.6484375
-367.1875,13.671875,-238.76953125,-77.1484375
-626.953125,-1000.0,-1000.0,-95.21484375
-113.76953125,-578.125,-307.6171875,-30.76171875
462.890625,773.92578125,942.87109375,25.390625
336.42578125,999.51171875,999.51171875,-12.20703125
-283.69140625,175.78125,10.7421875,-84.47265625
-610.3515625,-1000.0,-1000.0,-95.703125
-174.31640625,-737.3046875,-468.75,-36.1328125
423.33984375,637.20703125,854.98046875,20.01953125
383.30078125,999.51171875,999.51171875,-13.18359375
-221.6796875,161.1328125,137.20703125,-94.23828125
-625.48828125,-1000.0,-1000.0,-116.2109375
-271.484375,-966.30859375,-703.125,-55.6640625
363.76953125,292.48046875,651.3671875,7.32421875
433.10546875,999.51171875,999.51171875,-4.39453125
-133.30078125,261.71875,167.96875,-72.265625
-590.33203125,-999.0234375,-1000.0,-95.703125
-335.9375,-1000.0,-921.38671875,-52.734375
314.94140625,96.19140625,359.375,25.87890625
490.234375,999.51171875,999.51171875,41.015625
-39.55078125,389.6484375,197.75390625,-50.78125
-570.3125,-908.69140625,-1000.0,-107.421875
-405.76171875,-1000.0,-1000.0,-65.91796875
244.62890625,-177.734375,93.26171875,-2.44140625
494.140625,999.51171875,999.51171875,0.0
14.16015625,458.0078125,295.41015625,-70.3125
-541.9921875,-899.4140625,-964.84375,-110.83984375
-449.21875,-1000.0,-1000.0,-63.4765625
185.546875,-183.10546875,-104.98046875,-1.953125
503.90625,992.1875,999.51171875,3.41796875
119.140625,999.51171875,605.46875,-56.15234375
-471.19140625,-72.75390625,-743.65234375,-105.46875
-538.0859375,-1000.0,-1000.0,-88.8671875
86.9140625,-204.58984375,-188.96484375,-36.1328125
505.37109375,999.51171875,999.51171875,-14.6484375
188.96484375,948.73046875,739.74609375,-70.80078125
-427.734375,-296.38671875,-604.98046875,-135.7421875
-579.1015625,-1000.0,-1000.0,-122.55859375
19.04296875,-260.7421875,-190.91796875,-48.828125
505.859375,938.96484375,999.51171875,-3.41796875
259.27734375,999.51171875,954.58984375,-46.875
-359.375,154.296875,-258.30078125,-116.69921875
-593.75,-1000.0,-1000.0,-113.76953125
-63.96484375,-455.56640625,-253.41796875,-44.43359375
462.890625,893.5546875,975.09765625,-7.32421875
297.8515625,999.51171875,999.51171875,-43.45703125
-310.05859375,137.6953125,-46.875,-102.05078125
-620.1171875,-1000.0,-1000.0,-109.86328125
-168.9453125,-687.98828125,-418.45703125,-53.22265625
428.7109375,683.59375,885.7421875,-2.44140625
374.51171875,999.51171875,999.51171875,-24.90234375
-233.3984375,192.87109375,124.0234375,-90.33203125
-619.140625,-1000.0,-1000.0,-107.421875
-220.21484375,-672.36328125,-613.28125,-40.52734375
416.9921875,715.8203125,748.53515625,20.99609375
437.98828125,999.51171875,999.51171875,-1.46484375
-152.83203125,199.70703125,170.41015625,-77.63671875
-600.5859375,-1000.0,-1000.0,-102.5390625
-313.96484375,-1000.0,-863.28125,-35.64453125
325.68359375,109.86328125,450.68359375,25.390625
464.84375,999.51171875,999.51171875,9.27734375
-86.9140625,235.3515625,167.48046875,-67.3828125
-597.65625,-984.86328125,-1000.0,-111.328125
-389.16015625,-1000.0,-1000.0,-61.03515625
270.01953125,-130.37109375,144.53125,14.6484375
496.58203125,999.51171875,999.51171875,10.25390625
8.30078125,690.4296875,303.22265625,-76.171875
-555.6640625,-681.640625,-967.7734375,-126.953125
-462.40234375,-1000.0,-1000.0,-78.61328125
194.82421875,-98.14453125,-34.66796875,2.9296875
490.72265625,999.51171875,999.51171875,4.39453125
82.03125,724.12109375,453.125,-59.5703125
-491.2109375,-620.1171875,-870.1171875,-98.14453125
-508.7890625,-1000.0,-1000.0,-75.68359375
124.0234375,-191.89453125,-185.546875,-10.7421875
515.13671875,999.51171875,999.51171875,3.41796875
163.0859375,955.078125,685.546875,-59.08203125
-448.2421875,-301.7578125,-667.96875,-111.328125
-554.19921875,-1000.0,-1000.0,-84.9609375
47.36328125,-174.8046875,-192.3828125,-19.53125
500.48828125,999.51171875,999.51171875,4.8828125
230.46875,999.51171875,893.06640625,-38.57421875
-381.34765625,-64.94140625,-376.46484375,-97.65625
-584.47265625,-1000.0,-1000.0,-75.1953125
-37.59765625,-249.0234375,-216.796875,-5.859375
475.09765625,960.9375,993.65234375,20.01953125
282.71484375,999.51171875,999.51171875,-25.390625
-330.078125,141.6015625,-101.07421875,-97.65625
-617.1875,-1000.0,-1000.0,-102.5390625
-137.6953125,-631.34765625,-374.0234375,-33.69140625
456.0546875,743.1640625,909.66796875,17.578125
363.76953125,999.51171875,999.51171875,-23.92578125
-255.37109375,182.12890625,84.9609375,-94.23828125
-615.72265625,-1000.0,-1000.0,-99.609375
-223.6328125,-820.3125,-562.5,-40.0390625
391.6015625,529.78515625,788.0859375,8.30078125
395.5078125,999.51171875,999.51171875,-13.18359375
-190.4296875,172.8515625,162.109375,-83.0078125
-611.81640625,-1000.0,-1000.0,-104.4921875
-300.29296875,-1000.0,-802.734375,-42.96875
341.796875,122.0703125,530.76171875,19.04296875
452.1484375,999.51171875,999.51171875,6.8359375
-92.28515625,537.59765625,174.31640625,-62.01171875
-583.984375,-794.921875,-1000.0,-93.75
-380.859375,-1000.0,-997.0703125,-46.38671875
266.6015625,-144.04296875,217.7734375,12.20703125
482.91015625,999.51171875,999.51171875,8.7890625
-22.94921875,438.96484375,241.69921875,-51.26953125
-564.94140625,-916.50390625,-1000.0,-87.890625
-416.50390625,-1000.0,-1000.0,-37.59765625
236.328125,-138.18359375,21.484375,35.15625
504.39453125,999.51171875,999.51171875,42.48046875
67.87109375,809.08203125,424.31640625,-17.08984375
-510.7421875,-547.8515625,-895.99609375,-66.89453125
-489.74609375,-1000.0,-1000.0,-35.64453125
170.8984375,-14.6484375,-106.93359375,41.50390625
521.484375,999.51171875,999.51171875,58.59375
129.8828125,769.04296875,600.5859375,-15.13671875
-479.00390625,-539.55078125,-746.58203125,-77.63671875
-548.828125,-1000.0,-1000.0,-57.12890625
69.82421875,-184.08203125,-200.1953125,10.7421875
493.65234375,999.51171875,999.51171875,30.76171875
202.63671875,986.81640625,846.6796875,-19.53125
-392.578125,-200.1953125,-456.0546875,-70.3125
-575.68359375,-1000.0,-1000.0,-62.01171875
-17.578125,-399.90234375,-207.03125,-5.859375
505.37109375,881.8359375,998.046875,30.76171875
297.8515625,999.51171875,999.51171875,-10.7421875
-332.51953125,143.5546875,-126.46484375,-89.35546875
-603.515625,-1000.0,-1000.0,-104.00390625
-101.07421875,-528.80859375,-312.01171875,-60.546875
456.54296875,847.16796875,943.359375,-33.203125
329.1015625,999.51171875,999.51171875,-60.546875
-281.25,144.04296875,40.52734375,-110.3515625
-600.09765625,-1000.0,-1000.0,-100.09765625
-176.26953125,-862.3046875,-524.90234375,-44.921875
387.6953125,448.2421875,812.98828125,-28.80859375
360.83984375,999.51171875,999.51171875,-71.2890625
-228.515625,265.13671875,163.0859375,-143.5546875
-661.1328125,-997.0703125,-1000.0,-182.6171875
-361.328125,-1000.0,-761.71875,-149.4140625
256.34765625,133.30078125,587.40234375,-112.79296875
331.0546875,999.51171875,999.51171875,-168.9453125
-257.32421875,158.69140625,158.69140625,-269.53125
-737.79296875,-1000.0,-1000.0,-319.82421875
-494.62890625,-1000.0,-964.35546875,-276.85546875
141.6015625,-141.11328125,277.34375,-213.37890625
307.6171875,999.51171875,999.51171875,-239.2578125
-202.1484375,475.5859375,232.91015625,-305.6640625
-733.3984375,-936.5234375,-1000.0,-334.47265625
-584.47265625,-1000.0,-1000.0,-278.80859375
56.640625,128.41796875,140.13671875,-221.6796875
301.26953125,999.51171875,999.51171875,-240.234375
-157.71484375,395.5078125,318.84765625,-307.6171875
-722.65625,-895.99609375,-946.77734375,-354.4921875
-645.5078125,-1000.0,-1000.0,-294.43359375
6.34765625,-228.02734375,-125.0,-216.30859375
354.00390625,999.51171875,999.51171875,-228.515625
-34.1796875,720.703125,523.4375,-279.296875
-624.0234375,-651.3671875,-821.2890625,-308.59375
-658.203125,-1000.0,-1000.0,-286.62109375
-21.484375,-185.546875,-208.49609375,-226.5625
422.36328125,999.51171875,999.51171875,-203.61328125
127.44140625,999.51171875,778.3203125,-215.8203125
-471.19140625,-134.27734375,-553.22265625,-211.9140625
-624.51171875,-1000.0,-1000.0,-182.6171875
-25.390625,-280.2734375,-212.40234375,-94.23828125
482.91015625,964.84375,999.51171875,-37.109375
248.53515625,999.51171875,928.22265625,-67.87109375
-354.00390625,-24.4140625,-315.4296875,-107.91015625
-581.0546875,-1000.0,-1000.0,-92.28515625
-43.45703125,-381.8359375,-288.57421875,-21.484375
522.4609375,897.4609375,947.75390625,30.76171875
369.140625,999.51171875,999.51171875,-4.8828125
-237.3046875,229.00390625,9.765625,-62.01171875
-554.6875,-1000.0,-1000.0,-61.03515625
-117.67578125,-728.02734375,-481.4453125,9.27734375
489.2578125,659.1796875,849.12109375,8.30078125
443.359375,999.51171875,999.51171875,-100.09765625
-163.57421875,175.78125,125.0,-166.9921875
-554.19921875,-1000.0,-1000.0,-165.0390625
-186.03515625,-847.65625,-665.52734375,-112.79296875
443.359375,481.4453125,691.89453125,-75.1953125
494.140625,999.51171875,999.51171875,-85.9375
-62.98828125,283.69140625,167.96875,-121.58203125
-516.6015625,-1000.0,-1000.0,-127.9296875
-242.1875,-831.0546875,-841.796875,-76.66015625
410.64453125,521.97265625,475.5859375,-17.08984375
551.26953125,999.51171875,999.51171875,-14.6484375
15.13671875,418.9453125,200.68359375,-80.078125
-503.90625,-864.74609375,-1000.0,-111.81640625
-334.47265625,-1000.0,-1000.0,-67.3828125
298.828125,-234.375,57.12890625,-15.625
543.9453125,999.51171875,999.51171875,-20.01953125
79.1015625,583.0078125,321.2890625,-76.66015625
-480.95703125,-820.80078125,-965.33203125,-99.609375
-401.3671875,-1000.0,-1000.0,-55.17578125
251.46484375,-119.140625,-37.59765625,0.9765625
571.2890625,999.51171875,999.51171875,9.27734375
155.2734375,702.63671875,494.140625,-41.50390625
-447.265625,-650.390625,-838.8671875,-80.078125
-481.93359375,-1000.0,-1000.0,-52.734375
142.08984375,-185.05859375,-185.546875,5.37109375
545.8984375,999.51171875,999.51171875,24.90234375
221.19140625,996.58203125,750.48828125,-20.5078125
-391.6015625,-192.3828125,-587.40234375,-75.1953125
-530.2734375,-1000.0,-1000.0,-62.98828125
56.15234375,-322.75390625,-193.84765625,-8.30078125
529.296875,918.45703125,999.51171875,13.671875
283.69140625,999.51171875,936.03515625,-23.92578125
-331.0546875,160.64453125,-295.8984375,-71.77734375
-562.5,-1000.0,-1000.0,-65.91796875
-29.296875,-515.13671875,-253.41796875,-8.7890625
512.20703125,852.5390625,968.26171875,20.5078125
345.703125,999.51171875,999.51171875,-16.11328125
-257.32421875,199.21875,-16.6015625,-62.98828125
-565.4296875,-1000.0,-1000.0,-63.4765625
-105.46875,-637.20703125,-396.97265625,-7.8125
486.328125,754.39453125,901.3671875,30.2734375
396.97265625,999.51171875,999.51171875,-9.765625
-226.07421875,200.68359375,116.69921875,-70.80078125
-612.3046875,-1000.0,-1000.0,-78.61328125
-210.44921875,-549.8046875,-549.8046875,-22.94921875
423.828125,836.42578125,803.22265625,23.92578125
437.98828125,999.51171875,999.51171875,2.9296875
-139.16015625,149.90234375,162.59765625,-56.640625
-581.0546875,-1000.0,-1000.0,-72.75390625
-291.50390625,-1000.0,-857.421875,-21.97265625
346.19140625,22.94921875,455.078125,17.578125
479.98046875,999.51171875,999.51171875,0.0
-67.3828125,307.6171875,180.6640625,-60.546875
-569.3359375,-980.95703125,-1000.0,-71.2890625
-353.515625,-1000.0,-990.234375,-9.27734375
295.8984375,10.7421875,226.07421875,33.69140625
504.8828125,999.51171875,999.51171875,11.23046875
28.80859375,695.3125,317.87109375,-41.9921875
-532.71484375,-626.953125,-953.61328125,-70.3125
-448.73046875,-1000.0,-1000.0,-37.109375
208.984375,-212.40234375,-43.9453125,23.92578125
517.578125,999.51171875,999.51171875,33.203125
99.12109375,783.203125,481.4453125,-20.99609375
-481.93359375,-572.265625,-854.98046875,-42.48046875
-490.72265625,-1000.0,-1000.0,23.4375
137.20703125,-161.62109375,-165.0390625,105.46875
519.53125,973.14453125,999.51171875,139.6484375
182.6171875,999.51171875,710.44921875,101.07421875
-410.64453125,105.46875,-634.27734375,44.921875
-538.0859375,-1000.0,-1000.0,63.4765625
59.08203125,-269.04296875,-199.21875,114.74609375
511.23046875,999.51171875,999.51171875,113.28125
217.28515625,999.51171875,865.72265625,63.4765625
-395.5078125,-156.25,-421.38671875,7.32421875
-589.35546875,-1000.0,-1000.0,10.7421875
-47.36328125,-425.29296875,-237.3046875,80.078125
482.421875,886.71875,997.55859375,116.69921875
292.96875,999.51171875,999.51171875,74.21875
-327.1484375,24.4140625,-178.7109375,-1.953125
-603.515625,-1000.0,-1000.0,33.203125
-95.21484375,-208.49609375,-293.45703125,157.71484375
477.05078125,978.515625,940.91796875,213.8671875
354.00390625,999.51171875,999.51171875,185.546875
-253.41796875,214.84375,93.75,110.83984375
-614.74609375,-1000.0,-1000.0,84.9609375
-208.49609375,-807.6171875,-554.19921875,144.04296875
416.50390625,554.19921875,799.8046875,200.1953125
404.78515625,999.51171875,999.51171875,166.015625
-198.73046875,168.45703125,138.671875,96.19140625
-608.88671875,-1000.0,-1000.0,81.0546875
-281.25,-874.0234375,-743.65234375,151.85546875
367.67578125,430.17578125,601.07421875,229.4921875
469.23828125,999.51171875,999.51171875,194.3359375
-84.9609375,367.1875,178.22265625,65.91796875
-583.0078125,-923.33984375,-1000.0,-78.125
-365.72265625,-1000.0,-981.4453125,-76.171875
299.31640625,-32.71484375,255.859375,179.6875
503.90625,999.51171875,999.51171875,405.76171875
-1.953125,436.03515625,216.796875,471.19140625
-534.1796875,-921.38671875,-1000.0,542.48046875
-392.578125,-1000.0,-1000.0,802.24609375
242.1875,5.37109375,32.71484375,592.7734375
475.5859375,999.51171875,999.51171875,-83.49609375
45.8984375,714.35546875,396.97265625,98.14453125
-499.0234375,-604.98046875,-907.71484375,443.84765625
-472.16796875,-1000.0,-1000.0,583.49609375
161.1328125,-189.94140625,-158.203125,801.26953125
525.390625,999.51171875,999.51171875,949.70703125
170.8984375,968.26171875,612.3046875,965.33203125
-437.98828125,-276.85546875,-746.09375,894.53125
-531.25,-1000.0,-1000.0,875.48828125
84.9609375,-174.8046875,-190.91796875,941.89453125
502.9296875,999.51171875,999.51171875,970.703125
200.68359375,999.51171875,847.16796875,953.125
-400.390625,-63.96484375,-456.0546875,841.796875
-586.42578125,-1000.0,-1000.0,770.01953125
3.90625,-187.5,-186.5234375,839.35546875
506.8359375,999.51171875,999.51171875,891.6015625
252.44140625,999.51171875,971.6796875,812.01171875
-363.76953125,-58.10546875,-214.84375,677.734375
-612.3046875,-1000.0,-1000.0,623.53515625
-102.05078125,-610.3515625,-321.2890625,683.10546875
477.05078125,730.95703125,934.08203125,760.25390625
356.4453125,999.51171875,999.51171875,712.40234375
-262.6953125,153.3203125,33.203125,571.2890625
-615.72265625,-1000.0,-1000.0,497.0703125
-195.80078125,-760.7421875,-466.796875,536.62109375
415.52734375,604.4921875,854.4921875,600.09765625
383.30078125,999.51171875,999.51171875,552.734375
-227.05078125,155.76171875,166.015625,400.390625
-632.8125,-1000.0,-1000.0,279.296875
-274.4140625,-1000.0,-703.61328125,274.4140625
357.421875,237.3046875,656.25,316.40625
423.33984375,999.51171875,999.51171875,270.01953125
-152.34375,155.76171875,162.59765625,135.25390625
-608.3984375,-1000.0,-1000.0,40.0390625
-350.5859375,-1000.0,-932.6171875,81.0546875
294.43359375,-12.20703125,337.40234375,186.03515625
479.4921875,999.51171875,999.51171875,204.1015625
-28.80859375,354.00390625,205.078125,123.53515625
-547.8515625,-932.12890625,-1000.0,42.96875
-421.875,-1000.0,-1000.0,-21.97265625
204.58984375,-221.6796875,77.63671875,19.53125
485.3515625,999.51171875,999.51171875,167.48046875
39.55078125,686.5234375,368.65234375,197.75390625
-545.41015625,-689.453125,-930.17578125,145.5078125
-488.76953125,-1000.0,-1000.0,196.77734375
168.45703125,-201.66015625,-97.16796875,328.61328125
493.1640625,999.51171875,999.51171875,378.90625
90.8203125,892.08984375,576.171875,297.36328125
-496.09375,-409.1796875,-776.3671875,201.66015625
-536.1328125,-1000.0,-1000.0,207.03125
107.421875,-183.59375,-162.59765625,311.03515625
515.13671875,999.51171875,999.51171875,375.9765625
186.03515625,939.94140625,769.53125,311.03515625
-417.48046875,-315.91796875,-555.6640625,198.2421875
-577.63671875,-1000.0,-1000.0,167.96875
15.13671875,-226.5625,-187.01171875,255.859375
510.25390625,964.35546875,999.51171875,334.9609375
266.11328125,999.51171875,975.5859375,287.59765625
-352.5390625,55.6640625,-215.33203125,169.921875
-600.5859375,-1000.0,-1000.0,128.41796875
-72.75390625,-543.45703125,-257.32421875,208.49609375
476.5625,809.08203125,958.0078125,285.15625
327.1484375,999.51171875,999.51171875,246.09375
-287.59765625,183.59375,67.3828125,127.9296875
-610.83984375,-1000.0,-1000.0,72.265625
-166.015625,-852.5390625,-438.96484375,144.04296875
429.6875,489.2578125,887.6953125,242.1875
390.13671875,999.51171875,999.51171875,235.83984375
-216.796875,153.3203125,116.2109375,119.62890625
-607.421875,-1000.0,-1000.0,50.78125
-236.328125,-975.5859375,-650.390625,113.28125
392.08984375,277.83203125,704.58984375,206.54296875
439.453125,999.51171875,999.51171875,213.37890625
-139.16015625,272.94921875,175.78125,105.46875
-591.30859375,-1000.0,-1000.0,28.80859375
-306.640625,-778.80859375,-810.05859375,80.078125
345.21484375,600.5859375,522.4609375,180.6640625
478.515625,999.51171875,999.51171875,197.75390625
-63.4765625,227.5390625,172.8515625,96.19140625
-573.2421875,-975.5859375,-1000.0,7.32421875
-373.53515625,-1000.0,-1000.0,46.38671875
280.2734375,-97.16796875,142.08984375,144.53125
502.9296875,999.51171875,999.51171875,173.828125
24.90234375,491.2109375,293.45703125,88.8671875
-546.875,-889.6484375,-975.09765625,-21.484375
-469.7265625,-1000.0,-1000.0,-6.8359375
198.2421875,-31.25,-17.578125,105.46875
515.625,999.51171875,999.51171875,162.109375
100.09765625,781.73828125,481.93359375,89.35546875
-490.72265625,-525.390625,-846.19140625,-19.53125
-504.8828125,-1000.0,-1000.0,-7.32421875
131.34765625,-205.078125,-184.5703125,107.91015625
519.53125,999.51171875,999.51171875,161.62109375
172.36328125,841.30859375,701.66015625,95.21484375
-451.66015625,-489.2578125,-649.4140625,-10.7421875
-574.70703125,-1000.0,-1000.0,-33.69140625
44.43359375,-158.203125,-189.453125,66.89453125
513.18359375,970.703125,999.51171875,151.85546875
247.55859375,999.51171875,946.77734375,98.6328125
-366.2109375,159.1796875,-280.76171875,-17.08984375
-598.14453125,-1000.0,-1000.0,-46.875
-53.7109375,-492.67578125,-240.234375,48.33984375
483.3984375,863.28125,978.515625,134.27734375
300.29296875,999.51171875,999.51171875,92.28515625
-308.10546875,207.03125,-45.41015625,-19.53125
-610.3515625,-1000.0,-1000.0,-60.05859375
-143.5546875,-613.28125,-379.8828125,26.3671875
454.1015625,779.78515625,911.62109375,130.859375
363.76953125,999.51171875,999.51171875,113.28125
-256.8359375,166.9921875,86.9140625,-0.9765625
-612.3046875,-1000.0,-1000.0,-60.05859375
-212.40234375,-915.52734375,-589.84375,4.8828125
400.390625,392.578125,759.765625,107.421875
416.9921875,999.51171875,999.51171875,107.91015625
-170.8984375,158.69140625,160.64453125,-0.9765625
-602.5390625,-1000.0,-1000.0,-61.03515625
-291.015625,-956.0546875,-794.921875,3.90625
347.65625,291.9921875,541.015625,102.5390625
448.2421875,999.51171875,999.51171875,116.2109375
-103.515625,436.03515625,179.6875,10.7421875
-602.5390625,-896.484375,-1000.0,-74.21875
-394.04296875,-1000.0,-1000.0,-25.87890625
273.4375,16.11328125,191.89453125,83.984375
486.328125,999.51171875,999.51171875,117.67578125
-25.390625,358.3984375,228.02734375,25.390625
-567.3828125,-929.6875,-1000.0,-65.91796875
-441.40625,-1000.0,-1000.0,-40.52734375
208.984375,-210.44921875,-19.53125,66.40625
515.625,999.51171875,999.51171875,119.62890625
86.9140625,742.67578125,436.5234375,34.1796875
-502.9296875,-620.60546875,-884.27734375,-78.61328125
-500.48828125,-1000.0,-1000.0,-76.66015625
140.625,-164.55078125,-145.01953125,29.296875
519.04296875,975.09765625,999.51171875,100.09765625
165.0390625,999.51171875,736.328125,32.2265625
-434.5703125,69.82421875,-599.12109375,-74.70703125
-549.8046875,-1000.0,-1000.0,-78.61328125
58.59375,-251.953125,-194.82421875,17.08984375
513.18359375,999.51171875,999.51171875,94.7265625
227.5390625,999.51171875,866.2109375,44.43359375
-392.578125,-43.9453125,-420.8984375,-63.4765625
-585.9375,-1000.0,-1000.0,-84.47265625
-20.5078125,-412.59765625,-217.7734375,4.8828125
510.7421875,887.20703125,998.046875,97.16796875
310.546875,999.51171875,999.51171875,64.94140625
-322.265625,164.55078125,-139.16015625,-50.78125
-603.515625,-1000.0,-1000.0,-93.26171875
-106.93359375,-477.5390625,-301.26953125,-8.7890625
455.56640625,875.9765625,941.89453125,88.8671875
348.6328125,999.51171875,999.51171875,84.9609375
-257.32421875,186.5234375,80.078125,-20.99609375
-614.2578125,-1000.0,-1000.0,-81.0546875
-196.2890625,-880.37109375,-538.57421875,-7.32421875
418.45703125,448.2421875,809.5703125,88.8671875
402.34375,999.51171875,999.51171875,72.75390625
-192.87109375,166.015625,153.3203125,-38.0859375
-612.79296875,-1000.0,-1000.0,-96.19140625
-276.85546875,-914.0625,-750.9765625,-30.2734375
385.7421875,385.7421875,599.609375,86.42578125
469.23828125,999.51171875,999.51171875,102.05078125
-111.81640625,232.91015625,158.69140625,-12.20703125
-592.7734375,-972.65625,-1000.0,-99.12109375
-355.95703125,-1000.0,-979.00390625,-48.828125
296.38671875,-131.34765625,253.41796875,67.87109375
499.51171875,999.51171875,999.51171875,98.14453125
-32.71484375,381.8359375,216.30859375,-9.765625
-580.56640625,-939.94140625,-1000.0,-101.5625
-419.921875,-1000.0,-1000.0,-58.59375
238.76953125,-158.203125,45.8984375,54.6875
511.71875,999.51171875,999.51171875,95.21484375
67.87109375,854.4921875,407.2265625,8.7890625
-515.625,-450.1953125,-903.3203125,-86.42578125
-487.79296875,-1000.0,-1000.0,-68.84765625
148.4375,-203.125,-135.7421875,29.78515625
492.67578125,999.51171875,999.51171875,78.61328125
127.9296875,856.93359375,577.63671875,19.04296875
-474.609375,-466.30859375,-774.90234375,-84.9609375
-545.8984375,-1000.0,-1000.0,-88.37890625
78.61328125,-179.19921875,-188.96484375,18.5546875
509.27734375,999.51171875,999.51171875,91.796875
208.0078125,999.51171875,812.5,37.109375
-413.57421875,-145.01953125,-500.9765625,-79.58984375
-579.1015625,-1000.0,-1000.0,-96.19140625
3.90625,-344.7265625,-201.171875,11.71875
501.953125,946.77734375,999.51171875,94.7265625
264.6484375,999.51171875,956.0546875,48.33984375
-354.98046875,-85.9375,-256.34765625,-55.6640625
-595.703125,-1000.0,-1000.0,-77.63671875
-76.171875,-489.74609375,-279.296875,2.9296875
472.65625,833.49609375,948.2421875,83.0078125
325.68359375,999.51171875,999.51171875,55.6640625
-279.296875,198.73046875,53.7109375,-52.24609375
-603.515625,-1000.0,-1000.0,-92.28515625
-165.0390625,-715.8203125,-442.87109375,-14.6484375
435.546875,668.45703125,877.9296875,76.66015625
401.3671875,999.51171875,999.51171875,80.078125
-228.02734375,157.2265625,154.78515625,-39.55078125
-631.8359375,-1000.0,-1000.0,-110.83984375
-245.60546875,-1000.0,-698.73046875,-20.5078125
378.90625,230.95703125,659.66796875,77.1484375
435.546875,999.51171875,999.51171875,71.77734375
-144.04296875,192.87109375,165.52734375,-30.2734375
-610.3515625,-1000.0,-1000.0,-102.05078125
-347.65625,-1000.0,-895.5078125,-48.828125
312.01171875,53.7109375,394.53125,58.10546875
481.93359375,999.51171875,999.51171875,85.9375
-33.203125,751.953125,224.12109375,-1.953125
-562.01171875,-607.91015625,-1000.0,-93.26171875
-416.9921875,-1000.0,-1000.0,-66.89453125
240.72265625,106.4453125,163.0859375,40.0390625
491.69921875,999.51171875,999.51171875,85.9375
13.671875,428.22265625,291.015625,-4.8828125
-556.640625,-879.39453125,-960.9375,-106.93359375
-464.84375,-1000.0,-1000.0,-73.73046875
198.2421875,-224.12109375,-113.28125,41.50390625
537.59765625,999.51171875,999.51171875,100.5859375
136.23046875,797.36328125,505.859375,28.3203125
-471.6796875,-554.19921875,-842.7734375,-80.56640625
-516.11328125,-1000.0,-1000.0,-85.9375
99.12109375,-176.7578125,-170.41015625,4.8828125
496.09375,999.51171875,999.51171875,73.73046875
178.22265625,931.15234375,721.19140625,26.85546875
-453.125,-338.8671875,-621.58203125,-90.33203125
-592.7734375,-1000.0,-1000.0,-103.515625
30.2734375,-174.31640625,-195.80078125,8.7890625
507.32421875,999.51171875,999.51171875,87.890625
247.0703125,999.51171875,923.828125,41.50390625
-372.55859375,-64.94140625,-325.68359375,-73.73046875
-601.5625,-1000.0,-1000.0,-106.4453125
-53.22265625,-322.75390625,-234.375,-8.30078125
483.88671875,946.2890625,987.3046875,79.58984375
287.59765625,999.51171875,999.51171875,39.55078125
-317.87109375,21.484375,-93.26171875,-57.12890625
-602.5390625,-1000.0,-1000.0,-88.37890625
-144.53125,-620.60546875,-395.01953125,-12.6953125
445.3125,731.93359375,893.5546875,81.0546875
372.55859375,999.51171875,999.51171875,66.89453125
-233.3984375,186.5234375,124.51171875,-39.55078125
-621.58203125,-1000.0,-1000.0,-102.05078125
-234.86328125,-771.484375,-584.9609375,-33.203125
397.4609375,588.8671875,770.01953125,70.80078125
413.0859375,999.51171875,999.51171875,72.75390625
-187.01171875,224.609375,167.48046875,-41.50390625
-633.30078125,-991.69921875,-1000.0,-119.140625
-330.078125,-1000.0,-887.6953125,-49.31640625
326.171875,14.6484375,415.0390625,62.5
480.46875,999.51171875,999.51171875,91.30859375
-66.40625,316.40625,176.7578125,-0.9765625
-579.58984375,-982.421875,-1000.0,-89.84375
-375.48828125,-1000.0,-989.74609375,-55.6640625
278.3203125,20.5078125,229.4921875,47.36328125
487.3046875,999.51171875,999.51171875,76.66015625
-0.9765625,503.90625,270.01953125,-12.6953125
-557.12890625,-875.9765625,-985.3515625,-105.46875
-456.0546875,-1000.0,-1000.0,-80.56640625
209.9609375,52.24609375,12.6953125,31.73828125
519.04296875,999.51171875,999.51171875,92.7734375
75.1953125,665.52734375,431.15234375,11.23046875
-544.921875,-658.69140625,-879.39453125,-115.234375
-537.59765625,-1000.0,-1000.0,-95.703125
121.58203125,-191.89453125,-187.5,25.87890625
511.23046875,999.51171875,999.51171875,82.03125
162.59765625,958.984375,679.19921875,20.01953125
-448.73046875,-279.78515625,-674.31640625,-82.03125
-561.03515625,-1000.0,-1000.0,-93.26171875
45.41015625,-278.80859375,-196.77734375,3.41796875
507.32421875,953.125,999.51171875,82.03125
234.86328125,999.51171875,903.3203125,31.25
-382.32421875,-6.34765625,-363.28125,-76.171875
-600.09765625,-1000.0,-1000.0,-109.86328125
-42.96875,-341.30859375,-217.28515625,-19.53125
498.046875,949.70703125,999.51171875,81.0546875
291.9921875,999.51171875,999.51171875,36.1328125
-334.9609375,-3.41796875,-166.9921875,-77.63671875
-616.69921875,-1000.0,-1000.0,-115.234375
-113.76953125,-484.375,-315.4296875,-31.73828125
472.16796875,844.7265625,927.24609375,67.3828125
367.67578125,999.51171875,999.51171875,49.31640625
-241.69921875,191.89453125,126.46484375,-60.546875
-609.86328125,-1000.0,-1000.0,-106.4453125
-220.21484375,-957.51953125,-556.15234375,-40.52734375
399.90234375,330.56640625,799.8046875,44.43359375
426.26953125,999.51171875,999.51171875,59.5703125
-170.8984375,166.9921875,161.1328125,-38.57421875
-600.09765625,-1000.0,-1000.0,-111.81640625
-267.578125,-909.66796875,-726.5625,-50.29296875
369.140625,390.13671875,626.46484375,52.24609375
456.0546875,999.51171875,999.51171875,72.265625
-119.140625,281.25,174.8046875,-34.66796875
-609.375,-1000.0,-1000.0,-113.76953125
-354.00390625,-838.37890625,-901.85546875,-56.15234375
299.31640625,516.11328125,385.25390625,51.26953125
467.28515625,999.51171875,999.51171875,78.61328125
-38.0859375,308.59375,213.37890625,-6.34765625
-562.5,-927.734375,-1000.0,-89.35546875
-430.6640625,-1000.0,-1000.0,-60.05859375
219.7265625,-192.87109375,11.71875,56.640625
503.90625,999.51171875,999.51171875,98.6328125
62.98828125,704.58984375,376.953125,14.16015625
-513.671875,-660.64453125,-922.8515625,-85.44921875
-489.74609375,-1000.0,-1000.0,-81.54296875
156.73828125,-201.171875,-155.2734375,23.4375
536.1328125,999.51171875,999.51171875,102.05078125
160.15625,893.06640625,604.00390625,34.1796875
-472.65625,-407.71484375,-751.46484375,-94.7265625
-537.59765625,-1000.0,-1000.0,-97.65625
90.33203125,-190.4296875,-201.66015625,17.578125
517.578125,999.51171875,999.51171875,98.14453125
219.7265625,999.51171875,824.70703125,39.0625
-384.27734375,-124.0234375,-485.83984375,-64.453125
-559.5703125,-1000.0,-1000.0,-83.49609375
13.671875,-245.60546875,-187.01171875,-0.48828125
509.27734375,948.73046875,999.0234375,75.1953125
281.25,999.51171875,999.51171875,36.62109375
-312.01171875,226.5625,-91.30859375,-67.87109375
-605.95703125,-1000.0,-1000.0,-125.9765625
-118.65234375,-584.9609375,-300.29296875,-49.8046875
476.5625,845.703125,961.9140625,69.3359375
332.03125,999.51171875,999.51171875,54.6875
-294.921875,-53.22265625,-15.625,-58.59375
-612.3046875,-1000.0,-1000.0,-115.234375
-176.26953125,-770.5078125,-481.4453125,-38.0859375
428.7109375,543.45703125,842.28515625,63.96484375
403.3203125,999.51171875,999.51171875,58.59375
-201.171875,195.3125,146.484375,-48.33984375
-623.046875,-1000.0,-1000.0,-118.1640625
-249.51171875,-516.6015625,-614.2578125,-48.828125
385.7421875,844.23828125,746.09375,54.19921875
418.45703125,999.51171875,999.51171875,51.7578125
-131.8359375,365.72265625,169.43359375,-40.0390625
-603.515625,-928.7109375,-1000.0,-122.55859375
-366.2109375,-1000.0,-942.87109375,-81.0546875
299.31640625,-12.6953125,320.3125,42.96875
480.95703125,999.51171875,999.51171875,74.70703125
-42.96875,375.0,193.359375,-20.01953125
-574.70703125,-931.15234375,-1000.0,-110.83984375
-420.8984375,-1000.0,-1000.0,-79.1015625
238.76953125,-163.0859375,54.19921875,27.83203125
510.7421875,999.51171875,999.51171875,69.3359375
47.36328125,613.28125,329.58984375,-12.6953125
-524.90234375,-761.71875,-947.75390625,-95.703125
-451.66015625,-1000.0,-1000.0,-62.01171875
190.4296875,-193.84765625,-125.0,37.59765625
510.7421875,999.51171875,999.51171875,84.9609375
123.53515625,971.6796875,569.3359375,20.01953125
-474.609375,-272.94921875,-781.25,-87.40234375
-540.0390625,-1000.0,-1000.0,-98.14453125
103.515625,-158.69140625,-184.08203125,22.4609375
520.5078125,975.09765625,999.51171875,97.16796875
188.96484375,999.51171875,810.05859375,29.296875
-416.9921875,181.640625,-503.90625,-77.1484375
-574.21875,-1000.0,-1000.0,-93.75
13.18359375,-339.35546875,-190.4296875,6.34765625
493.1640625,975.09765625,999.51171875,76.171875
238.28125,999.51171875,955.56640625,19.53125
-374.0234375,-14.6484375,-260.25390625,-75.68359375
-600.09765625,-1000.0,-1000.0,-96.6796875
-65.91796875,-440.4296875,-250.48828125,-11.23046875
489.74609375,870.1171875,961.9140625,85.44921875
339.35546875,999.51171875,999.51171875,62.5
-277.34375,207.03125,37.59765625,-52.24609375
-606.93359375,-1000.0,-1000.0,-105.95703125
-132.8125,-318.84765625,-352.5390625,-30.2734375
462.890625,959.9609375,929.19921875,70.3125
387.20703125,999.51171875,999.51171875,63.96484375
-242.1875,186.5234375,120.60546875,-61.5234375
-639.6484375,-1000.0,-1000.0,-128.90625
-246.09375,-939.453125,-645.5078125,-46.875
383.30078125,352.05078125,710.9375,62.01171875
425.78125,999.51171875,999.51171875,74.70703125
-156.73828125,156.25,163.0859375,-29.296875
-601.07421875,-1000.0,-1000.0,-101.5625
-319.82421875,-1000.0,-877.9296875,-49.31640625
331.0546875,80.078125,425.78125,53.22265625
483.3984375,999.51171875,999.51171875,78.125
-57.12890625,456.54296875,178.7109375,-17.08984375
-587.40234375,-863.76953125,-1000.0,-118.1640625
-426.7578125,-1000.0,-1000.0,-100.5859375
234.86328125,-224.12109375,93.26171875,20.01953125
490.72265625,999.51171875,999.51171875,74.21875
4.39453125,526.85546875,280.76171875,-14.16015625
-551.26953125,-856.93359375,-973.14453125,-107.91015625
-455.56640625,-1000.0,-1000.0,-87.40234375
190.91796875,-202.1484375,-92.28515625,17.578125
508.7890625,999.51171875,999.51171875,73.73046875
90.33203125,951.171875,479.00390625,-3.41796875
-490.72265625,-308.10546875,-856.93359375,-99.12109375
-498.046875,-1000.0,-1000.0,-82.51953125
114.74609375,-187.5,-187.98828125,4.39453125
498.046875,999.51171875,999.51171875,67.87109375
176.7578125,984.86328125,704.1015625,22.94921875
-427.734375,-237.3046875,-643.5546875,-86.9140625
-565.4296875,-1000.0,-1000.0,-104.98046875
42.96875,-229.98046875,-199.21875,0.0
508.7890625,999.51171875,999.51171875,78.61328125
228.515625,999.51171875,884.765625,22.4609375
-394.53125,-162.59765625,-395.5078125,-87.890625
-605.95703125,-1000.0,-1000.0,-112.3046875
-32.2265625,-168.45703125,-199.21875,-17.08984375
486.328125,986.328125,999.51171875,65.4296875
280.76171875,999.51171875,999.51171875,29.78515625
-323.2421875,115.72265625,-102.05078125,-80.078125
-614.2578125,-1000.0,-1000.0,-126.953125
-132.32421875,-600.09765625,-369.140625,-38.0859375
458.984375,767.578125,912.109375,65.91796875
359.86328125,999.51171875,999.51171875,52.734375
-244.62890625,180.6640625,84.9609375,-53.7109375
-612.79296875,-1000.0,-1000.0,-111.81640625
-231.4453125,-846.6796875,-583.984375,-48.828125
395.5078125,479.00390625,767.08984375,60.05859375
410.64453125,999.51171875,999.51171875,60.546875
-197.265625,288.0859375,169.921875,-70.3125
-638.18359375,-979.4921875,-1000.0,-141.6015625
-311.5234375,-1000.0,-833.984375,-66.40625
343.26171875,85.9375,492.67578125,46.38671875
468.26171875,999.51171875,999.51171875,72.75390625
-92.7734375,258.7890625,166.50390625,-30.76171875
-589.84375,-1000.0,-1000.0,-115.72265625
-364.2578125,-1000.0,-974.609375,-70.80078125
288.0859375,136.71875,262.20703125,34.1796875
478.515625,999.51171875,999.51171875,60.05859375
-31.73828125,424.31640625,245.60546875,-32.71484375
-576.171875,-878.41796875,-988.28125,-124.51171875
-467.28515625,-1000.0,-1000.0,-109.86328125
175.29296875,-227.05078125,-25.87890625,2.44140625
465.33203125,999.51171875,999.51171875,54.6875
33.203125,606.4453125,389.16015625,-27.34375
-550.29296875,-782.71484375,-918.9453125,-131.8359375
-544.921875,-1000.0,-1000.0,-143.5546875
79.1015625,-206.54296875,-170.8984375,-61.5234375
430.17578125,999.51171875,999.51171875,-19.04296875
55.17578125,881.8359375,625.9765625,-90.33203125
-549.8046875,-426.26953125,-732.421875,-192.3828125
-660.15625,-1000.0,-1000.0,-215.33203125
-63.4765625,-183.10546875,-193.359375,-134.765625
376.46484375,999.51171875,999.51171875,-66.89453125
74.21875,993.1640625,832.03125,-124.0234375
-543.45703125,-189.453125,-472.65625,-234.86328125
-741.2109375,-1000.0,-1000.0,-265.625
-180.17578125,-402.83203125,-222.16796875,-170.8984375
339.35546875,881.34765625,999.51171875,-79.58984375
121.09375,999.51171875,999.51171875,-120.1171875
-493.1640625,142.08984375,-166.50390625,-232.91015625
-748.53515625,-1000.0,-1000.0,-264.16015625
-242.67578125,-512.6953125,-314.94140625,-177.734375
317.3828125,851.5625,932.6171875,-90.8203125
203.61328125,999.51171875,999.51171875,-105.46875
-398.92578125,208.0078125,87.40234375,-209.9609375
-740.72265625,-1000.0,-1000.0,-251.953125
-294.43359375,-518.5546875,-451.171875,-170.41015625
314.94140625,858.88671875,875.0,-71.77734375
316.40625,999.51171875,999.51171875,-39.0625
-260.7421875,167.48046875,148.92578125,-119.140625
-677.734375,-1000.0,-1000.0,-180.17578125
-314.94140625,-1000.0,-755.859375,-100.5859375
335.9375,222.65625,589.84375,17.578125
429.19921875,999.51171875,999.51171875,37.109375
-121.58203125,321.77734375,162.109375,-47.8515625
-589.35546875,-959.9609375,-1000.0,-114.74609375
-338.37890625,-1000.0,-954.58984375,-59.08203125
320.3125,14.16015625,298.33984375,66.89453125
502.9296875,999.51171875,999.51171875,94.23828125
-16.11328125,336.9140625,196.77734375,-4.39453125
-526.85546875,-950.68359375,-1000.0,-77.1484375
-367.1875,-1000.0,-1000.0,-36.1328125
269.53125,-134.765625,75.68359375,72.265625
544.921875,999.51171875,999.51171875,122.55859375
98.14453125,603.02734375,343.75,46.875
-480.46875,-788.57421875,-944.82421875,-46.875
-421.875,-1000.0,-1000.0,-20.99609375
236.328125,-41.50390625,-82.03125,85.44921875
574.21875,999.51171875,999.51171875,138.671875
185.05859375,954.1015625,583.0078125,72.265625
-422.36328125,-254.8828125,-756.8359375,-42.96875
-488.76953125,-1000.0,-1000.0,-43.9453125
148.4375,-175.29296875,-192.87109375,68.84765625
570.3125,999.51171875,999.51171875,137.20703125
256.34765625,999.51171875,808.10546875,84.47265625
-349.609375,-61.5234375,-508.30078125,-11.71875
-506.8359375,-1000.0,-1000.0,-27.83203125
71.77734375,-264.16015625,-188.4765625,59.5703125
560.546875,947.75390625,999.51171875,143.06640625
336.42578125,999.51171875,999.51171875,102.05078125
-286.1328125,211.42578125,-160.15625,-18.06640625
-558.59375,-1000.0,-1000.0,-60.546875
-38.57421875,-606.93359375,-296.875,33.203125
526.85546875,794.43359375,959.9609375,133.7890625
373.53515625,999.51171875,999.51171875,104.4921875
-242.67578125,112.79296875,-36.62109375,-5.37109375
-559.5703125,-1000.0,-1000.0,-53.7109375
-112.79296875,-695.80078125,-434.5703125,15.625
495.60546875,672.36328125,875.48828125,123.53515625
452.63671875,999.51171875,999.51171875,124.51171875
-170.8984375,197.75390625,135.25390625,-1.46484375
-572.75390625,-1000.0,-1000.0,-63.96484375
-193.84765625,-514.16015625,-603.02734375,1.46484375
409.66796875,857.421875,752.9296875,77.1484375
454.58984375,999.51171875,999.51171875,93.26171875
-98.6328125,195.3125,169.921875,6.34765625
-562.98828125,-1000.0,-1000.0,-69.3359375
-281.25,-1000.0,-893.06640625,-15.13671875
369.140625,44.43359375,404.78515625,86.9140625
511.71875,999.51171875,999.51171875,105.46875
-34.1796875,279.78515625,181.15234375,1.46484375
-559.08203125,-992.67578125,-1000.0,-93.26171875
-374.0234375,-1000.0,-1000.0,-55.6640625
289.0625,8.30078125,160.64453125,51.7578125
534.1796875,999.51171875,999.51171875,94.23828125
53.7109375,487.3046875,311.03515625,15.625
-520.5078125,-847.16796875,-955.078125,-89.35546875
-437.98828125,-1000.0,-1000.0,-63.4765625
200.68359375,-232.91015625,-82.51953125,30.2734375
516.6015625,999.51171875,999.51171875,71.2890625
119.62890625,650.87890625,472.65625,11.71875
-469.7265625,-734.86328125,-861.81640625,-91.796875
-477.05078125,-1000.0,-1000.0,-82.51953125
154.78515625,-168.45703125,-184.08203125,24.90234375
541.9921875,974.609375,999.51171875,92.28515625
210.9375,999.51171875,805.6640625,27.34375
-416.015625,63.4765625,-515.13671875,-92.7734375
-562.5,-1000.0,-1000.0,-93.26171875
51.7578125,-255.859375,-192.87109375,13.671875
525.87890625,969.23828125,999.51171875,83.0078125
263.18359375,999.51171875,932.12890625,39.0625
-351.5625,179.19921875,-308.10546875,-65.91796875
-576.171875,-1000.0,-1000.0,-95.21484375
-38.0859375,-408.203125,-232.91015625,-7.32421875
494.140625,923.828125,984.375,84.47265625
321.2890625,999.51171875,999.51171875,59.08203125
-288.57421875,119.62890625,-70.80078125,-48.33984375
-591.796875,-1000.0,-1000.0,-96.6796875
-125.48828125,-672.8515625,-384.27734375,-20.99609375
466.796875,695.80078125,904.296875,81.0546875
393.06640625,999.51171875,999.51171875,67.87109375
-228.515625,181.15234375,98.6328125,-53.22265625
-605.95703125,-1000.0,-1000.0,-114.74609375
-202.1484375,-803.7109375,-572.75390625,-40.0390625
422.36328125,531.73828125,777.34375,62.5
428.22265625,999.51171875,999.51171875,58.10546875
-153.3203125,380.37109375,174.31640625,-44.43359375
-588.8671875,-945.80078125,-1000.0,-106.4453125
-309.5703125,-1000.0,-831.54296875,-59.08203125
337.40234375,149.4140625,495.60546875,40.52734375
471.6796875,999.51171875,999.51171875,62.01171875
-89.84375,256.34765625,170.8984375,-41.015625
-598.14453125,-971.19140625,-1000.0,-131.34765625
-401.85546875,-1000.0,-1000.0,-90.8203125
268.06640625,-164.0625,161.62109375,37.109375
501.46484375,999.51171875,999.51171875,73.73046875
9.765625,579.1015625,274.90234375,-26.3671875
-537.109375,-794.921875,-979.98046875,-112.79296875
-433.10546875,-1000.0,-1000.0,-73.2421875
216.30859375,-174.8046875,-30.76171875,29.78515625
509.27734375,999.51171875,999.51171875,68.359375
91.796875,999.51171875,512.20703125,-13.18359375
-484.86328125,-164.55078125,-824.21875,-113.28125
-498.046875,-1000.0,-1000.0,-97.16796875
119.140625,-198.73046875,-178.7109375,-7.32421875
495.60546875,999.51171875,999.51171875,51.7578125
167.96875,947.75390625,661.1328125,14.6484375
-437.5,-314.453125,-695.80078125,-84.47265625
-541.015625,-1000.0,-1000.0,-93.75
84.47265625,-170.8984375,-196.2890625,7.8125
534.1796875,993.1640625,999.51171875,82.51953125
250.0,999.51171875,861.328125,34.1796875
-365.72265625,-18.5546875,-430.17578125,-73.73046875
-564.453125,-1000.0,-1000.0,-94.23828125
0.0,-200.1953125,-207.03125,-3.41796875
505.37109375,999.51171875,999.51171875,74.70703125
301.26953125,999.51171875,991.69921875,45.41015625
-316.40625,2.9296875,-179.19921875,-60.05859375
-600.09765625,-1000.0,-1000.0,-104.00390625
-130.37109375,-575.1953125,-333.0078125,-41.015625
422.36328125,770.99609375,926.26953125,38.57421875
325.68359375,999.51171875,999.51171875,32.2265625
-278.3203125,183.59375,66.89453125,-68.359375
-630.859375,-1000.0,-1000.0,-122.55859375
-216.30859375,-792.96875,-544.921875,-54.19921875
417.96875,572.265625,804.6875,58.59375
408.203125,999.51171875,999.51171875,61.5234375
-201.66015625,169.43359375,142.578125,-56.15234375
-621.58203125,-1000.0,-1000.0,-123.53515625
-293.45703125,-891.6015625,-738.28125,-60.546875
365.234375,427.734375,610.3515625,51.7578125
462.890625,999.51171875,999.51171875,67.3828125
-125.0,154.78515625,155.2734375,-43.9453125
-615.234375,-1000.0,-1000.0,-121.58203125
-370.1171875,-1000.0,-985.3515625,-71.77734375
281.73828125,-85.44921875,235.83984375,40.0390625
482.91015625,999.51171875,999.51171875,77.1484375
-16.11328125,789.55078125,245.60546875,-17.08984375
-566.89453125,-550.78125,-997.55859375,-115.234375
-449.70703125,-1000.0,-1000.0,-92.28515625
212.40234375,-60.05859375,25.390625,16.11328125
498.046875,999.51171875,999.51171875,67.87109375
46.38671875,531.25,323.2421875,-0.9765625
-526.3671875,-822.75390625,-946.77734375,-96.19140625
-491.69921875,-1000.0,-1000.0,-86.42578125
144.04296875,-219.7265625,-172.8515625,21.484375
504.8828125,999.51171875,999.51171875,73.73046875
119.140625,783.203125,542.96875,-2.9296875
-486.328125,-570.80078125,-814.453125,-104.4921875
-534.1796875,-1000.0,-1000.0,-102.5390625
90.8203125,-180.6640625,-194.3359375,0.48828125
510.7421875,999.51171875,999.51171875,64.453125
213.37890625,999.51171875,779.78515625,12.20703125
-412.109375,-157.2265625,-545.41015625,-95.703125
-583.984375,-1000.0,-1000.0,-110.83984375
11.71875,-254.39453125,-208.0078125,-6.8359375
508.7890625,967.28515625,999.51171875,74.70703125
270.99609375,999.51171875,946.77734375,30.2734375
-350.09765625,20.5078125,-272.94921875,-84.9609375
-607.421875,-1000.0,-1000.0,-121.58203125
-94.7265625,-538.57421875,-313.96484375,-29.78515625
470.703125,810.546875,933.59375,61.03515625
333.984375,999.51171875,999.51171875,30.2734375
-279.78515625,185.05859375,39.0625,-70.80078125
-622.0703125,-1000.0,-1000.0,-122.0703125
-202.63671875,-836.42578125,-521.484375,-57.12890625
406.73828125,510.7421875,823.2421875,43.45703125
386.23046875,999.51171875,999.51171875,42.96875
-218.26171875,162.109375,117.1875,-61.03515625
-610.83984375,-1000.0,-1000.0,-119.62890625
-245.1171875,-936.03515625,-703.125,-52.24609375
395.5078125,326.171875,646.484375,57.12890625
458.0078125,999.51171875,999.51171875,69.82421875
-116.2109375,474.609375,165.0390625,-38.0859375
-589.35546875,-887.20703125,-1000.0,-122.55859375
-338.8671875,-1000.0,-923.33984375,-69.82421875
331.0546875,107.91015625,357.421875,51.7578125
468.75,999.51171875,999.51171875,54.6875
-80.078125,304.19921875,188.96484375,-57.12890625
-569.82421875,-954.58984375,-1000.0,-125.9765625
-398.92578125,-1000.0,-1000.0,-93.26171875
249.0234375,-146.484375,111.328125,9.765625
508.30078125,999.51171875,999.51171875,59.08203125
45.41015625,670.8984375,363.76953125,-16.6015625
-538.0859375,-710.44921875,-938.96484375,-118.65234375
-465.8203125,-1000.0,-1000.0,-104.00390625
194.82421875,-98.14453125,-35.64453125,4.39453125
519.53125,999.51171875,999.51171875,59.5703125
119.140625,746.09375,543.9453125,-16.6015625
-479.98046875,-592.28515625,-796.38671875,-114.74609375
-501.46484375,-1000.0,-1000.0,-94.7265625
132.32421875,-189.453125,-149.90234375,9.765625
516.6015625,999.51171875,999.51171875,62.98828125
175.29296875,966.796875,786.62109375,-4.39453125
-429.19921875,-267.578125,-529.78515625,-106.93359375
-565.91796875,-1000.0,-1000.0,-126.46484375
37.59765625,-259.765625,-183.59375,-21.97265625
523.92578125,952.63671875,999.51171875,68.84765625
264.6484375,999.51171875,977.05078125,25.390625
-347.16796875,59.08203125,-216.30859375,-75.1953125
-606.93359375,-1000.0,-1000.0,-119.140625
-87.40234375,-433.10546875,-233.88671875,-40.52734375
481.93359375,886.71875,977.05078125,66.40625
325.1953125,999.51171875,999.51171875,38.0859375
-292.48046875,194.82421875,-0.48828125,-77.63671875
-616.69921875,-1000.0,-1000.0,-124.0234375
-153.80859375,-518.5546875,-352.5390625,-44.921875
436.5234375,854.00390625,917.96875,53.7109375
349.12109375,999.51171875,999.51171875,31.25
-242.67578125,196.77734375,169.43359375,-71.2890625
-621.09375,-1000.0,-1000.0,-118.1640625
-253.90625,-1000.0,-618.1640625,-54.6875
376.953125,260.25390625,745.1171875,51.26953125
421.875,999.51171875,999.51171875,60.05859375
-164.55078125,145.99609375,161.62109375,-42.96875
-601.07421875,-1000.0,-1000.0,-105.95703125
-301.7578125,-1000.0,-856.4453125,-53.7109375
339.35546875,95.703125,457.03125,44.921875
479.4921875,999.51171875,999.51171875,74.21875
-70.3125,402.83203125,188.4765625,-24.4140625
-586.42578125,-993.65234375,-1000.0,-115.72265625
-374.51171875,-987.3046875,-955.56640625,-69.82421875
287.59765625,330.56640625,296.38671875,49.8046875
493.1640625,999.51171875,999.51171875,85.44921875
-18.5546875,351.5625,252.44140625,-21.484375
-569.3359375,-907.2265625,-977.05078125,-120.1171875
-458.0078125,-1000.0,-1000.0,-91.30859375
185.546875,-233.88671875,-70.80078125,22.4609375
493.65234375,999.51171875,999.51171875,78.61328125
89.84375,754.8828125,474.609375,7.32421875
-502.44140625,-611.328125,-861.81640625,-100.09765625
-519.53125,-1000.0,-1000.0,-97.65625
130.859375,-192.3828125,-172.8515625,15.625
522.94921875,999.51171875,999.51171875,78.61328125
168.9453125,950.1953125,681.640625,12.6953125
-446.2890625,-310.546875,-667.96875,-98.14453125
-554.19921875,-1000.0,-1000.0,-105.46875
59.5703125,-174.31640625,-197.265625,4.8828125
510.25390625,999.51171875,999.51171875,76.66015625
220.21484375,999.51171875,881.8359375,16.6015625
-393.5546875,-56.640625,-394.53125,-90.33203125
-593.75,-1000.0,-1000.0,-110.83984375
-30.76171875,-387.6953125,-223.6328125,-11.23046875
500.0,892.08984375,994.62890625,77.63671875
293.9453125,999.51171875,999.51171875,36.1328125
-314.453125,213.8671875,-122.55859375,-72.265625
-609.86328125,-1000.0,-1000.0,-112.79296875
-129.39453125,-599.12109375,-343.26171875,-30.76171875
470.21484375,793.45703125,924.31640625,65.91796875
363.76953125,999.51171875,999.51171875,47.36328125
-249.51171875,177.734375,82.03125,-65.91796875
-602.5390625,-1000.0,-1000.0,-117.1875
-200.68359375,-887.6953125,-566.89453125,-43.9453125
409.66796875,437.01171875,785.15625,51.7578125
410.15625,999.51171875,999.51171875,54.6875
-187.01171875,186.03515625,149.4140625,-52.734375
-612.79296875,-1000.0,-1000.0,-117.67578125
-273.4375,-695.80078125,-723.6328125,-51.7578125
362.3046875,682.6171875,627.44140625,46.875
435.546875,999.51171875,999.51171875,54.19921875
-127.44140625,170.41015625,160.64453125,-44.921875
-593.75,-1000.0,-1000.0,-120.60546875
-354.98046875,-1000.0,-974.12109375,-77.1484375
292.96875,-52.24609375,259.27734375,23.92578125
495.1171875,999.51171875,999.51171875,56.15234375
-28.80859375,372.55859375,225.5859375,-97.16796875
-571.2890625,-926.26953125,-1000.0,-320.3125
-439.453125,-1000.0,-1000.0,-417.96875
203.61328125,-229.98046875,15.13671875,-416.015625
490.72265625,999.51171875,999.51171875,-439.94140625
48.828125,748.046875,428.22265625,-535.64453125
-527.83203125,-619.140625,-888.18359375,-620.60546875
-494.62890625,-1000.0,-1000.0,-608.88671875
141.6015625,-198.2421875,-156.25,-493.65234375
511.71875,999.51171875,999.51171875,-401.3671875
155.76171875,906.73828125,609.375,-441.89453125
-451.66015625,-384.765625,-747.0703125,-543.45703125
-529.296875,-1000.0,-1000.0,-532.71484375
83.49609375,-160.15625,-198.73046875,-395.99609375
519.04296875,975.5859375,999.51171875,-292.48046875
224.609375,999.51171875,837.890625,-328.125
-385.7421875,140.13671875,-465.33203125,-414.55078125
-572.265625,-1000.0,-1000.0,-422.36328125
-16.6015625,-461.9140625,-218.26171875,-339.35546875
479.98046875,901.3671875,999.51171875,-283.69140625
244.62890625,999.51171875,968.26171875,-360.3515625
-357.421875,36.1328125,-231.4453125,-460.9375
-599.609375,-1000.0,-1000.0,-471.19140625
-97.16796875,-566.40625,-316.89453125,-386.71875
477.5390625,789.55078125,934.08203125,-292.48046875
350.5859375,999.51171875,999.51171875,-307.6171875
-255.37109375,203.125,44.43359375,-389.6484375
-598.14453125,-1000.0,-1000.0,-410.64453125
-164.0625,-436.03515625,-424.8046875,-321.2890625
444.82421875,889.16015625,886.71875,-202.63671875
394.53125,999.51171875,999.51171875,-196.77734375
-211.9140625,441.89453125,166.9921875,-314.94140625
-637.20703125,-944.3359375,-1000.0,-366.69921875
-282.2265625,-1000.0,-717.28515625,-270.01953125
367.67578125,260.25390625,639.6484375,-164.0625
433.10546875,999.51171875,999.51171875,-157.2265625
-138.18359375,218.26171875,164.0625,-232.421875
-591.30859375,-1000.0,-1000.0,-291.50390625
-339.84375,-1000.0,-936.03515625,-249.0234375
308.59375,5.859375,329.58984375,-144.04296875
496.58203125,999.51171875,999.51171875,-115.234375
-32.2265625,445.80078125,210.9375,-194.3359375
-571.77734375,-889.16015625,-1000.0,-262.20703125
-416.015625,-1000.0,-1000.0,-209.9609375
242.67578125,-135.7421875,65.91796875,-85.44921875
505.37109375,999.51171875,999.51171875,-33.69140625
50.29296875,734.86328125,361.81640625,-117.1875
-524.4140625,-613.76953125,-930.6640625,-218.26171875
-474.12109375,-1000.0,-1000.0,-209.9609375
170.8984375,-215.33203125,-124.0234375,-121.09375
505.37109375,999.51171875,999.51171875,-86.42578125
105.46875,748.046875,513.18359375,-171.875
-486.81640625,-618.65234375,-833.984375,-258.7890625
-513.18359375,-1000.0,-1000.0,-230.46875
98.6328125,-175.78125,-195.80078125,-122.55859375
501.46484375,967.7734375,999.51171875,-45.41015625
197.75390625,999.51171875,779.78515625,-87.890625
-409.66796875,104.98046875,-546.38671875,-196.77734375
-573.2421875,-1000.0,-1000.0,-207.51953125
13.18359375,-333.0078125,-198.73046875,-88.8671875
508.7890625,955.56640625,999.51171875,8.30078125
261.71875,999.51171875,958.0078125,-33.203125
-370.1171875,62.01171875,-261.71875,-142.578125
-613.28125,-1000.0,-1000.0,-157.2265625
-58.10546875,-253.41796875,-238.28125,-51.7578125
478.515625,976.5625,981.93359375,30.76171875
284.1796875,999.51171875,999.51171875,-12.20703125
-321.77734375,125.48828125,-53.22265625,-121.58203125
-620.60546875,-1000.0,-1000.0,-150.87890625
-172.36328125,-726.5625,-421.875,-49.31640625
419.921875,632.32421875,881.8359375,48.33984375
363.76953125,999.51171875,999.51171875,16.11328125
-233.88671875,177.24609375,133.7890625,-77.1484375
-604.00390625,-1000.0,-1000.0,-104.4921875
-223.14453125,-821.2890625,-615.234375,-22.4609375
393.06640625,501.46484375,739.74609375,104.00390625
428.22265625,999.51171875,999.51171875,220.703125
-139.6484375,452.63671875,177.24609375,233.88671875
-602.5390625,-895.5078125,-1000.0,221.6796875
-320.80078125,-1000.0,-883.30078125,319.82421875
345.703125,129.8828125,449.70703125,452.63671875
455.078125,999.51171875,999.51171875,481.93359375
-95.21484375,269.04296875,88.8671875,387.6953125
-562.98828125,-920.8984375,-1000.0,305.17578125
-374.0234375,-1000.0,-1000.0,333.984375
268.5546875,-129.8828125,130.37109375,422.36328125
495.60546875,999.51171875,999.51171875,454.1015625
23.92578125,591.30859375,290.0390625,363.76953125
-539.0625,-775.87890625,-973.14453125,256.34765625
-479.4921875,-1000.0,-1000.0,218.75
160.64453125,-220.21484375,-44.921875,177.734375
490.234375,999.51171875,999.51171875,139.6484375
21.484375,373.53515625,443.84765625,-530.76171875
-583.0078125,-952.1484375,-879.39453125,-963.8671875
-523.4375,-1000.0,-1000.0,-476.5625
128.90625,-207.03125,-180.6640625,-74.21875
520.99609375,999.51171875,999.51171875,135.7421875
180.17578125,994.62890625,689.94140625,171.875
-432.6171875,-220.703125,-659.66796875,121.09375
-558.59375,-1000.0,-1000.0,141.11328125
60.05859375,-177.24609375,-192.87109375,266.6015625
510.7421875,999.51171875,999.51171875,352.05078125
223.6328125,999.51171875,885.25390625,309.5703125
-378.90625,-54.19921875,-385.25390625,211.9140625
-591.796875,-1000.0,-1000.0,180.6640625
-48.33984375,-426.7578125,-237.3046875,269.53125
481.93359375,874.51171875,983.3984375,355.46875
296.875,999.51171875,999.51171875,314.453125
-316.40625,188.96484375,-93.26171875,193.359375
-613.28125,-1000.0,-1000.0,143.06640625
-128.90625,-532.2265625,-346.19140625,222.16796875
459.47265625,847.65625,917.48046875,311.5234375
364.2578125,999.51171875,999.51171875,277.83203125
-241.2109375,185.546875,136.71875,159.1796875
-609.375,-1000.0,-1000.0,101.07421875
-209.9609375,-850.09765625,-559.08203125,141.6015625
398.4375,492.1875,800.29296875,191.40625
400.87890625,999.51171875,999.51171875,172.8515625
-176.7578125,155.76171875,152.83203125,67.3828125
-581.0546875,-1000.0,-1000.0,-4.39453125
-270.01953125,-993.65234375,-790.52734375,50.29296875
377.9296875,254.8828125,549.8046875,144.04296875
495.60546875,999.51171875,999.51171875,145.01953125
-73.2421875,172.36328125,158.69140625,36.1328125
-549.8046875,-1000.0,-1000.0,-48.33984375
-319.82421875,-1000.0,-992.67578125,-5.859375
322.265625,-121.58203125,222.65625,89.84375
526.3671875,999.51171875,999.51171875,104.00390625
11.71875,361.328125,223.14453125,6.34765625
-529.296875,-941.40625,-1000.0,-112.79296875
-398.92578125,-1000.0,-1000.0,-166.015625
236.81640625,-226.5625,-12.20703125,-129.8828125
522.4609375,999.51171875,999.51171875,-64.94140625
97.16796875,723.6328125,400.87890625,-71.77734375
-477.05078125,-664.0625,-914.0625,-105.46875
-453.61328125,-1000.0,-1000.0,-55.6640625
188.96484375,-94.7265625,-118.65234375,61.5234375
543.45703125,999.51171875,999.51171875,128.41796875
171.38671875,909.1796875,639.6484375,71.2890625
-435.546875,-345.21484375,-706.0546875,-40.0390625
-521.97265625,-1000.0,-1000.0,-11.71875
84.9609375,-266.11328125,-206.54296875,-73.2421875
492.1875,999.51171875,999.51171875,-475.5859375
166.9921875,511.23046875,764.6484375,-848.6328125
-433.59375,-859.375,-569.82421875,-992.1875
-571.2890625,-1000.0,-1000.0,-1000.0
-2.44140625,-416.50390625,-206.0546875,-936.03515625
512.6953125,855.46875,992.67578125,-729.98046875
317.87109375,999.51171875,999.51171875,-613.76953125
-294.921875,202.1484375,-105.46875,-568.84765625
-570.3125,-1000.0,-1000.0,-510.25390625
-60.05859375,-417.48046875,-296.875,-366.2109375
494.140625,915.0390625,951.171875,-245.1171875
344.7265625,999.51171875,999.51171875,-283.69140625
-264.6484375,191.89453125,47.36328125,-419.921875
-605.95703125,-1000.0,-1000.0,-474.12109375
-186.03515625,-778.80859375,-502.44140625,-396.484375
422.8515625,587.890625,831.54296875,-300.78125
402.34375,999.51171875,999.51171875,-284.66796875
-182.12890625,178.22265625,153.80859375,-372.0703125
-591.30859375,-1000.0,-1000.0,-406.25
-257.32421875,-804.6875,-694.3359375,-311.5234375
376.953125,540.52734375,663.57421875,-206.54296875
445.80078125,999.51171875,999.51171875,-164.0625
-114.2578125,252.44140625,163.57421875,-181.15234375
-581.0546875,-994.62890625,-1000.0,-200.1953125
-337.890625,-1000.0,-927.734375,-176.7578125
301.26953125,88.8671875,341.30859375,-148.4375
471.6796875,999.51171875,999.51171875,-119.140625
-42.48046875,367.67578125,202.1484375,-139.16015625
-577.63671875,-924.31640625,-1000.0,-461.42578125
-462.890625,-1000.0,-1000.0,-936.03515625
185.546875,-152.83203125,54.19921875,-1000.0
483.88671875,999.51171875,999.51171875,-983.3984375
26.85546875,440.4296875,327.1484375,-1000.0
-540.52734375,-903.80859375,-946.2890625,-1000.0
-476.5625,-1000.0,-1000.0,-1000.0
156.25,-229.00390625,-143.5546875,-1000.0
513.18359375,999.51171875,999.51171875,-1000.0
123.53515625,761.23046875,545.41015625,-1000.0
-485.3515625,-596.6796875,-805.6640625,-1000.0
-531.73828125,-1000.0,-1000.0,-1000.0
77.63671875,-194.3359375,-191.40625,-1000.0
475.5859375,960.44921875,999.51171875,-1000.0
187.01171875,999.51171875,842.28515625,-1000.0
-400.87890625,117.1875,-460.9375,-1000.0
-577.63671875,-1000.0,-1000.0,-1000.0
0.0,-345.703125,-201.171875,-1000.0
492.1875,962.890625,999.51171875,-1000.0
257.8125,999.51171875,952.1484375,-978.515625
-346.19140625,-17.578125,-268.06640625,-1000.0
-580.56640625,-1000.0,-1000.0,-860.83984375
-13.671875,-217.28515625,-254.8828125,-152.34375
557.6171875,970.21484375,962.890625,298.828125
373.046875,999.51171875,999.51171875,215.8203125
-269.53125,225.5859375,20.01953125,-76.66015625
-614.2578125,-1000.0,-1000.0,-255.37109375
-146.97265625,-329.58984375,-386.23046875,-241.2109375
442.3828125,954.58984375,910.15625,-194.82421875
355.46875,999.51171875,999.51171875,-145.5078125
-232.421875,191.40625,116.69921875,-187.5
-603.02734375,-1000.0,-1000.0,-158.203125
-244.140625,-943.84765625,-685.05859375,-63.4765625
377.44140625,340.33203125,666.9921875,-14.16015625
428.22265625,999.51171875,999.51171875,-66.89453125
-143.06640625,226.5625,170.8984375,-182.6171875
-594.23828125,-1000.0,-1000.0,-189.453125
-313.4765625,-844.23828125,-814.453125,-86.9140625
333.49609375,493.1640625,516.11328125,2.44140625
458.0078125,999.51171875,999.51171875,1.46484375
-89.35546875,315.4296875,191.40625,-115.72265625
-595.703125,-934.08203125,-1000.0,-175.78125
-404.78515625,-1000.0,-1000.0,-125.0
246.58203125,-127.44140625,140.13671875,-74.21875
471.19140625,999.51171875,999.51171875,-208.49609375
10.25390625,521.484375,297.8515625,-150.87890625
-528.80859375,-839.35546875,-961.42578125,-166.9921875
-480.95703125,-1000.0,-1000.0,-535.64453125
157.2265625,-189.94140625,-93.75,-526.85546875
498.53515625,999.51171875,999.51171875,-333.49609375
118.65234375,999.51171875,576.171875,-213.37890625
-462.40234375,-161.1328125,-774.90234375,-142.08984375
-505.37109375,-1000.0,-1000.0,-77.63671875
118.65234375,-181.15234375,-175.78125,2.44140625
506.8359375,999.51171875,999.51171875,55.17578125
161.1328125,999.51171875,728.02734375,11.23046875
-442.3828125,-70.80078125,-614.2578125,-65.91796875
-560.546875,-1000.0,-1000.0,-40.52734375
38.0859375,-224.12109375,-194.3359375,49.31640625
498.046875,999.0234375,999.51171875,83.49609375
240.72265625,999.51171875,916.50390625,36.1328125
-363.28125,-61.5234375,-338.8671875,-13.671875
-579.58984375,-1000.0,-1000.0,-4.8828125
-43.45703125,-326.66015625,-229.00390625,46.38671875
479.98046875,935.546875,988.28125,74.21875
302.24609375,999.51171875,999.51171875,28.80859375
-309.08203125,87.890625,-92.7734375,-44.921875
-604.00390625,-1000.0,-1000.0,-53.7109375
-128.41796875,-730.95703125,-390.13671875,6.34765625
451.66015625,611.81640625,893.5546875,52.734375
357.421875,999.51171875,999.51171875,8.7890625
-237.79296875,233.3984375,139.6484375,-64.453125
-610.83984375,-1000.0,-1000.0,-82.03125
-236.81640625,-867.1875,-596.6796875,-4.39453125
399.4140625,485.83984375,764.6484375,130.37109375
428.7109375,999.51171875,999.51171875,145.01953125
-165.52734375,143.06640625,163.0859375,58.59375
-607.421875,-1000.0,-1000.0,15.625
-316.89453125,-1000.0,-827.1484375,31.73828125
326.171875,89.84375,498.046875,75.1953125
454.58984375,999.51171875,999.51171875,33.203125
-105.95703125,261.71875,171.38671875,-80.078125
-596.6796875,-980.95703125,-1000.0,-120.1171875
-376.46484375,-1000.0,-1000.0,-61.5234375
281.73828125,-65.4296875,197.75390625,18.06640625
477.05078125,999.51171875,999.51171875,9.27734375
-11.23046875,860.3515625,294.921875,-49.31640625
-536.1328125,-414.55078125,-970.21484375,-60.05859375
-438.4765625,-1000.0,-1000.0,-25.390625
205.56640625,-203.125,-25.87890625,47.36328125
505.37109375,999.51171875,999.51171875,90.33203125
80.56640625,773.4375,436.5234375,68.359375
-501.953125,-582.51953125,-883.30078125,18.5546875
-499.51171875,-1000.0,-1000.0,21.97265625
125.9765625,-191.40625,-173.33984375,62.98828125
505.859375,999.51171875,999.51171875,60.546875
164.55078125,956.0546875,656.73828125,-16.6015625
-435.546875,-298.33984375,-695.80078125,-78.61328125
-533.203125,-1000.0,-1000.0,-46.38671875
65.91796875,-188.4765625,-195.3125,20.5078125
498.53515625,990.72265625,999.51171875,50.78125
213.8671875,999.51171875,873.53515625,-2.44140625
-387.20703125,-31.73828125,-410.64453125,-66.89453125
-578.125,-1000.0,-1000.0,-52.734375
-22.4609375,-339.35546875,-212.890625,9.27734375
478.02734375,928.22265625,999.0234375,22.94921875
269.04296875,999.51171875,999.51171875,-37.59765625
-334.47265625,130.859375,-130.859375,-104.98046875
-614.2578125,-1000.0,-1000.0,-105.46875
-126.46484375,-606.4453125,-338.37890625,-27.83203125
462.890625,767.578125,926.7578125,31.25
356.4453125,999.51171875,999.51171875,5.859375
-255.859375,181.15234375,74.21875,-67.3828125
-598.6328125,-1000.0,-1000.0,-87.40234375
-199.70703125,-845.703125,-528.80859375,-32.2265625
408.69140625,498.53515625,815.4296875,19.04296875
401.3671875,999.51171875,999.51171875,-7.32421875
-204.58984375,154.296875,161.62109375,-84.9609375
-614.74609375,-1000.0,-1000.0,-100.09765625
-279.78515625,-992.67578125,-757.8125,-32.71484375
350.5859375,226.5625,589.84375,21.484375
442.3828125,999.51171875,999.51171875,1.953125
-105.46875,480.46875,172.36328125,-71.77734375
-586.42578125,-851.07421875,-1000.0,-100.09765625
-372.0703125,-1000.0,-984.375,-43.9453125
277.34375,-89.84375,247.55859375,24.90234375
482.421875,999.51171875,999.51171875,27.34375
-25.87890625,431.640625,219.23828125,-49.8046875
-562.98828125,-903.3203125,-1000.0,-92.7734375
-421.38671875,-1000.0,-1000.0,-49.8046875
227.05078125,-222.65625,19.04296875,17.08984375
505.859375,999.51171875,999.51171875,35.64453125
48.33984375,611.81640625,368.65234375,-31.73828125
-528.3203125,-777.83203125,-933.10546875,-74.21875
-472.65625,-1000.0,-1000.0,-26.85546875
153.80859375,-193.84765625,-111.81640625,22.4609375
491.2109375,999.51171875,999.51171875,32.2265625
123.046875,865.234375,580.078125,-19.53125
-466.796875,-448.2421875,-764.6484375,-76.171875
-530.76171875,-1000.0,-1000.0,-60.546875
78.61328125,-201.66015625,-202.63671875,-8.7890625
502.9296875,999.51171875,999.51171875,-5.37109375
195.3125,971.19140625,789.55078125,-64.94140625
-423.828125,-253.90625,-535.15625,-119.140625
-585.44921875,-1000.0,-1000.0,-109.375
-0.9765625,-330.56640625,-200.1953125,-41.50390625
503.90625,903.3203125,999.51171875,-5.859375
284.1796875,999.51171875,999.51171875,-57.12890625
-325.68359375,218.75,-132.8125,-118.1640625
-580.56640625,-1000.0,-1000.0,-90.8203125
-85.44921875,-578.61328125,-306.640625,-40.52734375
458.0078125,814.94140625,951.171875,-18.06640625
333.49609375,999.51171875,999.51171875,-41.50390625
-275.390625,185.546875,7.8125,-136.71875
-604.00390625,-1000.0,-1000.0,-166.50390625
-149.90234375,-646.97265625,-439.453125,-100.09765625
449.70703125,725.09765625,870.60546875,-22.4609375
358.88671875,999.51171875,999.51171875,-75.1953125
-237.79296875,351.07421875,170.8984375,-181.15234375
-628.90625,-1000.0,-1000.0,-153.80859375
-308.59375,-950.1953125,-701.171875,-72.75390625
326.66015625,406.25,663.57421875,0.9765625
384.765625,999.51171875,999.51171875,-11.71875
-215.33203125,137.6953125,161.62109375,-120.1171875
-671.38671875,-1000.0,-1000.0,-170.41015625
-406.25,-1000.0,-906.25,-112.3046875
231.93359375,17.08984375,377.44140625,-54.6875
395.99609375,999.51171875,999.51171875,-67.3828125
-125.9765625,395.99609375,199.21875,-111.328125
-631.34765625,-932.12890625,-1000.0,-118.1640625
-446.77734375,-1000.0,-1000.0,-54.19921875
210.44921875,-34.66796875,121.09375,10.7421875
464.35546875,999.51171875,999.51171875,16.6015625
2.44140625,496.09375,298.33984375,-41.015625
-554.6875,-852.5390625,-961.9140625,-86.42578125
-484.375,-1000.0,-1000.0,-58.59375
171.38671875,-200.68359375,-100.09765625,10.7421875
506.34765625,999.51171875,999.51171875,42.96875
89.35546875,686.03515625,466.30859375,0.0
-489.74609375,-687.01171875,-864.74609375,-59.08203125
-496.58203125,-1000.0,-1000.0,-44.43359375
116.2109375,-203.61328125,-200.1953125,-19.04296875
498.046875,999.51171875,999.51171875,-143.5546875
166.50390625,870.1171875,720.21484375,-312.01171875
-431.640625,-419.43359375,-627.9296875,-342.7734375
-561.5234375,-1000.0,-1000.0,-313.4765625
11.23046875,-385.25390625,-199.70703125,-422.8515625
477.05078125,917.48046875,999.51171875,-575.68359375
228.515625,999.51171875,923.828125,-675.78125
-377.44140625,-116.69921875,-323.73046875,-720.21484375
-600.5859375,-1000.0,-1000.0,-685.05859375
-51.7578125,-308.59375,-243.65234375,-619.62890625
485.3515625,924.8046875,975.5859375,-541.9921875
312.01171875,999.51171875,999.51171875,-491.69921875
-277.34375,208.49609375,-44.43359375,-482.421875
-581.54296875,-1000.0,-1000.0,-416.9921875
-146.484375,-767.578125,-440.91796875,-351.07421875
437.5,604.00390625,875.0,-351.07421875
378.90625,999.51171875,999.51171875,-363.76953125
-226.07421875,172.36328125,104.98046875,-384.765625
-604.00390625,-1000.0,-1000.0,-365.234375
-230.95703125,-869.140625,-629.39453125,-324.70703125
389.16015625,458.0078125,725.09765625,-302.24609375
426.26953125,999.51171875,999.51171875,-288.57421875
-141.11328125,229.00390625,173.33984375,-284.1796875
-598.6328125,-1000.0,-1000.0,-275.390625
-310.546875,-729.98046875,-784.66796875,-222.65625
348.14453125,645.5078125,558.59375,-161.1328125
456.54296875,999.51171875,999.51171875,-159.66796875
-85.9375,271.97265625,170.8984375,-175.29296875
-567.3828125,-961.9140625,-1000.0,-160.15625
-373.53515625,-1000.0,-1000.0,-133.30078125
255.859375,-62.5,164.55078125,-127.9296875
477.05078125,999.51171875,999.51171875,-125.48828125
-10.25390625,411.62109375,250.0,-116.69921875
-545.8984375,-907.71484375,-984.86328125,-84.47265625
-438.96484375,-1000.0,-1000.0,-18.5546875
194.82421875,-208.49609375,-69.82421875,40.52734375
512.6953125,999.51171875,999.51171875,53.7109375
97.65625,856.4453125,481.4453125,29.78515625
-496.09375,-463.37890625,-852.5390625,20.99609375
-506.34765625,-1000.0,-1000.0,52.734375
123.53515625,-197.75390625,-194.3359375,109.86328125
505.37109375,999.51171875,999.51171875,107.91015625
145.99609375,900.87890625,645.01953125,107.91015625
-441.89453125,-395.01953125,-713.8671875,375.0
-517.08984375,-1000.0,-1000.0,794.43359375
89.84375,-154.296875,-190.4296875,970.703125
523.4375,966.796875,999.51171875,957.51953125
249.0234375,999.51171875,943.359375,963.8671875
-343.26171875,227.5390625,-284.1796875,969.7265625
-574.21875,-1000.0,-1000.0,955.56640625
-39.0625,-320.80078125,-217.7734375,951.66015625
475.09765625,999.51171875,999.51171875,971.6796875
248.046875,999.51171875,999.51171875,348.6328125
-396.97265625,-149.4140625,-121.58203125,-427.734375
-664.55078125,-1000.0,-1000.0,-534.1796875
-153.80859375,-729.4921875,-369.140625,-241.69921875
464.35546875,581.54296875,909.1796875,179.6875
372.55859375,999.51171875,999.51171875,15.13671875
-278.80859375,147.94921875,90.8203125,-532.71484375
-661.1328125,-1000.0,-1000.0,-744.62890625
-247.55859375,-707.03125,-495.1171875,-721.6796875
364.2578125,671.875,844.23828125,-709.47265625
350.09765625,999.51171875,999.51171875,-689.453125
-212.40234375,128.41796875,147.94921875,-651.85546875
-617.67578125,-1000.0,-1000.0,-619.62890625
-324.21875,-1000.0,-808.10546875,-585.44921875
307.6171875,62.5,520.99609375,-543.45703125
441.40625,999.51171875,999.51171875,-509.27734375
-105.46875,236.328125,166.50390625,-481.4453125
-590.8203125,-989.2578125,-1000.0,-453.125
-365.234375,-1000.0,-974.609375,-412.59765625
272.94921875,-128.90625,254.39453125,-367.1875
476.07421875,999.51171875,999.51171875,-353.02734375
-6.8359375,560.546875,269.04296875,-356.93359375
-539.55078125,-804.19921875,-981.4453125,-333.49609375
-420.8984375,-1000.0,-1000.0,-291.50390625
213.37890625,-225.5859375,-4.8828125,-274.4140625
492.67578125,999.51171875,999.51171875,-274.4140625
67.3828125,642.08984375,395.5078125,-270.5078125
-498.046875,-745.60546875,-912.59765625,-253.90625
-470.703125,-1000.0,-1000.0,-226.07421875
156.25,-185.546875,-164.55078125,-205.078125
509.27734375,999.51171875,999.51171875,-192.3828125
155.2734375,999.51171875,629.39453125,-194.82421875
-429.6875,-168.9453125,-727.05078125,-191.89453125
-518.5546875,-1000.0,-1000.0,-171.875
93.26171875,-178.7109375,-190.91796875,-137.6953125
512.20703125,999.51171875,999.51171875,-132.8125
208.49609375,999.51171875,849.609375,-152.83203125
-380.859375,-40.0390625,-448.73046875,-146.97265625
-568.84765625,-1000.0,-1000.0,-135.25390625
-13.18359375,-333.984375,-207.03125,-120.1171875
486.328125,925.78125,999.51171875,-110.3515625
272.4609375,999.51171875,998.046875,-111.81640625
-320.3125,154.296875,-173.828125,-115.234375
-591.30859375,-1000.0,-1000.0,-112.79296875
-86.42578125,-216.796875,-257.32421875,-95.703125
473.6328125,990.72265625,962.890625,-83.49609375
333.984375,999.51171875,999.51171875,-91.30859375
-260.25390625,212.40234375,56.640625,-100.09765625
-606.93359375,-1000.0,-1000.0,-87.40234375
-200.1953125,-836.42578125,-520.01953125,-66.40625
403.3203125,512.6953125,822.75390625,-60.05859375
379.8828125,999.51171875,999.51171875,-70.3125
-208.0078125,162.109375,145.99609375,-76.66015625
-599.12109375,-1000.0,-1000.0,-70.80078125
-256.34765625,-944.3359375,-697.265625,-60.546875
364.2578125,335.44921875,655.76171875,-57.6171875
431.15234375,999.51171875,999.51171875,-63.96484375
-120.1171875,198.73046875,166.9921875,-66.40625
-583.0078125,-1000.0,-1000.0,-61.03515625
-346.19140625,-1000.0,-931.640625,-51.7578125
287.59765625,15.625,333.0078125,-47.36328125
448.2421875,999.51171875,999.51171875,-52.24609375
-52.24609375,576.171875,232.91015625,-62.01171875
-553.22265625,-768.5546875,-1000.0,-59.08203125
-402.34375,-1000.0,-1000.0,-32.71484375
238.28125,-184.08203125,46.38671875,-19.53125
491.69921875,999.51171875,999.51171875,-32.71484375
38.57421875,617.67578125,340.33203125,-44.43359375
-516.11328125,-763.671875,-945.80078125,-41.50390625
-463.37890625,-1000.0,-1000.0,-24.90234375
165.52734375,-205.078125,-106.93359375,-17.578125
484.375,999.51171875,999.51171875,-28.80859375
103.515625,854.00390625,538.57421875,-40.52734375
-468.75,-468.75,-803.7109375,-43.9453125
-524.4140625,-1000.0,-1000.0,-33.69140625
87.40234375,-177.734375,-199.21875,-16.6015625
491.2109375,999.51171875,999.51171875,-20.99609375
185.05859375,999.51171875,787.109375,-40.52734375
-404.296875,-138.18359375,-541.015625,-40.52734375
-557.12890625,-1000.0,-1000.0,-27.83203125
38.0859375,-181.15234375,-193.359375,-9.27734375
514.6484375,999.51171875,999.51171875,-3.90625
260.25390625,999.51171875,933.59375,-21.97265625
-336.42578125,-51.7578125,-300.29296875,-30.2734375
-579.1015625,-1000.0,-1000.0,-23.92578125
-69.82421875,-486.328125,-276.3671875,-13.18359375
476.5625,839.84375,958.0078125,-12.6953125
334.9609375,999.51171875,999.51171875,-16.6015625
-265.13671875,182.12890625,-17.08984375,-19.53125
-591.30859375,-1000.0,-1000.0,-14.16015625
-153.80859375,-674.31640625,-418.9453125,-3.41796875
432.12890625,694.82421875,883.7890625,-5.37109375
378.41796875,999.51171875,999.51171875,-20.99609375
-198.2421875,310.05859375,160.15625,-34.1796875
-592.28515625,-1000.0,-1000.0,-31.25
-246.09375,-1000.0,-650.87890625,-10.25390625
384.765625,260.7421875,711.9140625,0.48828125
425.78125,999.51171875,999.51171875,-18.06640625
-161.62109375,161.62109375,165.52734375,-40.0390625
-601.07421875,-1000.0,-1000.0,-39.0625
-314.453125,-1000.0,-884.27734375,-21.484375
307.12890625,45.8984375,415.0390625,-13.671875
443.359375,999.51171875,999.51171875,-29.78515625
-74.70703125,375.48828125,192.3828125,-48.33984375
-561.5234375,-929.19921875,-1000.0,-43.9453125
-369.62890625,-1000.0,-1000.0,-28.3203125
255.37109375,-103.02734375,154.78515625,-23.4375
490.72265625,999.51171875,999.51171875,-21.484375
35.64453125,677.734375,334.9609375,-28.80859375
-520.5078125,-674.31640625,-943.359375,-33.69140625
-449.70703125,-1000.0,-1000.0,-21.484375
195.80078125,-194.3359375,-85.9375,-0.48828125
517.578125,999.51171875,999.51171875,-4.39453125
106.93359375,919.43359375,517.578125,-42.96875
-478.515625,-362.3046875,-828.61328125,-46.875
-500.48828125,-1000.0,-1000.0,-23.92578125
142.08984375,-183.10546875,-158.69140625,-7.32421875
525.390625,999.51171875,999.51171875,-15.13671875
180.6640625,952.63671875,716.796875,-34.1796875
-397.94921875,-294.43359375,-624.0234375,-29.78515625
-511.23046875,-1000.0,-1000.0,-18.06640625
71.77734375,-225.5859375,-193.84765625,-13.18359375
527.83203125,963.8671875,999.51171875,-5.859375
276.3671875,999.51171875,941.89453125,-8.7890625
-327.63671875,65.91796875,-292.96875,-22.4609375
-558.10546875,-1000.0,-1000.0,-12.20703125
-12.20703125,-309.5703125,-215.8203125,5.859375
513.18359375,942.87109375,977.05078125,2.9296875
330.56640625,999.51171875,999.51171875,-5.859375
-262.6953125,219.7265625,23.4375,-16.6015625
-572.265625,-1000.0,-1000.0,-5.37109375
-117.67578125,-639.16015625,-386.71875,6.8359375
460.9375,758.30078125,916.9921875,0.9765625
376.953125,999.51171875,999.51171875,-4.8828125
-228.02734375,142.578125,75.68359375,-15.625
-589.84375,-1000.0,-1000.0,-15.13671875
-209.47265625,-903.80859375,-598.14453125,-7.32421875
395.99609375,400.87890625,750.0,0.0
425.29296875,999.51171875,999.51171875,-3.41796875
-143.06640625,169.921875,152.83203125,-23.4375
-574.70703125,-1000.0,-1000.0,-33.69140625
-291.015625,-1000.0,-869.62890625,-9.27734375
345.703125,-15.13671875,436.03515625,17.578125
471.6796875,999.51171875,999.51171875,-6.34765625
-74.21875,334.47265625,173.33984375,-29.78515625
-556.15234375,-971.6796875,-1000.0,-17.08984375
-344.7265625,-1000.0,-990.72265625,-3.90625
292.48046875,-4.8828125,227.05078125,5.37109375
500.0,999.51171875,999.51171875,-5.859375
2.44140625,492.67578125,270.01953125,-29.78515625
-541.9921875,-869.62890625,-983.3984375,-33.69140625
-431.640625,-1000.0,-1000.0,-16.6015625
212.890625,-72.75390625,2.44140625,-6.8359375
520.5078125,999.51171875,999.51171875,-0.9765625
104.98046875,669.43359375,420.41015625,2.9296875
-486.328125,-676.26953125,-888.18359375,-15.625
-492.1875,-1000.0,-1000.0,-23.4375
132.32421875,-199.70703125,-183.10546875,-17.08984375
502.9296875,999.51171875,999.51171875,-22.4609375
152.34375,911.1328125,648.92578125,-40.52734375
-439.453125,-376.953125,-707.51953125,-43.9453125
-531.25,-1000.0,-1000.0,-27.34375
71.77734375,-164.0625,-188.4765625,-11.71875
494.140625,981.93359375,999.51171875,-12.6953125
227.5390625,999.51171875,926.7578125,-24.4140625
-365.234375,64.94140625,-322.75390625,-36.62109375
-583.0078125,-1000.0,-1000.0,-31.73828125
-15.13671875,-216.30859375,-203.61328125,-17.08984375
494.62890625,997.55859375,999.51171875,-18.06640625
287.109375,999.51171875,995.60546875,-29.78515625
-312.5,59.5703125,-162.109375,-39.0625
-596.19140625,-1000.0,-1000.0,-30.76171875
-115.72265625,-662.59765625,-351.07421875,-13.18359375
448.2421875,691.40625,917.96875,-18.5546875
332.51953125,999.51171875,999.51171875,-37.59765625
-263.18359375,180.17578125,70.80078125,-44.43359375
-583.984375,-1000.0,-1000.0,-29.296875
-184.5703125,-808.59375,-508.7890625,-14.6484375
389.16015625,548.828125,827.63671875,-17.08984375
379.39453125,999.51171875,999.51171875,-25.87890625
-182.12890625,181.640625,168.45703125,-27.34375
-592.28515625,-1000.0,-1000.0,-26.85546875
-272.94921875,-767.08984375,-690.4296875,-20.5078125
359.375,596.6796875,667.96875,-12.6953125
438.96484375,999.51171875,999.51171875,-22.94921875
-115.234375,210.9375,168.9453125,-33.203125
-593.26171875,-1000.0,-1000.0,-34.66796875
-361.81640625,-1000.0,-919.921875,-21.484375
285.64453125,183.59375,356.4453125,-10.25390625
473.14453125,999.51171875,999.51171875,-17.08984375
-27.34375,392.08984375,223.6328125,-34.66796875
-541.50390625,-893.5546875,-1000.0,-34.66796875
-408.69140625,-1000.0,-1000.0,-10.7421875
218.75,-209.47265625,30.76171875,-6.34765625
480.95703125,999.51171875,999.51171875,-16.11328125
47.36328125,694.3359375,395.99609375,-22.4609375
-514.16015625,-681.15234375,-916.015625,-27.83203125
-476.07421875,-1000.0,-1000.0,-11.71875
165.52734375,-171.875,-104.4921875,26.85546875
501.953125,999.0234375,999.51171875,37.109375
137.6953125,999.51171875,670.41015625,9.765625
-456.54296875,-113.76953125,-669.43359375,-6.8359375
-540.52734375,-1000.0,-1000.0,4.8828125
81.0546875,-227.5390625,-193.359375,34.66796875
493.65234375,999.51171875,999.51171875,36.1328125
185.546875,977.5390625,799.8046875,3.41796875
-405.2734375,-255.37109375,-520.5078125,-11.71875
-565.91796875,-1000.0,-1000.0,0.9765625
-2.44140625,-239.2578125,-196.77734375,18.5546875
482.421875,969.7265625,999.51171875,17.578125
251.953125,999.51171875,968.26171875,-1.953125
-351.5625,-2.44140625,-233.3984375,-19.04296875
-602.5390625,-1000.0,-1000.0,-11.71875
-83.0078125,-204.1015625,-242.67578125,5.37109375
471.6796875,979.4921875,970.703125,12.6953125
331.0546875,999.51171875,999.51171875,2.44140625
-278.3203125,173.828125,20.99609375,-28.3203125
-620.60546875,-1000.0,-1000.0,-39.0625
-202.63671875,-891.11328125,-485.83984375,-12.6953125
397.4609375,422.8515625,839.84375,-3.90625
377.9296875,999.51171875,999.51171875,-45.41015625
-203.125,166.015625,158.203125,-70.80078125
-601.5625,-1000.0,-1000.0,-55.6640625
-267.08984375,-914.0625,-692.3828125,-42.96875
365.72265625,398.92578125,669.921875,-42.48046875
426.26953125,999.51171875,999.51171875,-62.5
-144.04296875,136.71875,162.109375,-66.89453125
-596.6796875,-1000.0,-1000.0,-55.6640625
-354.98046875,-1000.0,-922.36328125,-54.6875
291.50390625,7.8125,354.4921875,-41.50390625
474.609375,999.51171875,999.51171875,-34.1796875
-58.59375,295.8984375,196.2890625,-52.24609375
-579.1015625,-963.8671875,-1000.0,-57.6171875
-397.4609375,-1000.0,-1000.0,-30.76171875
247.0703125,-145.5078125,110.3515625,-12.6953125
483.88671875,999.51171875,999.51171875,-23.4375
39.55078125,930.6640625,413.57421875,-39.55078125
-512.6953125,-322.265625,-900.87890625,-46.38671875
-465.33203125,-1000.0,-1000.0,-35.15625
156.73828125,-205.56640625,-78.61328125,-35.64453125
476.5625,999.51171875,999.51171875,-41.50390625
90.33203125,843.26171875,564.94140625,-54.6875
-503.41796875,-485.83984375,-781.73828125,-62.5
-546.875,-1000.0,-1000.0,-42.48046875
76.66015625,-183.59375,-187.01171875,-31.25
479.98046875,999.51171875,999.51171875,-29.78515625
164.55078125,998.046875,763.18359375,-43.9453125
-438.4765625,-207.51953125,-570.80078125,-54.6875
-578.125,-1000.0,-1000.0,-45.41015625
31.73828125,-220.21484375,-187.5,-11.23046875
507.32421875,969.23828125,999.51171875,0.9765625
239.74609375,999.51171875,964.35546875,-32.71484375
-367.67578125,76.171875,-241.69921875,-54.6875
-602.05078125,-1000.0,-1000.0,-45.41015625
-69.82421875,-400.390625,-241.69921875,-22.4609375
459.47265625,902.34375,972.16796875,-18.06640625
291.9921875,999.51171875,999.51171875,-33.203125
-294.921875,201.171875,6.8359375,-44.43359375
-604.98046875,-1000.0,-1000.0,-42.96875
-163.0859375,-787.59765625,-430.17578125,-32.2265625
432.12890625,580.56640625,886.23046875,-26.85546875
379.8828125,999.51171875,999.51171875,-26.3671875
-229.98046875,158.203125,112.79296875,-39.0625
-607.91015625,-1000.0,-1000.0,-34.66796875
-238.76953125,-983.3984375,-648.92578125,-14.6484375
370.60546875,278.3203125,707.03125,-11.23046875
416.015625,999.51171875,999.51171875,-18.06640625
-159.66796875,146.484375,166.9921875,-34.66796875
-598.6328125,-1000.0,-1000.0,-33.69140625
-305.6640625,-1000.0,-848.6328125,-13.671875
324.21875,112.79296875,464.84375,-8.7890625
450.1953125,999.51171875,999.51171875,-20.5078125
-62.98828125,663.57421875,207.03125,-35.64453125
-562.98828125,-657.71484375,-1000.0,-38.57421875
-393.5546875,-1000.0,-1000.0,-33.69140625
247.55859375,-156.25,144.04296875,-28.3203125
478.515625,999.51171875,999.51171875,-25.390625
21.97265625,717.7734375,321.77734375,-39.55078125
-540.52734375,-642.08984375,-951.66015625,-51.26953125
-471.19140625,-1000.0,-1000.0,-40.0390625
177.734375,-206.54296875,-78.125,-22.4609375
487.79296875,999.51171875,999.51171875,-26.85546875
76.171875,842.7734375,480.46875,-45.41015625
-495.60546875,-488.28125,-860.3515625,-39.55078125
-506.34765625,-1000.0,-1000.0,-31.25
116.69921875,-175.78125,-151.85546875,-31.25
484.375,999.51171875,999.51171875,-36.62109375
154.296875,999.51171875,722.16796875,-42.48046875
-419.43359375,-178.7109375,-617.67578125,-28.80859375
-550.29296875,-1000.0,-1000.0,-23.92578125
35.15625,-208.0078125,-197.75390625,-23.4375
492.67578125,984.86328125,999.51171875,-27.83203125
222.65625,999.51171875,890.625,-41.015625
-380.859375,9.27734375,-378.41796875,-47.8515625
-581.0546875,-1000.0,-1000.0,-42.48046875
-39.55078125,-395.5078125,-235.83984375,-25.87890625
477.05078125,908.203125,993.65234375,-26.85546875
284.66796875,999.51171875,999.51171875,-35.64453125
-325.68359375,108.3984375,-140.625,-42.96875
-595.21484375,-1000.0,-1000.0,-31.73828125
-123.53515625,-643.5546875,-376.46484375,-13.18359375
437.98828125,727.05078125,901.85546875,-22.4609375
350.5859375,999.51171875,999.51171875,-40.52734375
-248.53515625,166.9921875,109.375,-41.50390625
-604.00390625,-1000.0,-1000.0,-17.578125
-216.30859375,-937.98828125,-601.5625,-9.765625
377.44140625,325.68359375,752.9296875,-35.64453125
397.94921875,999.51171875,999.51171875,-50.29296875
-148.4375,421.38671875,176.26953125,-49.31640625
-576.171875,-922.8515625,-1000.0,-44.921875
-291.9921875,-1000.0,-812.98828125,-35.64453125
345.703125,123.53515625,522.4609375,-26.85546875
458.49609375,999.51171875,999.51171875,-43.45703125
-91.30859375,282.71484375,168.9453125,-60.05859375
-577.1484375,-982.421875,-1000.0,-51.26953125
-355.95703125,-1000.0,-976.07421875,-25.87890625
285.15625,-17.08984375,256.34765625,-11.71875
496.58203125,999.51171875,999.51171875,-20.01953125
16.6015625,478.515625,250.9765625,-25.87890625
-520.01953125,-883.30078125,-994.62890625,-24.4140625
-407.2265625,-1000.0,-1000.0,-18.5546875
216.796875,-67.3828125,24.4140625,-14.6484375
497.55859375,999.51171875,999.51171875,-14.6484375
75.68359375,618.65234375,380.859375,-27.34375
-502.9296875,-736.81640625,-919.43359375,-41.50390625
-480.46875,-1000.0,-1000.0,-27.83203125
148.4375,-207.51953125,-158.203125,-16.11328125
509.765625,999.51171875,999.51171875,-17.578125
151.85546875,858.88671875,602.5390625,-22.94921875
-437.98828125,-457.03125,-751.953125,-27.83203125
-514.16015625,-1000.0,-1000.0,-17.08984375
85.9375,-209.9609375,-196.77734375,-5.859375
518.06640625,969.7265625,999.51171875,-15.13671875
240.72265625,999.51171875,894.04296875,-28.3203125
-344.23828125,23.4375,-379.39453125,-15.13671875
-545.41015625,-1000.0,-1000.0,-8.7890625
-13.671875,-429.19921875,-218.26171875,-11.23046875
489.74609375,905.76171875,999.51171875,-3.90625
280.2734375,999.51171875,975.5859375,-13.671875
-323.2421875,17.08984375,-215.8203125,-29.78515625
-586.9140625,-1000.0,-1000.0,-29.296875
-94.7265625,-559.08203125,-318.84765625,-14.6484375
469.7265625,783.69140625,931.640625,-11.23046875
349.12109375,999.51171875,999.51171875,-26.85546875
-239.2578125,255.859375,63.4765625,-37.109375
-566.89453125,-1000.0,-1000.0,-21.484375
-171.875,-920.41015625,-524.90234375,-4.39453125
424.31640625,415.0390625,818.359375,-1.46484375
413.0859375,999.51171875,999.51171875,-9.27734375
-187.98828125,152.83203125,145.5078125,-31.25
-587.890625,-1000.0,-1000.0,-31.25
-240.72265625,-1000.0,-742.67578125,-3.90625
389.6484375,215.33203125,606.4453125,7.32421875
452.1484375,999.51171875,999.51171875,-11.23046875
-102.05078125,310.546875,171.875,-31.25
-566.40625,-1000.0,-1000.0,-31.73828125
-315.91796875,-831.54296875,-873.53515625,-11.71875
325.68359375,528.80859375,428.7109375,8.7890625
460.44921875,999.51171875,999.51171875,-4.39453125
-43.9453125,362.3046875,207.51953125,-24.90234375
-540.52734375,-922.8515625,-1000.0,-21.484375
-390.625,-1000.0,-1000.0,-11.71875
245.1171875,-45.8984375,84.47265625,-5.859375
480.46875,999.51171875,999.51171875,-16.11328125
34.1796875,445.3125,315.4296875,-23.92578125
-489.2578125,-886.71875,-953.125,-21.484375
-426.7578125,-1000.0,-1000.0,-18.06640625
193.84765625,-213.8671875,-116.69921875,-15.625
500.0,999.51171875,999.51171875,-25.87890625
116.69921875,836.42578125,557.6171875,-38.57421875
-440.91796875,-494.62890625,-790.0390625,-44.921875
-500.9765625,-1000.0,-1000.0,-37.109375
105.46875,-183.59375,-190.4296875,-18.06640625
503.41796875,999.51171875,999.51171875,-8.30078125
177.734375,998.046875,774.4140625,-22.4609375
-411.1328125,-212.890625,-554.6875,-45.8984375
-564.453125,-1000.0,-1000.0,-42.96875
18.06640625,-158.69140625,-185.546875,-32.2265625
475.5859375,973.6328125,999.51171875,-38.0859375
230.95703125,999.51171875,983.3984375,-32.2265625
-323.2421875,226.07421875,-190.91796875,-25.87890625
-565.4296875,-1000.0,-1000.0,-32.2265625
-74.70703125,-630.859375,-291.015625,-22.94921875
465.33203125,762.20703125,954.58984375,-11.71875
316.40625,999.51171875,999.51171875,-15.13671875
-270.99609375,174.31640625,3.90625,-33.69140625
-590.8203125,-1000.0,-1000.0,-36.62109375
-166.015625,-779.78515625,-460.9375,-17.578125
412.59765625,586.42578125,865.72265625,-11.23046875
342.28515625,999.51171875,999.51171875,-27.83203125
-230.95703125,195.3125,120.60546875,-47.36328125
-600.09765625,-1000.0,-1000.0,-42.48046875
-223.14453125,-476.07421875,-557.12890625,-27.34375
387.20703125,884.27734375,796.38671875,-21.97265625
389.6484375,999.51171875,999.51171875,-28.3203125
-154.78515625,155.76171875,164.55078125,-33.203125
-578.125,-1000.0,-1000.0,-39.55078125
-333.49609375,-1000.0,-886.71875,-54.19921875
282.2265625,26.3671875,412.109375,-52.734375
415.52734375,999.51171875,999.51171875,-51.26953125
-96.19140625,261.71875,173.33984375,-53.22265625
-567.87109375,-990.234375,-1000.0,-49.31640625
-384.765625,-1000.0,-1000.0,-34.1796875
242.67578125,-66.89453125,142.08984375,-23.4375
466.30859375,999.51171875,999.51171875,-23.4375
8.30078125,592.28515625,314.453125,-44.921875
-532.2265625,-795.41015625,-963.8671875,-60.546875
-442.87109375,-1000.0,-1000.0,-33.69140625
183.59375,-3.41796875,-25.87890625,-23.92578125
458.0078125,999.51171875,999.51171875,-36.1328125
75.68359375,766.11328125,479.98046875,-35.64453125
-469.7265625,-540.0390625,-847.16796875,-37.109375
-498.53515625,-1000.0,-1000.0,-30.76171875
119.140625,-160.15625,-190.4296875,-9.765625
476.5625,970.703125,999.51171875,-15.13671875
133.30078125,999.51171875,750.48828125,-38.0859375
-418.9453125,140.625,-586.42578125,-42.48046875
-550.78125,-1000.0,-1000.0,-38.0859375
23.92578125,-365.72265625,-197.265625,-24.90234375
474.12109375,966.30859375,999.51171875,-15.13671875
211.42578125,999.51171875,911.1328125,-28.80859375
-362.3046875,-68.359375,-344.23828125,-36.1328125
-566.40625,-1000.0,-1000.0,-27.34375
-35.15625,-468.26171875,-248.046875,-10.7421875
472.16796875,862.3046875,983.3984375,-7.32421875
278.3203125,999.51171875,999.51171875,-23.4375
-304.6875,87.890625,-108.3984375,-35.64453125
-600.09765625,-1000.0,-1000.0,-35.15625
-116.2109375,-288.57421875,-319.82421875,-23.4375
454.1015625,956.54296875,934.08203125,-14.16015625
323.73046875,999.51171875,999.51171875,-19.53125
-249.0234375,207.51953125,97.65625,-41.015625
-590.8203125,-1000.0,-1000.0,-44.43359375
-197.75390625,-819.3359375,-566.40625,-26.85546875
402.34375,535.64453125,783.69140625,-19.53125
375.9765625,999.51171875,999.51171875,-35.15625
-181.640625,144.53125,158.203125,-53.22265625
-572.265625,-1000.0,-1000.0,-42.96875
-277.83203125,-1000.0,-837.40234375,-22.4609375
329.58984375,93.75,481.4453125,-16.11328125
416.9921875,999.51171875,999.51171875,-30.76171875
-85.44921875,438.4765625,181.15234375,-42.96875
-536.62109375,-898.92578125,-1000.0,-23.4375
-353.515625,-1000.0,-999.0234375,-17.08984375
270.01953125,-38.57421875,216.30859375,-24.4140625
442.87109375,999.51171875,999.51171875,-18.5546875
-22.4609375,460.9375,260.25390625,-21.484375
-539.0625,-886.23046875,-995.1171875,-47.36328125
-442.3828125,-1000.0,-1000.0,-46.875
208.49609375,-134.765625,36.62109375,-19.04296875
456.54296875,999.51171875,999.51171875,-17.578125
44.43359375,853.515625,464.84375,-38.57421875
-470.21484375,-446.2890625,-856.4453125,-48.33984375
-465.33203125,-1000.0,-1000.0,-34.1796875
146.484375,-206.0546875,-162.109375,-26.85546875
482.421875,999.51171875,999.51171875,-34.1796875
119.140625,829.1015625,629.39453125,-45.41015625
-446.2890625,-506.34765625,-726.07421875,-54.6875
-537.109375,-1000.0,-1000.0,-53.22265625
69.3359375,-175.78125,-188.96484375,-38.0859375
481.4453125,998.53515625,999.51171875,-27.83203125
191.89453125,999.51171875,871.58203125,-33.69140625
-369.62890625,-102.05078125,-414.55078125,-39.0625
-550.29296875,-1000.0,-1000.0,-31.73828125
20.99609375,-165.52734375,-186.03515625,-16.11328125
480.46875,979.00390625,999.51171875,-14.6484375
237.3046875,999.51171875,999.51171875,-30.76171875
-312.5,229.98046875,-108.88671875,-49.31640625
-566.89453125,-1000.0,-1000.0,-34.66796875
-92.7734375,-633.7890625,-333.49609375,-16.11328125
436.5234375,766.6015625,937.98828125,-25.390625
298.828125,999.51171875,999.51171875,-33.203125
-262.20703125,137.6953125,29.296875,-40.52734375
-578.125,-1000.0,-1000.0,-35.15625
-167.48046875,-681.640625,-497.0703125,-21.97265625
419.43359375,686.5234375,832.51953125,-10.7421875
373.046875,999.51171875,999.51171875,-17.08984375
-171.875,235.3515625,172.8515625,-37.109375
-570.3125,-1000.0,-1000.0,-39.0625
-270.5078125,-1000.0,-730.46875,-28.80859375
333.0078125,165.52734375,621.58203125,-23.4375
383.30078125,999.51171875,999.51171875,-38.0859375
-116.69921875,455.56640625,179.19921875,-48.33984375
-544.921875,-923.33984375,-1000.0,-39.0625
-320.3125,-1000.0,-918.9453125,-24.4140625
302.24609375,178.22265625,360.83984375,-19.04296875
440.91796875,999.51171875,999.51171875,-25.390625
-44.43359375,387.20703125,226.5625,-38.0859375
-532.2265625,-906.73828125,-1000.0,-39.55078125
-396.484375,-1000.0,-1000.0,-30.2734375
223.14453125,-160.64453125,72.265625,-28.80859375
447.265625,999.51171875,999.51171875,-36.1328125
7.8125,543.45703125,346.19140625,-52.734375
-514.6484375,-827.1484375,-934.5703125,-66.89453125
-469.23828125,-1000.0,-1000.0,-52.734375
157.71484375,-201.66015625,-145.01953125,-33.203125
471.6796875,999.51171875,999.51171875,-35.64453125
104.4921875,944.82421875,603.515625,-49.8046875
-425.78125,-320.80078125,-751.46484375,-50.78125
-494.140625,-1000.0,-1000.0,-33.69140625
96.6796875,-182.6171875,-188.4765625,-25.87890625
464.84375,999.51171875,999.51171875,-27.83203125
159.1796875,999.51171875,793.45703125,-29.296875
-381.8359375,-171.38671875,-526.85546875,-27.83203125
-550.78125,-1000.0,-1000.0,-28.80859375
0.0,-310.546875,-207.03125,-28.80859375
459.9609375,952.1484375,999.51171875,-26.3671875
226.07421875,999.51171875,940.91796875,-28.3203125
-326.66015625,-41.9921875,-286.1328125,-39.0625
-562.5,-1000.0,-1000.0,-36.62109375
-70.80078125,-450.68359375,-287.59765625,-29.78515625
440.4296875,850.5859375,939.453125,-27.83203125
276.85546875,999.51171875,999.51171875,-42.96875
-258.30078125,327.63671875,78.61328125,-60.546875
-567.87109375,-1000.0,-1000.0,-41.9921875
-160.15625,-805.17578125,-461.9140625,-15.625
400.390625,595.703125,870.60546875,-20.01953125
332.03125,999.51171875,999.51171875,-32.2265625
-207.03125,159.1796875,135.25390625,-37.59765625
-573.2421875,-1000.0,-1000.0,-40.0390625
-235.3515625,-973.14453125,-673.828125,-35.64453125
366.69921875,282.71484375,683.10546875,-27.34375
393.06640625,999.51171875,999.51171875,-34.1796875
-135.25390625,235.83984375,167.48046875,-45.41015625
-556.640625,-996.58203125,-1000.0,-50.29296875
-311.5234375,-1000.0,-889.16015625,-33.69140625
301.7578125,21.97265625,407.71484375,-8.30078125
416.9921875,999.51171875,999.51171875,-16.11328125
-88.37890625,283.203125,186.5234375,-43.9453125
-555.17578125,-972.16796875,-1000.0,-54.6875
-385.7421875,-1000.0,-1000.0,-44.921875
239.74609375,-147.4609375,127.44140625,-30.2734375
443.359375,999.51171875,999.51171875,-31.73828125
9.27734375,645.5078125,333.984375,-38.57421875
-501.953125,-766.6015625,-954.58984375,-35.64453125
-449.70703125,-1000.0,-1000.0,-34.66796875
187.98828125,57.6171875,-21.97265625,-24.90234375
463.37890625,999.51171875,999.51171875,-15.13671875
61.03515625,810.546875,497.55859375,-34.1796875
-482.91015625,-465.33203125,-830.078125,-51.7578125
-519.53125,-1000.0,-1000.0,-39.0625
115.234375,-176.26953125,-175.29296875,-14.16015625
487.79296875,999.51171875,999.51171875,-9.765625
145.5078125,999.51171875,764.16015625,-44.43359375
-412.109375,-106.4453125,-564.453125,-64.94140625
-543.9453125,-1000.0,-1000.0,-36.1328125
16.6015625,-315.91796875,-188.96484375,-22.4609375
430.17578125,927.24609375,999.51171875,-41.015625
191.40625,999.51171875,967.28515625,-44.921875
-334.47265625,166.9921875,-234.86328125,-42.96875
-568.84765625,-1000.0,-1000.0,-45.41015625
-49.8046875,-479.4921875,-252.44140625,-28.3203125
451.66015625,878.41796875,979.98046875,-18.06640625
255.37109375,999.51171875,999.51171875,-31.73828125
-285.15625,171.875,-66.89453125,-44.921875
-564.453125,-1000.0,-1000.0,-36.1328125
-117.1875,-572.265625,-373.53515625,-20.01953125
433.10546875,811.03515625,906.73828125,-18.5546875
322.265625,999.51171875,999.51171875,-23.4375
-222.65625,180.17578125,125.0,-33.69140625
-554.19921875,-1000.0,-1000.0,-17.578125
-185.05859375,-877.44140625,-593.26171875,18.06640625
393.06640625,452.1484375,762.20703125,8.7890625
375.9765625,999.51171875,999.51171875,-25.87890625
-167.96875,151.3671875,166.015625,-43.9453125
-570.3125,-1000.0,-1000.0,-49.8046875
-282.71484375,-1000.0,-820.3125,-34.66796875
331.54296875,133.7890625,506.8359375,-14.6484375
414.0625,999.51171875,999.51171875,-22.94921875
-87.40234375,271.97265625,174.8046875,-50.29296875
-541.015625,-1000.0,-1000.0,-68.359375
-353.02734375,-1000.0,-977.05078125,-54.19921875
277.83203125,208.0078125,259.765625,-29.78515625
449.21875,999.51171875,999.51171875,-37.59765625
-22.94921875,369.140625,248.53515625,-52.734375
-514.6484375,-903.80859375,-982.421875,-57.12890625
-400.87890625,-1000.0,-1000.0,-36.1328125
220.21484375,-220.21484375,-54.19921875,-11.23046875
463.8671875,999.51171875,999.51171875,-4.39453125
61.03515625,780.2734375,444.3359375,-9.765625
-462.40234375,-572.75390625,-880.859375,-7.8125
-466.796875,-1000.0,-1000.0,11.71875
146.484375,-171.875,-154.296875,28.80859375
471.19140625,989.2578125,999.51171875,22.4609375
128.41796875,999.51171875,728.515625,-26.85546875
-416.9921875,-44.921875,-610.3515625,-69.82421875
-535.64453125,-1000.0,-1000.0,-64.453125
66.89453125,-200.1953125,-193.84765625,-32.71484375
481.4453125,999.51171875,999.51171875,-38.57421875
172.36328125,987.79296875,854.98046875,-80.56640625
-392.578125,-197.75390625,-437.5,-90.33203125
-572.75390625,-1000.0,-1000.0,-89.35546875
-19.04296875,-365.234375,-208.984375,-82.03125
461.42578125,891.6015625,985.83984375,-72.265625
245.60546875,999.51171875,999.51171875,-77.1484375
-295.8984375,213.37890625,-55.6640625,-80.078125
-569.82421875,-1000.0,-1000.0,-78.61328125
-106.93359375,-510.7421875,-317.87109375,-71.77734375
431.15234375,864.2578125,942.3828125,-62.5
300.29296875,999.51171875,999.51171875,-62.5
-249.51171875,196.77734375,72.265625,-67.3828125
-579.58984375,-1000.0,-1000.0,-61.03515625
-175.29296875,-637.6953125,-483.3984375,-47.36328125
396.97265625,752.44140625,847.16796875,-46.875
336.42578125,999.51171875,999.51171875,-58.10546875
-191.89453125,171.38671875,158.203125,-61.5234375
-566.40625,-1000.0,-1000.0,-55.6640625
-250.0,-924.31640625,-753.90625,-46.38671875
371.09375,377.44140625,595.703125,-30.76171875
400.390625,999.51171875,999.51171875,-35.64453125
-144.04296875,187.01171875,163.0859375,-54.19921875
-576.66015625,-1000.0,-1000.0,-63.4765625
-353.02734375,-1000.0,-945.3125,-59.5703125
274.4140625,45.41015625,307.12890625,-44.43359375
422.36328125,999.51171875,999.51171875,-42.48046875
-38.0859375,565.91796875,258.30078125,-49.8046875
-519.53125,-775.390625,-993.1640625,-56.640625
-408.203125,-1000.0,-1000.0,-55.6640625
209.9609375,-125.9765625,47.36328125,-54.19921875
440.91796875,999.51171875,999.51171875,-52.734375
43.45703125,999.51171875,431.15234375,-48.33984375
-473.14453125,-165.0390625,-879.8828125,-38.57421875
-479.98046875,-1000.0,-1000.0,-30.2734375
142.578125,-210.44921875,-153.80859375,-30.76171875
459.47265625,999.51171875,999.51171875,-34.1796875
93.26171875,858.88671875,574.70703125,-39.0625
-443.84765625,-462.40234375,-776.85546875,-42.48046875
-511.23046875,-1000.0,-1000.0,-33.203125
90.8203125,-165.0390625,-190.4296875,-16.6015625
464.84375,981.93359375,999.51171875,-21.97265625
158.203125,999.51171875,857.421875,-42.48046875
-383.30078125,37.59765625,-437.98828125,-45.41015625
-537.59765625,-1000.0,-1000.0,-28.80859375
41.50390625,-185.546875,-184.5703125,-15.625
474.12109375,999.51171875,999.51171875,-20.01953125
211.42578125,999.51171875,965.33203125,-37.109375
-336.42578125,39.55078125,-226.07421875,-43.9453125
-574.21875,-1000.0,-1000.0,-36.62109375
-75.68359375,-482.91015625,-283.203125,-33.69140625
444.82421875,851.5625,948.2421875,-32.71484375
285.15625,999.51171875,999.51171875,-28.3203125
-269.04296875,196.77734375,55.6640625,-38.57421875
-592.28515625,-1000.0,-1000.0,-44.43359375
-173.828125,-756.34765625,-464.84375,-31.73828125
403.80859375,620.1171875,865.72265625,-32.71484375
325.68359375,999.51171875,999.51171875,-50.29296875
-227.05078125,151.85546875,125.0,-56.640625
-577.1484375,-1000.0,-1000.0,-44.43359375
-241.69921875,-956.54296875,-661.1328125,-31.73828125
360.3515625,316.40625,691.89453125,-22.4609375
396.484375,999.51171875,999.51171875,-20.5078125
-139.6484375,170.8984375,165.0390625,-29.78515625
-555.6640625,-1000.0,-1000.0,-29.78515625
-309.5703125,-1000.0,-893.06640625,-26.85546875
302.24609375,103.02734375,396.484375,-24.4140625
427.24609375,999.51171875,999.51171875,-30.76171875
-61.5234375,613.76953125,219.7265625,-45.41015625
-524.4140625,-720.703125,-1000.0,-38.0859375
-378.41796875,-1000.0,-1000.0,-28.3203125
235.3515625,-143.5546875,118.1640625,-21.97265625
449.21875,999.51171875,999.51171875,-24.4140625
6.34765625,604.98046875,338.37890625,-38.0859375
-504.8828125,-767.578125,-942.87109375,-41.015625
-443.359375,-1000.0,-1000.0,-31.73828125
181.15234375,-176.26953125,-68.84765625,-20.99609375
480.95703125,984.86328125,999.51171875,-22.94921875
115.72265625,999.51171875,569.82421875,-34.1796875
-416.50390625,-33.203125,-730.46875,-11.71875
-477.5390625,-1000.0,-1000.0,29.78515625
107.421875,-196.2890625,-163.57421875,41.50390625
483.88671875,999.51171875,999.51171875,201.66015625
174.31640625,999.51171875,729.4921875,442.3828125
-402.83203125,-140.625,-608.3984375,567.3828125
-542.48046875,-1000.0,-1000.0,678.7109375
52.24609375,-198.2421875,-190.91796875,872.0703125
499.51171875,964.35546875,999.51171875,968.75
236.328125,999.51171875,953.61328125,969.7265625
-333.0078125,227.05078125,-257.8125,926.7578125
-574.21875,-1000.0,-1000.0,867.67578125
-49.31640625,-349.12109375,-244.140625,928.7109375
488.76953125,952.63671875,979.98046875,968.26171875
312.01171875,999.51171875,999.51171875,971.19140625
-287.59765625,173.33984375,-52.24609375,880.37109375
-598.6328125,-1000.0,-1000.0,774.90234375
-143.06640625,-580.56640625,-390.13671875,821.2890625
446.2890625,799.31640625,899.4140625,884.765625
368.1640625,999.51171875,999.51171875,846.19140625
-236.81640625,175.29296875,121.09375,708.49609375
-609.86328125,-1000.0,-1000.0,626.953125
-234.86328125,-910.64453125,-637.6953125,674.8046875
382.32421875,381.34765625,719.23828125,742.67578125
417.96875,999.51171875,999.51171875,703.61328125
-159.66796875,278.80859375,162.109375,560.05859375
-597.16796875,-938.4765625,-1000.0,523.92578125
-350.5859375,-1000.0,-895.99609375,-9.27734375
241.2109375,-249.0234375,398.92578125,-640.13671875
416.015625,999.51171875,999.51171875,-422.36328125
-82.51953125,269.53125,176.7578125,-105.95703125
-568.359375,-1000.0,-1000.0,38.0859375
-375.48828125,-1000.0,-1000.0,194.3359375
270.99609375,-103.515625,167.96875,352.5390625
510.25390625,999.51171875,999.51171875,455.078125
32.71484375,576.66015625,306.640625,390.625
-543.45703125,-822.75390625,-974.609375,221.6796875
-453.61328125,-1000.0,-1000.0,212.40234375
199.70703125,22.4609375,22.4609375,348.6328125
486.81640625,999.51171875,999.51171875,386.71875
77.1484375,727.5390625,480.95703125,255.859375
-513.18359375,-588.37890625,-842.28515625,34.1796875
