TP9,AF7,AF8,TP10
118.1640625,-29.78515625,-43.45703125,-201.66015625
63.96484375,-28.3203125,-44.921875,-168.45703125
-82.03125,-35.15625,-43.9453125,-166.50390625
-145.01953125,-41.9921875,-43.9453125,-187.5
-34.1796875,-47.36328125,-50.78125,-156.25
94.7265625,-46.38671875,-47.8515625,-96.19140625
54.19921875,-41.015625,-42.48046875,-68.84765625
-94.7265625,-33.69140625,-38.0859375,-78.61328125
-147.4609375,-40.0390625,-42.96875,-175.78125
-1.953125,-48.828125,-48.33984375,-147.94921875
139.6484375,-38.0859375,-40.52734375,60.05859375
103.515625,-31.25,-40.0390625,203.61328125
-55.6640625,-42.96875,-50.29296875,114.74609375
-153.3203125,-47.36328125,-47.8515625,62.01171875
-75.1953125,-42.96875,-48.33984375,6.34765625
70.80078125,-43.9453125,-52.24609375,49.8046875
70.3125,-42.96875,-47.36328125,223.14453125
-61.5234375,-38.0859375,-45.8984375,205.078125
-150.87890625,-38.57421875,-45.41015625,245.60546875
-87.40234375,-41.015625,-42.96875,137.20703125
56.15234375,-47.8515625,-44.43359375,-65.4296875
80.078125,-44.43359375,-48.33984375,-0.9765625
-31.25,-41.9921875,-56.15234375,25.87890625
-140.625,-49.8046875,-59.08203125,48.828125
-130.37109375,-48.33984375,-55.6640625,116.2109375
19.53125,-41.015625,-46.875,161.62109375
66.89453125,-37.59765625,-39.0625,147.94921875
-50.78125,-41.9921875,-42.96875,61.03515625
-142.578125,-45.41015625,-49.8046875,-39.55078125
-132.8125,-38.57421875,-49.8046875,-154.78515625
-2.44140625,-30.76171875,-37.109375,-160.15625
71.77734375,-25.87890625,-36.62109375,-157.2265625
-54.6875,-36.62109375,-46.38671875,-263.18359375
-163.0859375,-46.38671875,-46.38671875,-261.71875
-130.859375,-40.0390625,-42.96875,-167.48046875
-9.765625,-42.48046875,-42.96875,-104.00390625
61.03515625,-45.41015625,-44.921875,-81.0546875
-5.37109375,-39.0625,-34.1796875,20.01953125
-123.046875,-36.1328125,-33.69140625,34.66796875
-144.53125,-44.921875,-42.96875,22.4609375
-16.6015625,-50.78125,-42.96875,69.3359375
62.98828125,-38.0859375,-34.66796875,21.97265625
-0.48828125,-24.90234375,-26.85546875,-57.6171875
-125.48828125,-41.015625,-45.8984375,-55.6640625
-154.296875,-50.78125,-55.6640625,4.39453125
-40.0390625,-45.8984375,-49.8046875,26.3671875
69.3359375,-42.48046875,-50.78125,-75.1953125
37.59765625,-45.41015625,-47.36328125,-84.47265625
-97.16796875,-53.22265625,-46.875,-15.625
-167.96875,-54.6875,-49.8046875,-56.640625
-50.78125,-54.19921875,-50.29296875,-81.54296875
68.359375,-47.36328125,-44.43359375,20.99609375
29.296875,-39.55078125,-41.50390625,56.15234375
-102.05078125,-42.48046875,-41.9921875,52.24609375
-176.26953125,-43.9453125,-43.45703125,-2.44140625
-89.84375,-42.96875,-50.78125,-54.6875
42.96875,-30.76171875,-44.921875,-125.48828125
46.875,-21.484375,-35.15625,-81.54296875
-95.703125,-36.1328125,-46.875,45.41015625
-173.33984375,-47.36328125,-53.22265625,58.10546875
-80.078125,-41.50390625,-48.828125,-27.83203125
51.26953125,-37.59765625,-47.36328125,-208.0078125
44.921875,-41.9921875,-46.38671875,-97.16796875
-78.61328125,-51.7578125,-49.8046875,65.91796875
-158.69140625,-55.6640625,-50.29296875,79.1015625
-111.328125,-50.29296875,-49.31640625,65.91796875
22.94921875,-44.43359375,-51.26953125,23.92578125
62.98828125,-46.38671875,-44.921875,21.484375
-49.8046875,-41.50390625,-33.203125,-197.265625
-155.76171875,-43.45703125,-40.52734375,-403.3203125
-145.99609375,-54.6875,-54.6875,-377.9296875
14.6484375,-46.38671875,-50.78125,-193.84765625
101.07421875,-37.59765625,-46.875,22.4609375
-1.953125,-36.62109375,-45.8984375,74.21875
-143.06640625,-41.015625,-46.38671875,36.1328125
-154.78515625,-43.45703125,-45.41015625,28.3203125
-19.53125,-41.9921875,-45.41015625,96.19140625
62.01171875,-42.96875,-45.41015625,139.6484375
-20.5078125,-49.8046875,-49.8046875,115.72265625
-136.71875,-52.24609375,-42.96875,94.7265625
-142.578125,-50.29296875,-37.109375,90.8203125
-20.01953125,-46.38671875,-43.9453125,70.80078125
81.0546875,-40.0390625,-46.38671875,72.75390625
29.296875,-34.1796875,-44.43359375,74.70703125
-81.0546875,-36.1328125,-44.43359375,42.96875
-131.34765625,-43.45703125,-45.41015625,16.6015625
-58.59375,-44.43359375,-43.9453125,39.0625
30.76171875,-41.015625,-41.015625,65.91796875
-19.04296875,-33.203125,-43.45703125,7.32421875
-128.41796875,-37.109375,-58.59375,-46.875
-186.03515625,-46.875,-63.96484375,-66.40625
-66.40625,-32.71484375,-43.45703125,-43.45703125
83.0078125,-23.4375,-34.66796875,-9.27734375
40.52734375,-36.62109375,-52.734375,-25.390625
-56.15234375,-41.50390625,-52.734375,-49.8046875
-125.9765625,-45.41015625,-47.8515625,-75.68359375
-72.75390625,-43.45703125,-47.8515625,-26.3671875
53.22265625,-36.62109375,-45.8984375,-60.05859375
29.78515625,-34.66796875,-48.33984375,-238.28125
-88.37890625,-41.015625,-55.6640625,-312.98828125
-170.41015625,-47.36328125,-60.05859375,-355.46875
-84.47265625,-47.8515625,-54.6875,-361.328125
65.91796875,-38.57421875,-42.48046875,-317.3828125
67.87109375,-26.85546875,-32.2265625,-345.703125
-67.3828125,-42.96875,-43.9453125,-278.80859375
-159.1796875,-54.6875,-54.19921875,-222.16796875
-108.3984375,-48.33984375,-55.6640625,-276.3671875
22.94921875,-41.9921875,-53.22265625,-264.6484375
55.6640625,-41.50390625,-51.7578125,-191.89453125
-45.41015625,-46.38671875,-49.31640625,-106.4453125
-136.23046875,-49.31640625,-48.33984375,-148.92578125
-103.02734375,-52.24609375,-50.78125,-227.5390625
35.64453125,-51.7578125,-51.7578125,-271.97265625
92.28515625,-44.43359375,-48.828125,-286.62109375
-22.4609375,-53.22265625,-48.828125,-309.08203125
-149.90234375,-68.359375,-49.31640625,-269.53125
-120.1171875,-62.01171875,-45.8984375,-163.0859375
32.71484375,-53.22265625,-48.33984375,-141.11328125
121.58203125,-45.8984375,-34.1796875,-111.328125
44.43359375,-43.9453125,-25.87890625,-114.74609375
-92.7734375,-60.05859375,-49.31640625,-121.58203125
-111.328125,-57.6171875,-45.41015625,-138.18359375
20.99609375,-52.734375,-29.296875,-150.390625
98.14453125,-58.59375,-33.69140625,-72.75390625
44.921875,-64.453125,-41.015625,65.4296875
-64.94140625,-65.91796875,-41.50390625,68.84765625
-99.609375,-62.98828125,-37.59765625,-36.1328125
4.8828125,-69.3359375,-41.015625,-33.69140625
121.58203125,-64.453125,-37.109375,41.9921875
88.8671875,-59.5703125,-30.76171875,26.3671875
-51.7578125,-68.84765625,-36.62109375,16.11328125
-125.9765625,-77.63671875,-42.48046875,40.52734375
-14.6484375,-75.68359375,-38.57421875,-10.7421875
94.23828125,-67.3828125,-27.83203125,15.625
74.21875,-67.87109375,-34.1796875,-1.46484375
-5.37109375,-71.77734375,-55.17578125,13.18359375
-92.7734375,-74.21875,-67.3828125,81.0546875
-23.92578125,-78.125,-63.96484375,106.93359375
90.8203125,-78.125,-62.01171875,233.88671875
21.484375,-82.03125,-63.96484375,271.97265625
-126.953125,-82.51953125,-65.91796875,24.4140625
-166.9921875,-78.61328125,-67.3828125,-41.50390625
-73.2421875,-79.1015625,-61.03515625,150.87890625
55.6640625,-79.1015625,-64.453125,198.2421875
58.59375,-77.63671875,-72.265625,198.73046875
-56.640625,-79.1015625,-68.84765625,191.89453125
-134.765625,-77.63671875,-65.4296875,133.30078125
-91.30859375,-77.1484375,-72.265625,135.7421875
34.1796875,-73.2421875,-74.70703125,192.87109375
58.59375,-72.265625,-71.2890625,182.6171875
-44.43359375,-76.171875,-72.75390625,158.69140625
-153.3203125,-75.1953125,-69.82421875,114.2578125
-115.72265625,-76.66015625,-62.5,25.87890625
51.7578125,-78.61328125,-67.3828125,0.0
67.87109375,-82.51953125,-76.171875,46.38671875
-48.828125,-84.9609375,-79.58984375,33.203125
-137.20703125,-86.42578125,-82.03125,-222.65625
-129.8828125,-91.796875,-83.0078125,-291.50390625
4.8828125,-91.796875,-81.54296875,-23.4375
43.9453125,-86.9140625,-76.66015625,74.21875
-62.01171875,-86.9140625,-77.1484375,54.6875
-160.64453125,-87.890625,-77.63671875,53.7109375
-166.015625,-92.7734375,-81.0546875,61.03515625
-46.38671875,-94.23828125,-83.49609375,76.171875
30.2734375,-91.796875,-86.9140625,71.2890625
-36.62109375,-90.8203125,-89.35546875,48.33984375
-159.66796875,-95.21484375,-93.26171875,4.39453125
-171.38671875,-97.16796875,-94.7265625,-12.6953125
-41.50390625,-88.37890625,-90.33203125,-1.953125
64.453125,-84.47265625,-90.33203125,16.11328125
7.32421875,-87.890625,-84.9609375,25.390625
-129.8828125,-89.35546875,-86.9140625,-4.8828125
-155.76171875,-91.30859375,-94.23828125,-32.2265625
-39.0625,-88.8671875,-92.7734375,-20.01953125
75.68359375,-80.078125,-90.33203125,15.13671875
27.83203125,-84.9609375,-94.7265625,3.41796875
-130.859375,-90.33203125,-93.26171875,-34.66796875
-205.078125,-88.37890625,-89.84375,-55.17578125
-135.25390625,-100.5859375,-99.12109375,-33.203125
-25.390625,-104.98046875,-104.4921875,-104.4921875
-24.90234375,-99.12109375,-99.609375,-307.12890625
-114.74609375,-98.6328125,-103.515625,-423.33984375
-164.0625,-101.5625,-112.3046875,-399.4140625
-116.69921875,-104.98046875,-113.28125,-376.46484375
9.27734375,-104.98046875,-110.3515625,-385.7421875
10.7421875,-105.95703125,-111.328125,-278.80859375
-133.30078125,-110.83984375,-115.234375,-276.85546875
-219.7265625,-113.28125,-115.72265625,-364.74609375
-157.71484375,-110.83984375,-111.328125,-309.08203125
-11.71875,-105.46875,-105.95703125,-184.08203125
20.5078125,-108.3984375,-104.98046875,-149.90234375
-125.9765625,-112.3046875,-104.00390625,-262.6953125
-246.09375,-115.72265625,-111.328125,-402.83203125
-213.8671875,-117.67578125,-115.234375,-423.33984375
-79.58984375,-113.28125,-110.83984375,-379.39453125
-20.01953125,-116.69921875,-114.2578125,-353.02734375
-103.515625,-121.58203125,-121.09375,-352.5390625
-212.40234375,-119.140625,-122.55859375,-366.2109375
-181.640625,-111.328125,-112.3046875,-328.125
-35.15625,-112.3046875,-105.95703125,-223.14453125
27.83203125,-117.67578125,-115.234375,-208.0078125
-54.6875,-112.79296875,-119.140625,-225.09765625
-185.05859375,-113.76953125,-119.140625,-241.69921875
-189.453125,-119.62890625,-125.9765625,-274.4140625
-56.640625,-121.09375,-131.34765625,-22.4609375
27.83203125,-118.65234375,-127.9296875,-113.76953125
-24.90234375,-120.1171875,-127.9296875,-99.609375
-164.55078125,-121.58203125,-128.90625,-24.4140625
-194.82421875,-122.0703125,-129.8828125,-31.25
-56.15234375,-118.1640625,-129.8828125,-73.73046875
21.484375,-109.86328125,-122.55859375,-99.12109375
-77.1484375,-118.1640625,-124.51171875,-86.9140625
-192.3828125,-128.41796875,-131.8359375,-63.96484375
-203.125,-129.8828125,-132.8125,-60.05859375
-88.37890625,-126.46484375,-127.44140625,-42.48046875
15.13671875,-122.0703125,-127.9296875,-96.19140625
-42.48046875,-128.90625,-135.7421875,-137.6953125
-188.96484375,-131.34765625,-134.765625,-158.203125
-250.9765625,-130.37109375,-131.8359375,-199.70703125
-157.71484375,-128.90625,-134.27734375,-142.08984375
-18.06640625,-125.9765625,-139.16015625,-125.9765625
-22.4609375,-122.55859375,-137.6953125,-181.15234375
-142.578125,-125.0,-140.625,-151.85546875
-211.42578125,-129.8828125,-141.11328125,-94.7265625
-128.90625,-129.8828125,-142.08984375,-83.49609375
-10.25390625,-126.953125,-151.3671875,-93.26171875
5.859375,-117.1875,-152.83203125,-137.20703125
-99.12109375,-117.67578125,-154.296875,-189.453125
-200.68359375,-130.37109375,-156.25,-206.0546875
-193.84765625,-141.6015625,-149.90234375,-215.8203125
-96.6796875,-141.11328125,-156.73828125,-256.34765625
-63.4765625,-141.11328125,-169.43359375,-317.3828125
-196.2890625,-145.5078125,-172.8515625,-336.42578125
-271.484375,-141.6015625,-179.6875,-351.5625
-177.734375,-140.13671875,-187.01171875,-353.02734375
-70.3125,-141.11328125,-183.10546875,-361.81640625
-42.48046875,-141.11328125,-178.7109375,-390.13671875
-162.59765625,-140.13671875,-179.6875,-397.4609375
-332.03125,-143.06640625,-186.03515625,-399.4140625
-363.76953125,-149.4140625,-186.5234375,-372.0703125
-254.39453125,-153.80859375,-183.10546875,-359.86328125
-196.77734375,-155.76171875,-188.4765625,-395.01953125
-324.70703125,-153.80859375,-195.3125,-415.0390625
-462.40234375,-152.83203125,-189.94140625,-392.578125
-478.02734375,-152.83203125,-177.24609375,-328.61328125
-354.00390625,-147.94921875,-180.17578125,-306.640625
-297.8515625,-149.90234375,-186.03515625,-331.54296875
-436.03515625,-159.1796875,-188.4765625,-332.03125
-556.640625,-161.62109375,-188.96484375,-288.0859375
-549.31640625,-155.2734375,-181.640625,-243.1640625
-458.0078125,-146.97265625,-178.22265625,-243.65234375
-380.37109375,-145.5078125,-184.08203125,-231.4453125
-394.53125,-150.390625,-184.5703125,-232.421875
-479.98046875,-151.85546875,-168.9453125,-195.80078125
-490.234375,-151.85546875,-163.57421875,-150.87890625
-365.72265625,-154.78515625,-167.96875,-148.92578125
-274.90234375,-155.2734375,-164.55078125,-173.33984375
-300.78125,-148.92578125,-157.71484375,-174.31640625
-412.109375,-146.484375,-154.296875,-162.59765625
-437.98828125,-147.94921875,-150.87890625,-150.87890625
-278.3203125,-138.671875,-147.94921875,-128.41796875
-119.140625,-130.859375,-143.5546875,-112.3046875
-143.06640625,-137.20703125,-139.16015625,-122.0703125
-265.13671875,-141.11328125,-139.16015625,-127.9296875
51.26953125,-124.0234375,-136.23046875,-75.68359375
109.86328125,-118.65234375,-135.7421875,-119.140625
1.46484375,-118.65234375,-139.16015625,-202.1484375
-101.07421875,-119.140625,-138.671875,-222.65625
-60.546875,-115.72265625,-133.30078125,-268.06640625
86.42578125,-104.4921875,-127.44140625,-227.5390625
135.7421875,-103.515625,-129.8828125,-153.80859375
5.37109375,-110.3515625,-132.8125,-166.9921875
-133.30078125,-116.69921875,-131.34765625,-192.87109375
-96.6796875,-115.72265625,-127.44140625,-166.015625
70.3125,-109.375,-120.60546875,-136.71875
173.828125,-104.4921875,-123.046875,-119.140625
91.30859375,-104.00390625,-125.9765625,-114.2578125
-38.0859375,-105.95703125,-122.55859375,-147.4609375
-39.55078125,-106.4453125,-119.140625,-149.90234375
77.1484375,-108.3984375,-118.65234375,-116.69921875
177.24609375,-109.375,-119.62890625,-96.6796875
109.375,-107.91015625,-118.65234375,-109.86328125
-47.8515625,-107.421875,-122.55859375,-126.46484375
-120.60546875,-111.328125,-124.0234375,-121.58203125
7.8125,-105.46875,-116.69921875,-105.95703125
138.671875,-101.07421875,-113.76953125,-82.51953125
113.28125,-104.98046875,-114.2578125,-57.6171875
-10.7421875,-109.86328125,-112.3046875,-69.82421875
-111.81640625,-111.328125,-111.81640625,-125.9765625
-16.6015625,-104.00390625,-108.3984375,-152.34375
121.58203125,-100.5859375,-102.5390625,-87.40234375
73.2421875,-103.515625,-99.12109375,-43.9453125
-71.2890625,-106.4453125,-103.515625,-68.359375
-150.390625,-104.4921875,-108.3984375,-99.609375
-44.43359375,-95.703125,-102.5390625,-82.51953125
76.66015625,-88.8671875,-95.703125,-46.875
43.45703125,-89.35546875,-103.515625,-48.33984375
-86.42578125,-95.21484375,-105.95703125,-92.7734375
-165.52734375,-102.05078125,-108.3984375,-137.6953125
-66.40625,-101.5625,-110.3515625,-109.86328125
73.2421875,-96.6796875,-105.46875,-54.19921875
72.75390625,-96.19140625,-104.00390625,-76.66015625
-55.17578125,-96.6796875,-102.05078125,-95.703125
-162.109375,-94.23828125,-100.09765625,-86.9140625
-92.7734375,-94.23828125,-99.12109375,-95.21484375
46.38671875,-87.890625,-94.23828125,-45.41015625
46.875,-81.0546875,-91.796875,-23.4375
-75.68359375,-82.03125,-89.84375,-46.875
-169.43359375,-83.49609375,-87.40234375,-63.4765625
-132.32421875,-79.58984375,-86.9140625,-84.47265625
20.01953125,-72.75390625,-83.49609375,-52.24609375
80.56640625,-77.1484375,-82.51953125,-12.20703125
-34.1796875,-79.58984375,-91.796875,-31.73828125
-118.1640625,-78.125,-92.28515625,-69.82421875
-74.70703125,-74.70703125,-80.078125,-56.640625
-0.48828125,-67.87109375,-88.8671875,-69.82421875
46.38671875,-67.87109375,-100.5859375,-79.58984375
-6.34765625,-76.66015625,-102.5390625,-83.984375
-133.30078125,-78.125,-103.515625,-132.32421875
-161.62109375,-78.125,-107.421875,-112.3046875
-43.45703125,-79.58984375,-114.2578125,-94.7265625
33.203125,-80.56640625,-114.2578125,-115.72265625
-57.12890625,-89.35546875,-113.76953125,-126.46484375
-182.12890625,-89.35546875,-116.2109375,-138.18359375
-207.03125,-87.890625,-114.74609375,-120.60546875
-110.83984375,-84.47265625,-111.81640625,-113.76953125
8.7890625,-78.61328125,-114.2578125,-89.35546875
-54.6875,-79.1015625,-112.79296875,-36.62109375
-227.5390625,-82.51953125,-106.4453125,-78.61328125
-268.5546875,-81.0546875,-106.4453125,-132.8125
-157.2265625,-80.078125,-104.00390625,-106.93359375
-54.19921875,-82.51953125,-98.14453125,-49.8046875
-55.17578125,-81.54296875,-94.7265625,-37.59765625
-144.04296875,-79.1015625,-94.23828125,-76.66015625
-234.86328125,-77.63671875,-88.37890625,-104.98046875
-147.94921875,-75.68359375,-84.9609375,-83.984375
-14.6484375,-72.75390625,-80.56640625,-8.30078125
-43.9453125,-74.70703125,-74.21875,3.90625
-151.85546875,-78.61328125,-80.078125,-47.8515625
-192.87109375,-83.49609375,-87.40234375,-55.17578125
-98.6328125,-80.078125,-87.890625,-29.78515625
18.06640625,-74.21875,-78.125,-21.97265625
1.953125,-80.56640625,-74.21875,-19.04296875
-110.83984375,-87.890625,-75.68359375,-18.5546875
-181.15234375,-92.28515625,-76.171875,-20.5078125
-132.8125,-94.7265625,-83.0078125,-29.296875
-31.25,-93.75,-85.9375,-24.4140625
-4.8828125,-85.9375,-78.125,51.26953125
-110.83984375,-84.9609375,-71.77734375,59.08203125
-204.1015625,-86.9140625,-74.70703125,-32.71484375
-146.97265625,-78.61328125,-81.54296875,-38.0859375
-20.99609375,-76.66015625,-79.1015625,-5.37109375
31.25,-72.265625,-75.1953125,16.6015625
-27.83203125,-67.87109375,-77.1484375,9.765625
-172.8515625,-75.68359375,-76.171875,-28.80859375
-217.28515625,-70.80078125,-73.2421875,-41.015625
-89.35546875,-64.453125,-68.359375,-4.8828125
-18.06640625,-66.40625,-66.40625,25.390625
-125.48828125,-60.546875,-73.73046875,12.20703125
-220.21484375,-56.15234375,-75.1953125,-51.7578125
-195.80078125,-59.5703125,-66.40625,-47.36328125
-64.453125,-62.98828125,-64.453125,-5.37109375
25.87890625,-59.08203125,-79.58984375,-48.33984375
-54.6875,-56.15234375,-81.54296875,-73.2421875
-172.8515625,-58.59375,-70.80078125,-102.05078125
-186.5234375,-64.453125,-75.68359375,-145.01953125
-84.47265625,-68.84765625,-73.2421875,-125.48828125
32.71484375,-62.98828125,-73.2421875,-88.8671875
-2.44140625,-58.10546875,-82.51953125,-110.3515625
-143.06640625,-63.4765625,-79.1015625,-143.5546875
-174.31640625,-67.87109375,-72.75390625,-161.62109375
-92.7734375,-56.640625,-61.03515625,-128.90625
-11.71875,-55.6640625,-62.98828125,-94.23828125
-15.625,-62.5,-66.40625,-82.03125
-103.515625,-62.98828125,-63.4765625,-109.375
-154.78515625,-68.359375,-69.3359375,-174.8046875
-109.375,-68.84765625,-74.21875,-192.3828125
-6.34765625,-65.4296875,-71.77734375,-182.6171875
-65.4296875,-61.5234375,-65.4296875,-216.30859375
-209.47265625,-60.546875,-60.546875,-272.4609375
-241.69921875,-63.4765625,-62.5,-283.203125
-147.94921875,-62.98828125,-67.87109375,-306.640625
-9.27734375,-57.12890625,-72.265625,-313.4765625
2.44140625,-57.6171875,-68.84765625,-257.8125
-106.93359375,-58.10546875,-65.91796875,-258.30078125
-161.62109375,-54.6875,-64.453125,-265.625
-99.609375,-54.19921875,-59.5703125,-241.69921875
0.9765625,-49.8046875,-56.15234375,-183.10546875
-9.27734375,-43.9453125,-57.12890625,-145.5078125
-137.20703125,-43.45703125,-58.59375,-179.6875
-222.65625,-49.31640625,-60.05859375,-162.109375
-152.83203125,-51.7578125,-66.40625,-147.94921875
0.9765625,-48.828125,-63.96484375,-142.08984375
53.22265625,-46.38671875,-52.24609375,-115.234375
-41.015625,-45.41015625,-53.7109375,-194.3359375
-141.6015625,-44.43359375,-55.17578125,-312.5
-92.7734375,-40.0390625,-54.19921875,-360.83984375
44.43359375,-30.76171875,-46.875,-319.3359375
119.140625,-18.06640625,-29.296875,-267.578125
83.984375,-21.484375,-37.59765625,-272.94921875
-28.3203125,-41.9921875,-59.5703125,-288.0859375
-30.76171875,-39.55078125,-52.734375,-288.57421875
62.98828125,-32.2265625,-50.29296875,-235.3515625
105.95703125,-41.015625,-57.12890625,-152.34375
71.2890625,-45.8984375,-62.98828125,-171.38671875
-28.3203125,-44.921875,-68.84765625,-214.35546875
-46.875,-49.8046875,-66.40625,-206.0546875
59.08203125,-59.5703125,-62.98828125,-173.33984375
121.58203125,-61.5234375,-67.87109375,-123.53515625
114.74609375,-53.7109375,-66.40625,-109.375
62.98828125,-54.19921875,-61.03515625,-127.44140625
70.3125,-56.15234375,-69.3359375,-177.24609375
144.04296875,-53.22265625,-73.2421875,-158.203125
246.09375,-52.734375,-65.4296875,-89.35546875
272.4609375,-48.33984375,-58.59375,-89.84375
185.546875,-50.29296875,-68.359375,-108.88671875
135.7421875,-49.8046875,-70.80078125,-105.95703125
145.01953125,-41.015625,-63.4765625,-130.37109375
201.66015625,-34.66796875,-59.08203125,-96.6796875
186.03515625,-36.62109375,-57.12890625,-54.6875
61.03515625,-39.55078125,-65.4296875,-108.3984375
13.671875,-37.59765625,-62.5,-120.1171875
78.125,-36.62109375,-58.59375,-97.16796875
181.15234375,-39.55078125,-61.03515625,-56.640625
233.88671875,-35.15625,-54.19921875,-25.390625
162.59765625,-31.73828125,-58.59375,-88.8671875
83.984375,-35.64453125,-61.5234375,-106.93359375
108.88671875,-33.69140625,-55.17578125,-68.84765625
140.625,-31.25,-48.828125,-34.66796875
124.51171875,-29.78515625,-42.96875,-26.85546875
51.26953125,-33.203125,-45.8984375,-68.359375
-49.8046875,-35.15625,-48.33984375,-113.28125
-32.71484375,-33.69140625,-46.38671875,-106.4453125
81.54296875,-28.80859375,-46.38671875,-74.21875
92.7734375,-20.99609375,-42.96875,-32.2265625
29.296875,-25.87890625,-43.9453125,-55.6640625
-32.2265625,-33.69140625,-52.734375,-138.18359375
-6.34765625,-29.78515625,-53.22265625,-137.20703125
45.41015625,-31.73828125,-46.875,-74.21875
100.09765625,-35.64453125,-39.55078125,-10.7421875
48.828125,-37.59765625,-42.48046875,-33.69140625
-87.40234375,-45.41015625,-49.31640625,-105.46875
-112.3046875,-46.38671875,-48.33984375,-111.81640625
-53.7109375,-42.48046875,-44.921875,-43.45703125
26.3671875,-39.0625,-42.96875,-13.671875
19.04296875,-33.69140625,-44.921875,-51.26953125
-62.5,-34.66796875,-47.8515625,-71.77734375
-70.80078125,-36.1328125,-49.31640625,-58.59375
26.85546875,-30.2734375,-44.43359375,-22.4609375
113.76953125,-33.203125,-36.1328125,3.90625
69.82421875,-37.109375,-47.36328125,-12.6953125
-7.8125,-33.69140625,-53.7109375,-61.03515625
-19.04296875,-29.78515625,-49.31640625,-94.23828125
42.96875,-29.78515625,-50.29296875,-69.82421875
98.14453125,-28.80859375,-43.45703125,9.27734375
57.6171875,-25.87890625,-41.50390625,-14.16015625
-47.36328125,-31.73828125,-38.57421875,-60.546875
-92.7734375,-30.2734375,-35.15625,-37.109375
-25.87890625,-25.390625,-39.0625,-39.0625
54.19921875,-25.87890625,-34.66796875,-0.48828125
33.203125,-24.90234375,-33.203125,38.0859375
-35.15625,-30.2734375,-33.69140625,-33.69140625
-148.4375,-34.66796875,-34.66796875,-191.89453125
-137.6953125,-33.69140625,-37.59765625,-283.69140625
24.90234375,-31.25,-39.55078125,-283.69140625
34.66796875,-33.203125,-41.50390625,-317.87109375
-66.40625,-32.71484375,-44.43359375,-390.13671875
-142.578125,-31.25,-42.96875,-406.25
-125.48828125,-35.64453125,-41.50390625,-376.46484375
-22.4609375,-28.80859375,-40.52734375,-282.71484375
34.1796875,-25.390625,-39.55078125,-233.88671875
4.39453125,-22.4609375,-36.1328125,-266.6015625
-62.01171875,-24.4140625,-39.55078125,-293.9453125
-83.0078125,-27.83203125,-44.921875,-267.578125
-9.27734375,-23.4375,-42.96875,-166.015625
-0.48828125,-22.94921875,-42.48046875,-110.83984375
-114.74609375,-24.4140625,-47.36328125,-108.88671875
-164.0625,-25.390625,-66.40625,-156.25
-89.35546875,-26.85546875,-81.0546875,-160.64453125
-17.08984375,-23.92578125,-77.63671875,-85.9375
23.92578125,-21.97265625,-76.66015625,-24.4140625
22.94921875,-23.4375,-81.54296875,-21.97265625
-6.34765625,-20.01953125,-77.63671875,-59.5703125
31.73828125,-23.4375,-77.1484375,-69.3359375
127.44140625,-32.2265625,-83.984375,-47.8515625
161.62109375,-34.1796875,-68.359375,51.26953125
147.94921875,-32.2265625,-62.01171875,60.546875
120.1171875,-28.80859375,-68.84765625,-14.6484375
96.19140625,-33.69140625,-71.77734375,-14.16015625
146.97265625,-34.66796875,-72.75390625,32.2265625
238.28125,-30.2734375,-68.359375,85.9375
205.078125,-31.73828125,-61.03515625,63.4765625
111.328125,-32.71484375,-58.59375,34.1796875
110.83984375,-33.203125,-52.734375,36.1328125
205.56640625,-30.2734375,-46.38671875,60.05859375
247.55859375,-33.69140625,-49.8046875,95.703125
177.24609375,-37.59765625,-44.921875,104.00390625
89.35546875,-35.15625,-44.921875,63.4765625
58.10546875,-40.0390625,-45.41015625,58.10546875
91.796875,-42.96875,-36.62109375,85.44921875
141.6015625,-41.50390625,-27.34375,129.8828125
147.94921875,-38.57421875,-31.25,137.20703125
51.26953125,-38.57421875,-40.0390625,70.80078125
-28.80859375,-38.57421875,-41.50390625,2.44140625
2.44140625,-33.69140625,-38.0859375,4.39453125
62.01171875,-28.3203125,-26.85546875,81.0546875
25.390625,-25.390625,-26.85546875,93.26171875
-42.48046875,-26.3671875,-30.76171875,18.5546875
-90.8203125,-25.390625,-33.69140625,-10.7421875
-72.265625,-21.97265625,-45.8984375,17.08984375
50.78125,-18.5546875,-56.640625,54.19921875
89.84375,-18.5546875,-64.453125,65.4296875
-1.46484375,-18.06640625,-72.265625,3.41796875
-69.82421875,-16.11328125,-75.68359375,-34.66796875
-59.5703125,-15.625,-74.21875,-26.3671875
2.44140625,-10.25390625,-66.89453125,-12.6953125
30.2734375,-8.7890625,-61.03515625,20.5078125
-7.32421875,-9.27734375,-60.05859375,14.6484375
-93.26171875,-11.71875,-56.640625,-34.66796875
-90.33203125,-22.4609375,-52.734375,-30.76171875
3.41796875,-19.04296875,-41.9921875,48.33984375
19.04296875,-6.34765625,-42.96875,29.78515625
-62.01171875,-4.39453125,-51.26953125,-16.6015625
-106.93359375,-7.32421875,-49.31640625,-36.62109375
-62.98828125,-6.8359375,-41.015625,-41.50390625
5.859375,2.9296875,-20.99609375,6.8359375
-1.46484375,6.8359375,-11.23046875,44.921875
-41.9921875,-1.953125,-18.5546875,57.12890625
-67.87109375,-2.9296875,-29.296875,-3.41796875
-82.51953125,-6.34765625,-31.73828125,-36.1328125
-57.6171875,-16.11328125,-29.296875,18.06640625
7.8125,-16.6015625,-17.578125,51.7578125
-30.2734375,-13.18359375,-9.27734375,20.5078125
-107.421875,-12.20703125,-15.13671875,-42.48046875
-138.18359375,-5.859375,-13.671875,-47.8515625
-48.33984375,3.90625,-13.18359375,-4.8828125
44.921875,4.8828125,-6.8359375,52.24609375
-25.390625,-1.46484375,-0.9765625,68.84765625
-131.34765625,-1.46484375,-6.8359375,41.015625
-146.484375,1.953125,-5.859375,17.08984375
-81.54296875,3.41796875,-1.46484375,12.6953125
-64.94140625,3.41796875,4.8828125,60.546875
-86.42578125,4.8828125,4.39453125,68.359375
-135.7421875,8.30078125,-3.41796875,13.18359375
-210.9375,3.41796875,0.9765625,-7.32421875
-156.25,0.0,-0.9765625,-3.90625
-59.08203125,2.44140625,-3.90625,17.578125
-42.48046875,6.8359375,2.44140625,60.05859375
-125.9765625,2.9296875,2.44140625,49.8046875
-189.94140625,2.44140625,-4.39453125,-21.97265625
-117.1875,3.41796875,-2.44140625,-44.43359375
10.25390625,5.37109375,8.7890625,-0.9765625
13.671875,9.27734375,10.25390625,54.6875
-63.96484375,1.46484375,5.859375,32.71484375
-94.7265625,-6.34765625,-3.41796875,-36.62109375
-59.5703125,-4.8828125,-6.8359375,-32.71484375
6.34765625,4.39453125,0.0,12.6953125
6.8359375,7.32421875,0.0,62.01171875
-83.49609375,6.34765625,3.41796875,55.6640625
-154.78515625,9.765625,14.16015625,12.6953125
-125.0,5.37109375,10.25390625,-12.6953125
-51.7578125,-6.8359375,-3.90625,5.37109375
-1.953125,-5.859375,-2.44140625,55.17578125
6.8359375,-3.41796875,5.859375,30.76171875
-26.85546875,-9.27734375,-0.48828125,-13.671875
-2.44140625,-7.32421875,-15.625,-26.85546875
106.93359375,-0.48828125,-10.7421875,2.9296875
166.015625,1.953125,-2.44140625,20.99609375
103.515625,-1.953125,-6.8359375,-17.578125
37.59765625,-4.39453125,-16.11328125,-37.59765625
58.10546875,-3.41796875,-20.99609375,-94.23828125
125.48828125,-0.48828125,-18.06640625,-93.75
153.80859375,-0.9765625,-12.6953125,-26.3671875
100.09765625,-10.7421875,-13.671875,3.90625
-6.8359375,-15.13671875,-17.578125,-35.15625
-59.5703125,-19.04296875,-11.23046875,-27.34375
32.71484375,-20.5078125,-20.01953125,6.34765625
88.8671875,-17.578125,-45.8984375,6.8359375
50.78125,-19.53125,-55.6640625,14.16015625
4.39453125,-23.92578125,-57.6171875,-17.578125
-51.7578125,-25.390625,-60.05859375,-63.4765625
17.08984375,-24.90234375,-52.734375,-26.3671875
80.56640625,-19.53125,-41.9921875,22.4609375
59.5703125,-11.23046875,-37.109375,33.203125
-27.34375,-17.08984375,-39.0625,-5.859375
-59.08203125,-18.5546875,-46.38671875,-74.70703125
12.6953125,-17.08984375,-46.875,-100.09765625
94.7265625,-13.18359375,-35.64453125,-39.0625
65.4296875,-13.18359375,-33.69140625,-10.7421875
-52.24609375,-21.484375,-33.203125,-47.8515625
-104.4921875,-22.94921875,-30.76171875,-96.6796875
-4.8828125,-18.06640625,-30.2734375,-116.2109375
131.34765625,-16.6015625,-28.80859375,-85.9375
109.375,-14.16015625,-24.90234375,-46.875
34.1796875,-10.25390625,-17.578125,-60.05859375
-13.671875,-16.11328125,-21.97265625,-82.03125
67.3828125,-12.6953125,-24.4140625,-112.79296875
197.265625,-3.41796875,-16.11328125,-106.4453125
162.109375,-6.34765625,-14.16015625,-64.94140625
40.52734375,-18.5546875,-15.13671875,-92.28515625
-20.01953125,-18.5546875,-11.23046875,-110.83984375
-20.01953125,-13.671875,-10.25390625,-98.14453125
36.1328125,-14.6484375,-13.18359375,-80.56640625
58.10546875,-11.71875,-8.7890625,-58.10546875
-43.45703125,-12.6953125,-11.23046875,-101.5625
-113.28125,-9.765625,-15.13671875,-115.234375
-95.21484375,-9.27734375,-11.71875,-131.34765625
-52.734375,-17.08984375,-15.13671875,-473.6328125
-10.25390625,-6.34765625,-14.16015625,-713.37890625
-31.73828125,0.48828125,-7.32421875,-712.40234375
-113.76953125,-7.32421875,-16.11328125,-726.5625
-90.8203125,-13.18359375,-22.4609375,-713.8671875
-22.4609375,-14.16015625,-11.23046875,-640.625
2.44140625,-17.08984375,3.41796875,-571.2890625
-22.94921875,-20.01953125,10.7421875,-574.21875
-106.4453125,-15.625,3.90625,-613.76953125
-117.1875,-19.53125,2.9296875,-623.53515625
-57.6171875,-19.04296875,4.8828125,-555.17578125
-41.9921875,-18.5546875,4.39453125,-516.11328125
-67.87109375,-24.4140625,10.7421875,-494.140625
-95.21484375,-20.5078125,9.765625,-482.421875
-104.00390625,-16.6015625,0.9765625,-518.06640625
-29.296875,-18.5546875,-3.90625,-474.609375
41.9921875,-20.99609375,-1.953125,-408.203125
55.17578125,-20.5078125,-0.48828125,-367.1875
38.57421875,-21.97265625,-5.37109375,-375.0
-0.9765625,-26.3671875,-3.90625,-397.4609375
61.5234375,-20.01953125,7.8125,-333.984375
138.671875,-16.6015625,18.5546875,-271.97265625
115.234375,-21.484375,21.484375,-254.8828125
46.875,-23.4375,10.25390625,-260.25390625
7.32421875,-22.94921875,-6.8359375,-322.75390625
9.27734375,-18.06640625,-0.9765625,-331.0546875
72.265625,-17.08984375,6.8359375,-286.1328125
69.82421875,-20.5078125,-7.8125,-266.6015625
-39.55078125,-22.94921875,-9.765625,-270.99609375
-136.23046875,-27.83203125,-0.48828125,-269.04296875
-116.2109375,-25.390625,2.44140625,-244.62890625
-39.0625,-19.53125,7.32421875,-233.88671875
-61.03515625,-18.5546875,4.8828125,-247.0703125
-98.6328125,-16.6015625,3.90625,-242.67578125
-134.27734375,-12.6953125,9.27734375,-224.12109375
-102.5390625,-17.578125,4.39453125,-211.9140625
8.7890625,-17.08984375,3.90625,-166.9921875
28.80859375,-5.37109375,11.71875,-136.23046875
10.25390625,-2.9296875,2.44140625,-185.546875
-17.578125,0.0,-10.25390625,-230.46875
13.671875,1.953125,-20.5078125,-207.51953125
83.0078125,-0.9765625,-27.83203125,-201.66015625
118.1640625,-2.9296875,-24.90234375,-210.9375
87.40234375,-5.37109375,-22.4609375,-177.734375
20.99609375,-2.44140625,-20.99609375,-195.80078125
17.08984375,0.48828125,-22.4609375,-258.7890625
98.6328125,-2.44140625,-26.3671875,-234.86328125
110.3515625,-8.30078125,-27.34375,-166.9921875
24.90234375,-5.859375,-19.53125,-131.34765625
-84.9609375,-6.34765625,-23.92578125,-183.59375
-175.29296875,-16.11328125,-40.52734375,-250.9765625
-129.39453125,-18.5546875,-43.9453125,-198.2421875
-79.1015625,-13.18359375,-35.64453125,-136.71875
-122.55859375,-11.71875,-29.78515625,-155.76171875
-205.078125,-18.06640625,-29.296875,-167.96875
-250.0,-18.5546875,-27.83203125,-177.24609375
-201.171875,-18.5546875,-29.78515625,-183.59375
-138.18359375,-20.99609375,-31.25,-110.83984375
-122.0703125,-21.97265625,-29.296875,-91.796875
-176.26953125,-24.90234375,-35.15625,-178.22265625
-233.88671875,-32.2265625,-41.9921875,-195.3125
-185.05859375,-32.71484375,-33.69140625,-143.06640625
-109.86328125,-32.71484375,-30.2734375,-115.234375
-91.796875,-31.73828125,-31.73828125,-101.5625
-98.14453125,-25.87890625,-31.73828125,-108.3984375
-85.44921875,-30.2734375,-33.203125,-143.5546875
-20.5078125,-37.109375,-32.2265625,-128.90625
91.30859375,-33.203125,-26.85546875,-83.0078125
118.1640625,-25.390625,-21.484375,-53.22265625
47.8515625,-26.85546875,-22.94921875,-73.73046875
0.48828125,-28.80859375,-26.85546875,-101.07421875
25.87890625,-26.85546875,-29.78515625,-104.4921875
86.42578125,-27.83203125,-32.2265625,-69.3359375
90.33203125,-31.25,-37.109375,-46.38671875
30.76171875,-28.3203125,-38.57421875,-71.77734375
15.13671875,-22.4609375,-32.71484375,-93.75
30.2734375,-26.85546875,-27.83203125,-80.078125
54.6875,-25.87890625,-29.78515625,-53.7109375
95.21484375,-22.94921875,-26.85546875,-31.25
54.19921875,-25.390625,-30.76171875,-33.69140625
-36.62109375,-26.3671875,-30.76171875,-40.52734375
-31.73828125,-23.92578125,-31.73828125,-51.26953125
27.34375,-17.08984375,-28.3203125,-60.546875
8.7890625,-13.18359375,-20.5078125,-18.06640625
-109.375,-20.01953125,-24.90234375,-21.484375
-194.3359375,-25.390625,-28.80859375,-65.91796875
-171.875,-22.4609375,-27.83203125,-73.73046875
-143.5546875,-18.5546875,-18.5546875,-26.85546875
-126.953125,-19.53125,-13.18359375,20.01953125
-146.484375,-22.4609375,-28.3203125,0.9765625
-194.82421875,-23.4375,-37.109375,-47.8515625
-209.9609375,-21.484375,-37.109375,-90.8203125
-156.25,-20.5078125,-40.52734375,-87.40234375
-132.8125,-20.5078125,-36.62109375,-27.83203125
-167.96875,-15.625,-31.25,-48.33984375
-227.05078125,-14.6484375,-28.80859375,-95.703125
-230.46875,-20.99609375,-29.78515625,-75.1953125
-162.59765625,-24.4140625,-27.34375,-67.87109375
-94.23828125,-18.06640625,-17.08984375,-43.9453125
-108.3984375,-16.6015625,-20.01953125,-56.640625
-166.50390625,-23.4375,-32.71484375,-80.56640625
-181.15234375,-22.94921875,-40.52734375,-84.9609375
-171.875,-23.4375,-42.48046875,-92.7734375
-128.90625,-22.94921875,-38.57421875,-57.6171875
-136.71875,-26.85546875,-32.2265625,-34.66796875
-217.7734375,-26.85546875,-34.1796875,-56.640625
-263.18359375,-21.484375,-35.64453125,-82.51953125
-193.84765625,-23.92578125,-34.1796875,-53.22265625
-103.02734375,-27.83203125,-32.71484375,-1.46484375
-109.86328125,-24.4140625,-28.3203125,-5.37109375
-154.78515625,-18.06640625,-21.484375,-41.50390625
-195.80078125,-21.484375,-26.3671875,-61.5234375
-169.43359375,-20.01953125,-34.66796875,-74.70703125
-72.75390625,-14.6484375,-31.25,-33.203125
-43.9453125,-9.27734375,-10.25390625,41.015625
-129.8828125,-14.16015625,3.41796875,-8.7890625
-168.9453125,-22.94921875,0.0,-88.37890625
-113.76953125,-26.85546875,0.48828125,-73.2421875
-41.015625,-29.296875,4.39453125,-32.71484375
-23.92578125,-26.3671875,-2.44140625,-11.23046875
-62.5,-26.85546875,-8.30078125,-31.73828125
-144.53125,-26.85546875,-3.41796875,-59.08203125
-140.13671875,-24.4140625,0.0,-67.87109375
-58.10546875,-20.5078125,-2.9296875,-57.6171875
-49.31640625,-12.6953125,-5.859375,-12.6953125
-65.4296875,-2.9296875,6.8359375,-5.37109375
-87.890625,-8.7890625,10.25390625,-50.78125
-83.49609375,-22.94921875,-7.8125,-59.08203125
25.87890625,-24.4140625,-13.671875,-51.26953125
80.56640625,-19.04296875,-11.71875,-18.06640625
28.3203125,-17.578125,-12.20703125,-9.27734375
-20.5078125,-17.08984375,-11.71875,-46.875
-40.0390625,-17.578125,-12.20703125,-49.8046875
-27.83203125,-17.08984375,-10.7421875,-38.0859375
5.37109375,-18.06640625,-9.27734375,-29.296875
-19.04296875,-21.484375,-13.671875,-26.85546875
-101.5625,-20.5078125,-18.5546875,-58.59375
-139.16015625,-18.5546875,-15.625,-70.3125
-75.68359375,-25.390625,-17.08984375,-35.64453125
-15.625,-27.83203125,-19.53125,-16.6015625
-86.42578125,-16.6015625,-9.765625,-20.99609375
-155.2734375,-13.18359375,-3.90625,-34.1796875
-175.29296875,-28.3203125,-12.20703125,-87.40234375
-131.8359375,-34.66796875,-18.5546875,-108.88671875
-59.5703125,-22.4609375,-17.08984375,-52.24609375
-44.43359375,-17.578125,-17.08984375,-50.29296875
-128.90625,-23.92578125,-23.4375,-98.14453125
-186.03515625,-25.390625,-24.90234375,-104.98046875
-70.3125,-26.3671875,-19.53125,-107.421875
39.0625,-23.92578125,-15.625,-63.4765625
24.4140625,-29.296875,-18.5546875,-46.38671875
1.953125,-31.25,-15.625,-69.82421875
-9.765625,-30.2734375,-18.06640625,-93.26171875
38.0859375,-24.4140625,-15.625,-99.609375
101.07421875,-20.99609375,-12.6953125,-61.5234375
143.5546875,-22.4609375,-18.06640625,-27.34375
114.2578125,-25.390625,-20.01953125,-22.94921875
31.25,-34.66796875,-24.4140625,-92.7734375
47.8515625,-30.76171875,-24.90234375,-101.5625
136.23046875,-21.97265625,-25.87890625,-34.66796875
127.44140625,-22.94921875,-28.80859375,-19.53125
67.3828125,-20.01953125,-33.69140625,-55.17578125
27.83203125,-18.5546875,-29.296875,-95.703125
34.1796875,-23.4375,-30.76171875,-91.30859375
139.16015625,-22.94921875,-28.80859375,-49.8046875
184.5703125,-19.53125,-20.99609375,-24.4140625
125.9765625,-20.99609375,-24.90234375,-52.734375
69.82421875,-26.85546875,-32.71484375,-90.8203125
67.3828125,-26.3671875,-31.25,-92.28515625
119.140625,-23.4375,-28.80859375,-53.7109375
183.59375,-30.2734375,-28.3203125,-13.671875
155.76171875,-32.71484375,-33.69140625,-49.8046875
37.109375,-32.71484375,-38.0859375,-108.88671875
0.9765625,-33.203125,-40.0390625,-126.953125
65.91796875,-32.2265625,-42.96875,-82.03125
137.6953125,-24.4140625,-37.109375,-35.15625
86.42578125,-20.99609375,-35.64453125,-12.6953125
-30.2734375,-26.3671875,-36.62109375,-68.359375
-23.4375,-26.3671875,-34.66796875,-100.09765625
80.56640625,-14.6484375,-31.73828125,-62.5
157.71484375,-16.11328125,-33.69140625,-44.921875
118.1640625,-27.34375,-41.50390625,-59.08203125
38.0859375,-31.25,-41.9921875,-100.09765625
14.16015625,-29.78515625,-41.50390625,-111.81640625
51.26953125,-29.296875,-45.8984375,-95.703125
83.0078125,-39.0625,-49.8046875,-53.7109375
40.0390625,-42.48046875,-43.9453125,-40.52734375
-22.94921875,-38.0859375,-42.96875,-76.66015625
-44.43359375,-38.57421875,-51.26953125,-105.95703125
24.90234375,-39.0625,-47.8515625,-73.73046875
124.51171875,-34.66796875,-38.0859375,-50.29296875
123.046875,-34.1796875,-36.62109375,-40.52734375
41.9921875,-37.59765625,-40.52734375,-8.7890625
8.7890625,-36.1328125,-36.62109375,-41.015625
40.52734375,-33.69140625,-39.55078125,-95.703125
49.8046875,-31.25,-37.59765625,-69.82421875
62.5,-29.296875,-31.25,-22.94921875
20.99609375,-32.2265625,-37.59765625,-38.57421875
-71.77734375,-34.66796875,-46.38671875,-97.16796875
-50.29296875,-35.64453125,-42.48046875,-103.02734375
32.71484375,-30.2734375,-32.71484375,-43.45703125
43.9453125,-22.94921875,-30.76171875,-1.46484375
-21.97265625,-25.390625,-32.2265625,-37.109375
-87.890625,-30.2734375,-32.71484375,-85.44921875
-43.45703125,-31.73828125,-37.109375,-92.7734375
66.89453125,-28.3203125,-42.48046875,-46.875
119.62890625,-18.5546875,-39.55078125,-0.48828125
31.73828125,-26.3671875,-37.59765625,-50.78125
-57.12890625,-43.45703125,-40.0390625,-93.26171875
-10.7421875,-36.62109375,-29.78515625,-81.0546875
101.07421875,-24.90234375,-25.87890625,-45.8984375
181.15234375,-24.90234375,-28.3203125,-9.27734375
137.20703125,-25.390625,-29.78515625,1.953125
45.41015625,-27.83203125,-30.76171875,-30.2734375
32.71484375,-33.203125,-22.4609375,-65.4296875
81.0546875,-27.83203125,-19.04296875,10.7421875
133.7890625,-20.99609375,-24.4140625,104.98046875
138.671875,-22.94921875,-19.04296875,114.74609375
24.90234375,-34.66796875,-22.4609375,58.59375
-27.83203125,-40.0390625,-35.15625,3.90625
66.89453125,-32.2265625,-24.4140625,65.91796875
111.81640625,-25.87890625,-10.7421875,124.0234375
40.52734375,-27.34375,-17.08984375,104.4921875
-56.640625,-36.1328125,-28.3203125,61.03515625
-81.54296875,-40.0390625,-32.71484375,-3.90625
-19.53125,-36.1328125,-37.59765625,2.44140625
68.84765625,-31.73828125,-33.203125,55.17578125
45.41015625,-37.109375,-30.2734375,66.40625
-37.109375,-37.109375,-33.69140625,43.9453125
-64.94140625,-30.2734375,-27.34375,5.37109375
-36.1328125,-35.64453125,-23.92578125,10.7421875
30.2734375,-39.0625,-26.85546875,70.80078125
11.23046875,-36.62109375,-28.3203125,85.9375
-65.91796875,-41.9921875,-25.390625,51.7578125
-86.9140625,-49.8046875,-30.76171875,3.41796875
-40.52734375,-48.828125,-36.62109375,9.27734375
69.3359375,-37.59765625,-26.85546875,41.015625
73.2421875,-31.73828125,-20.99609375,19.04296875
-46.38671875,-34.1796875,-27.83203125,-7.8125
-101.5625,-40.52734375,-32.71484375,-33.69140625
-73.2421875,-42.96875,-29.296875,-15.13671875
26.3671875,-37.109375,-26.3671875,58.59375
46.38671875,-37.59765625,-24.90234375,102.5390625
-39.0625,-33.69140625,-22.94921875,73.2421875
-92.28515625,-34.1796875,-25.87890625,20.99609375
-82.51953125,-37.109375,-26.85546875,28.3203125
8.30078125,-34.66796875,-27.34375,51.26953125
49.8046875,-35.15625,-35.15625,72.75390625
-20.01953125,-41.9921875,-36.62109375,85.44921875
-98.14453125,-43.9453125,-37.59765625,46.875
-70.80078125,-39.55078125,-36.62109375,30.76171875
0.48828125,-39.0625,-28.80859375,56.640625
37.59765625,-32.71484375,-24.90234375,94.23828125
-23.92578125,-30.76171875,-28.80859375,90.33203125
-131.8359375,-37.109375,-28.3203125,38.0859375
-107.421875,-39.0625,-25.390625,13.18359375
-8.7890625,-34.1796875,-25.87890625,29.78515625
34.66796875,-32.2265625,-26.3671875,66.40625
-23.92578125,-31.73828125,-23.4375,77.63671875
-115.72265625,-36.62109375,-31.25,31.25
-136.23046875,-43.45703125,-32.71484375,-15.13671875
-26.85546875,-42.48046875,-18.5546875,48.828125
31.73828125,-42.96875,-13.671875,127.44140625
-38.0859375,-39.0625,-25.390625,77.63671875
-122.0703125,-31.25,-36.62109375,-40.0390625
-136.23046875,-24.90234375,-42.48046875,-99.12109375
-35.15625,-27.83203125,-47.8515625,-50.29296875
34.1796875,-30.76171875,-45.8984375,-8.7890625
-27.83203125,-33.203125,-45.8984375,5.37109375
-107.421875,-39.55078125,-45.41015625,-0.48828125
-116.69921875,-38.57421875,-45.41015625,-45.8984375
-34.66796875,-33.203125,-41.50390625,-36.62109375
43.9453125,-31.25,-31.73828125,40.52734375
36.62109375,-28.3203125,-37.109375,68.359375
-22.4609375,-29.296875,-41.015625,41.9921875
-98.6328125,-35.64453125,-39.55078125,-16.6015625
-44.921875,-37.109375,-41.015625,-83.49609375
87.890625,-34.66796875,-32.2265625,-13.18359375
67.87109375,-37.59765625,-28.3203125,30.2734375
-43.9453125,-40.0390625,-27.34375,-28.3203125
-125.0,-36.62109375,-35.15625,-57.12890625
-73.73046875,-40.52734375,-45.41015625,-62.98828125
7.8125,-43.9453125,-40.0390625,-17.578125
-5.859375,-46.38671875,-36.62109375,20.01953125
-67.3828125,-47.8515625,-42.48046875,6.34765625
-121.58203125,-45.8984375,-42.96875,-12.6953125
-78.61328125,-38.57421875,-37.109375,-40.0390625
17.578125,-37.109375,-40.52734375,-27.34375
58.10546875,-40.0390625,-44.921875,-6.34765625
-24.90234375,-37.59765625,-43.45703125,-33.69140625
-105.95703125,-34.66796875,-40.0390625,-60.05859375
-83.984375,-37.109375,-34.66796875,-58.59375
-13.671875,-41.9921875,-37.109375,-28.3203125
26.85546875,-42.48046875,-36.62109375,-7.8125
-42.48046875,-48.828125,-39.0625,-23.4375
-131.8359375,-54.19921875,-43.45703125,-59.5703125
-120.60546875,-47.8515625,-40.52734375,-90.8203125
-24.4140625,-41.015625,-41.9921875,-55.6640625
55.17578125,-41.9921875,-45.8984375,-23.92578125
4.8828125,-39.55078125,-42.48046875,-38.57421875
-119.62890625,-38.57421875,-41.50390625,-74.21875
-134.27734375,-42.48046875,-39.55078125,-102.05078125
-24.90234375,-41.015625,-35.15625,-66.40625
13.18359375,-36.62109375,-32.2265625,-6.8359375
-69.82421875,-35.15625,-36.62109375,-15.625
-112.79296875,-39.55078125,-39.0625,-68.84765625
-155.76171875,-43.45703125,-39.55078125,-104.4921875
-151.3671875,-46.875,-40.52734375,-118.65234375
-106.93359375,-43.45703125,-33.203125,-76.66015625
-149.4140625,-46.38671875,-30.76171875,-36.62109375
-214.35546875,-50.78125,-39.0625,-66.89453125
-234.375,-50.78125,-41.9921875,-85.44921875
-176.7578125,-46.38671875,-39.55078125,-77.1484375
-83.0078125,-41.50390625,-42.48046875,-38.0859375
-90.8203125,-40.52734375,-40.52734375,0.0
-178.22265625,-40.0390625,-40.52734375,-43.9453125
-212.40234375,-40.0390625,-38.0859375,-84.9609375
-170.41015625,-48.33984375,-39.55078125,-64.453125
-66.40625,-45.41015625,-49.31640625,-46.875
-56.640625,-37.109375,-47.8515625,-45.8984375
-148.4375,-40.52734375,-46.38671875,-60.546875
-204.58984375,-41.015625,-57.12890625,-114.2578125
-162.59765625,-43.9453125,-57.12890625,-131.8359375
-54.6875,-41.9921875,-48.828125,-75.1953125
-22.4609375,-37.109375,-43.45703125,-16.6015625
-104.00390625,-34.1796875,-41.9921875,-33.69140625
-167.96875,-34.1796875,-48.828125,-100.5859375
-155.76171875,-37.109375,-56.15234375,-94.7265625
-72.75390625,-31.25,-58.10546875,-62.01171875
-44.43359375,-29.296875,-55.17578125,-49.31640625
-117.67578125,-34.66796875,-54.6875,-48.828125
-145.99609375,-40.52734375,-51.7578125,-71.2890625
-130.37109375,-44.921875,-50.78125,-79.1015625
-78.125,-41.015625,-53.22265625,-63.96484375
-25.390625,-33.69140625,-44.43359375,-39.0625
-69.82421875,-34.1796875,-44.921875,-52.734375
-128.90625,-38.0859375,-47.36328125,-77.1484375
-131.8359375,-39.55078125,-41.9921875,-80.56640625
-51.7578125,-40.52734375,-43.9453125,-62.98828125
13.671875,-41.9921875,-49.8046875,-35.15625
-36.62109375,-44.921875,-51.7578125,-30.2734375
-100.09765625,-43.45703125,-54.19921875,-75.1953125
-124.0234375,-47.8515625,-57.6171875,-129.39453125
-51.7578125,-49.31640625,-53.22265625,-88.8671875
40.0390625,-44.43359375,-50.29296875,-20.5078125
21.97265625,-46.38671875,-51.26953125,-5.37109375
-41.50390625,-47.36328125,-64.453125,-56.640625
-67.87109375,-45.8984375,-61.03515625,-109.375
-47.8515625,-49.8046875,-42.48046875,-95.703125
-5.37109375,-51.26953125,-39.0625,-71.2890625
-24.4140625,-54.19921875,-47.36328125,-80.078125
-74.21875,-60.546875,-48.33984375,-104.4921875
-100.09765625,-62.98828125,-35.64453125,-154.296875
-48.828125,-63.4765625,-32.2265625,-168.9453125
15.625,-56.640625,-37.109375,-119.62890625
-21.484375,-52.24609375,-33.69140625,-64.453125
-72.75390625,-59.5703125,-34.1796875,-77.63671875
-117.67578125,-60.05859375,-40.0390625,-140.625
-88.37890625,-60.546875,-36.62109375,-142.578125
3.90625,-56.640625,-27.34375,-78.61328125
-23.92578125,-51.26953125,-27.34375,-42.96875
-73.2421875,-52.24609375,-34.66796875,-80.56640625
-90.8203125,-52.734375,-40.52734375,-93.26171875
-29.78515625,-47.8515625,-39.55078125,-88.37890625
64.453125,-41.015625,-33.203125,-31.73828125
78.61328125,-39.0625,-27.34375,15.13671875
17.578125,-41.50390625,-29.296875,-30.2734375
-64.453125,-41.50390625,-33.203125,-71.2890625
-38.57421875,-39.55078125,-36.62109375,-74.70703125
85.44921875,-36.1328125,-35.64453125,-44.921875
104.4921875,-34.1796875,-31.25,-9.27734375
13.671875,-38.57421875,-30.76171875,-28.3203125
-47.8515625,-42.96875,-34.1796875,-69.82421875
-25.87890625,-41.9921875,-44.43359375,-83.984375
93.26171875,-34.1796875,-49.8046875,-76.66015625
151.3671875,-25.87890625,-47.36328125,-44.43359375
101.07421875,-25.390625,-44.43359375,-22.94921875
3.90625,-33.203125,-41.9921875,-52.24609375
-34.66796875,-37.59765625,-41.50390625,-93.26171875
25.390625,-34.66796875,-39.0625,-61.5234375
72.265625,-32.71484375,-30.76171875,11.23046875
32.2265625,-40.52734375,-38.0859375,7.8125
-47.36328125,-42.96875,-44.43359375,-62.98828125
-34.66796875,-39.55078125,-35.15625,-59.5703125
41.9921875,-44.921875,-37.109375,-34.66796875
94.23828125,-45.41015625,-46.38671875,-24.90234375
39.55078125,-45.8984375,-52.24609375,-31.25
-57.6171875,-50.29296875,-53.7109375,-76.66015625
-58.10546875,-51.26953125,-54.6875,-91.30859375
14.6484375,-47.36328125,-49.8046875,-76.66015625
54.6875,-43.9453125,-45.41015625,-46.875
38.0859375,-43.9453125,-49.8046875,-50.29296875
-36.1328125,-46.38671875,-50.29296875,-87.40234375
-80.56640625,-50.78125,-48.33984375,-99.12109375
-2.44140625,-49.8046875,-46.875,-77.1484375
61.03515625,-45.8984375,-46.38671875,-37.59765625
26.3671875,-44.921875,-51.7578125,-10.7421875
-48.33984375,-45.8984375,-53.22265625,-52.24609375
-94.23828125,-43.45703125,-47.36328125,-100.09765625
-46.875,-46.38671875,-50.29296875,-88.8671875
56.15234375,-49.31640625,-56.640625,-55.6640625
69.82421875,-45.41015625,-55.17578125,-25.390625
-16.6015625,-40.52734375,-52.734375,-32.2265625
-95.21484375,-46.38671875,-58.59375,-91.796875
-36.1328125,-51.26953125,-58.59375,-103.515625
70.80078125,-45.8984375,-55.17578125,-63.96484375
60.05859375,-42.48046875,-57.6171875,-48.828125
-46.875,-42.96875,-58.59375,-67.3828125
-135.7421875,-42.96875,-62.01171875,-94.23828125
-86.42578125,-37.109375,-56.15234375,-55.17578125
11.71875,-32.2265625,-50.29296875,-41.50390625
41.50390625,-36.1328125,-58.59375,-59.08203125
-39.0625,-41.015625,-59.08203125,-42.96875
-127.44140625,-44.921875,-56.15234375,-93.75
-90.8203125,-45.8984375,-63.96484375,-126.46484375
24.4140625,-43.45703125,-64.94140625,-60.05859375
62.01171875,-40.52734375,-55.6640625,-32.71484375
-16.11328125,-39.0625,-58.10546875,-69.82421875
-92.28515625,-41.9921875,-59.08203125,-113.76953125
-83.984375,-45.8984375,-57.6171875,-125.9765625
4.39453125,-41.50390625,-50.78125,-54.19921875
23.4375,-36.1328125,-38.0859375,0.9765625
-34.66796875,-42.48046875,-42.48046875,-36.1328125
-120.60546875,-45.41015625,-50.29296875,-59.5703125
-140.625,-38.57421875,-47.36328125,-81.0546875
-38.0859375,-41.9921875,-45.41015625,-67.3828125
23.92578125,-43.45703125,-47.8515625,-27.34375
-41.015625,-37.109375,-50.29296875,-6.8359375
-147.94921875,-43.9453125,-49.31640625,-26.85546875
-158.203125,-50.78125,-50.78125,-83.984375
-48.828125,-49.8046875,-49.31640625,-62.01171875
27.83203125,-47.36328125,-44.921875,6.34765625
-15.13671875,-43.9453125,-45.8984375,16.11328125
-83.0078125,-43.9453125,-49.8046875,-33.203125
-127.9296875,-48.828125,-51.26953125,-87.40234375
-65.4296875,-49.31640625,-50.78125,-63.96484375
47.36328125,-42.96875,-41.015625,9.765625
45.41015625,-35.64453125,-39.55078125,13.18359375
-54.6875,-42.48046875,-53.7109375,-47.8515625
-123.53515625,-45.8984375,-54.6875,-71.2890625
-69.3359375,-43.45703125,-50.78125,-54.19921875
49.8046875,-44.921875,-50.29296875,-22.4609375
43.45703125,-43.45703125,-50.29296875,-28.80859375
-67.87109375,-50.29296875,-52.734375,-45.8984375
-128.90625,-52.734375,-53.7109375,-77.63671875
-79.1015625,-48.33984375,-51.7578125,-88.37890625
32.71484375,-44.43359375,-47.36328125,-42.96875
42.48046875,-39.55078125,-41.015625,2.9296875
-46.875,-36.1328125,-45.8984375,-36.1328125
-132.8125,-44.921875,-57.12890625,-85.9375
-116.2109375,-49.31640625,-52.734375,-73.2421875
-7.32421875,-35.64453125,-47.36328125,-44.921875
16.6015625,-40.52734375,-48.828125,0.48828125
-83.49609375,-48.33984375,-49.31640625,-28.80859375
-167.96875,-45.41015625,-52.24609375,-85.9375
-123.53515625,-47.36328125,-56.15234375,-79.58984375
-16.6015625,-47.36328125,-48.828125,-29.78515625
24.4140625,-44.43359375,-47.8515625,-24.90234375
-28.80859375,-46.875,-49.8046875,-41.015625
-131.34765625,-44.921875,-40.0390625,-48.33984375
-161.1328125,-43.45703125,-37.59765625,-78.125
-67.3828125,-49.8046875,-42.48046875,-81.0546875
-25.390625,-49.31640625,-41.015625,-28.80859375
-88.37890625,-48.828125,-43.9453125,-29.296875
-157.71484375,-50.29296875,-52.734375,-77.63671875
-163.57421875,-50.78125,-53.22265625,-84.47265625
-21.97265625,-46.38671875,-46.38671875,-53.22265625
58.10546875,-43.45703125,-45.8984375,-53.22265625
-30.2734375,-42.96875,-47.8515625,-60.05859375
-115.234375,-41.015625,-49.31640625,-59.08203125
-132.32421875,-39.0625,-57.12890625,-81.54296875
-40.0390625,-41.50390625,-61.03515625,-113.76953125
59.5703125,-43.9453125,-57.12890625,-85.44921875
2.9296875,-45.41015625,-50.29296875,-48.828125
-104.00390625,-46.875,-48.33984375,-78.61328125
-108.3984375,-46.38671875,-48.33984375,-97.65625
-40.52734375,-43.9453125,-47.8515625,-80.078125
27.34375,-41.50390625,-46.38671875,-46.38671875
10.7421875,-39.0625,-41.50390625,-35.15625
-113.28125,-45.41015625,-42.96875,-69.3359375
-166.9921875,-52.734375,-45.8984375,-97.16796875
-67.87109375,-46.38671875,-39.55078125,-68.84765625
18.06640625,-41.9921875,-36.62109375,-43.9453125
-3.41796875,-47.8515625,-39.0625,-30.2734375
-101.07421875,-46.875,-44.43359375,-64.94140625
-167.48046875,-46.875,-51.26953125,-88.37890625
-83.49609375,-40.0390625,-41.50390625,-54.6875
39.0625,-32.71484375,-36.62109375,-41.9921875
24.4140625,-41.015625,-47.8515625,-45.8984375
-62.5,-47.8515625,-49.8046875,-67.3828125
-105.95703125,-39.55078125,-37.59765625,-81.54296875
-69.82421875,-38.0859375,-31.73828125,-68.84765625
28.3203125,-47.36328125,-40.0390625,-29.296875
45.41015625,-40.0390625,-36.62109375,-3.90625
-65.91796875,-32.2265625,-28.3203125,-34.66796875
-151.3671875,-35.64453125,-42.96875,-90.33203125
-96.19140625,-37.109375,-53.22265625,-100.09765625
28.80859375,-37.59765625,-41.015625,-38.0859375
54.19921875,-40.0390625,-39.55078125,-10.7421875
-50.78125,-46.875,-41.9921875,-27.83203125
-152.83203125,-51.26953125,-41.9921875,-65.91796875
-133.30078125,-46.875,-42.96875,-84.47265625
-23.92578125,-44.43359375,-41.015625,-43.45703125
14.16015625,-52.24609375,-45.41015625,-8.7890625
-60.05859375,-56.15234375,-54.19921875,-36.62109375
-100.09765625,-48.828125,-54.19921875,-67.87109375
-112.3046875,-43.9453125,-52.24609375,-79.1015625
-41.50390625,-43.45703125,-55.17578125,-64.94140625
13.18359375,-45.41015625,-56.640625,-10.25390625
-27.34375,-43.9453125,-64.94140625,-13.671875
-116.69921875,-38.0859375,-67.3828125,-66.89453125
-176.7578125,-40.52734375,-63.96484375,-76.66015625
-35.64453125,-42.96875,-67.3828125,-62.5
71.2890625,-37.109375,-66.40625,-50.78125
-5.859375,-38.0859375,-60.546875,-38.0859375
-114.74609375,-42.48046875,-61.5234375,-75.1953125
-149.4140625,-41.015625,-60.546875,-114.74609375
-29.78515625,-34.1796875,-58.10546875,-86.42578125
116.2109375,-32.71484375,-63.4765625,-39.0625
102.05078125,-36.1328125,-59.5703125,-22.4609375
-13.671875,-36.1328125,-51.7578125,-61.5234375
-89.84375,-41.015625,-55.6640625,-100.09765625
-17.578125,-42.96875,-58.59375,-87.40234375
105.46875,-40.52734375,-58.59375,-39.55078125
103.515625,-31.73828125,-49.8046875,-18.06640625
-10.7421875,-25.87890625,-47.8515625,-57.6171875
-121.09375,-37.59765625,-57.6171875,-90.8203125
-47.36328125,-47.8515625,-59.5703125,-93.75
109.375,-44.921875,-48.33984375,-46.875
151.3671875,-41.50390625,-41.015625,1.46484375
69.3359375,-43.9453125,-46.875,-51.7578125
-47.36328125,-49.8046875,-51.7578125,-115.234375
-12.6953125,-49.8046875,-51.7578125,-115.234375
119.140625,-40.52734375,-47.8515625,-57.12890625
135.7421875,-38.57421875,-52.24609375,-12.20703125
28.3203125,-42.96875,-55.17578125,-36.1328125
-48.828125,-47.8515625,-54.6875,-91.30859375
-34.1796875,-47.8515625,-54.19921875,-103.515625
70.80078125,-50.29296875,-49.8046875,-63.96484375
125.48828125,-52.734375,-43.45703125,-39.55078125
45.41015625,-53.22265625,-42.48046875,-45.8984375
-77.1484375,-54.19921875,-50.78125,-77.63671875
-133.7890625,-52.734375,-51.7578125,-94.7265625
-43.45703125,-47.36328125,-40.52734375,-59.5703125
55.17578125,-39.55078125,-36.1328125,-22.94921875
6.8359375,-41.50390625,-47.36328125,-33.203125
-104.4921875,-51.26953125,-60.546875,-74.21875
-125.9765625,-56.15234375,-61.5234375,-85.44921875
-18.5546875,-52.734375,-50.78125,-54.6875
55.6640625,-48.33984375,-42.48046875,-9.27734375
-1.46484375,-47.8515625,-45.41015625,-8.30078125
-114.74609375,-46.875,-43.9453125,-37.59765625
-118.65234375,-41.9921875,-41.015625,-45.41015625
7.8125,-44.921875,-48.828125,-47.8515625
75.68359375,-46.875,-48.828125,-21.97265625
28.80859375,-40.52734375,-49.31640625,-11.71875
-82.51953125,-43.45703125,-50.29296875,-42.96875
-128.90625,-48.33984375,-49.8046875,-61.03515625
-13.671875,-45.8984375,-48.828125,-45.8984375
95.703125,-42.96875,-47.8515625,-22.4609375
70.80078125,-40.52734375,-49.31640625,-0.9765625
-70.3125,-46.38671875,-51.7578125,-23.4375
-144.53125,-47.8515625,-52.734375,-80.078125
-53.7109375,-44.921875,-50.29296875,-62.01171875
72.75390625,-43.9453125,-47.8515625,-18.5546875
70.3125,-37.59765625,-49.8046875,-25.87890625
-29.78515625,-40.0390625,-51.26953125,-33.69140625
-101.07421875,-44.43359375,-51.26953125,-63.96484375
-48.33984375,-41.50390625,-54.6875,-87.40234375
67.3828125,-41.015625,-51.7578125,-29.296875
52.734375,-40.0390625,-42.96875,11.23046875
-34.66796875,-44.921875,-43.45703125,-40.0390625
-132.32421875,-56.15234375,-45.8984375,-72.75390625
-102.05078125,-55.17578125,-45.8984375,-61.03515625
37.109375,-43.45703125,-41.9921875,-23.4375
57.12890625,-38.57421875,-35.15625,-0.48828125
-52.734375,-42.48046875,-40.0390625,-57.12890625
-154.296875,-53.22265625,-47.8515625,-94.7265625
-105.46875,-56.15234375,-46.875,-65.4296875
31.25,-48.828125,-44.921875,15.625
67.3828125,-39.55078125,-40.52734375,49.31640625
-48.828125,-45.41015625,-44.921875,44.921875
-125.9765625,-50.78125,-44.43359375,25.87890625
-87.40234375,-46.875,-42.96875,-18.06640625
24.4140625,-47.36328125,-48.828125,11.71875
98.6328125,-47.36328125,-39.0625,80.078125
29.78515625,-50.78125,-38.0859375,58.59375
-86.42578125,-54.6875,-45.8984375,8.7890625
-90.33203125,-58.59375,-45.8984375,6.34765625
9.27734375,-54.6875,-45.41015625,32.71484375
102.5390625,-37.59765625,-33.69140625,71.2890625
35.64453125,-36.62109375,-33.69140625,55.17578125
-108.88671875,-47.36328125,-47.36328125,0.9765625
-126.953125,-46.38671875,-52.24609375,-20.01953125
-15.13671875,-44.43359375,-45.41015625,-0.9765625
74.70703125,-39.55078125,-43.9453125,34.66796875
26.3671875,-43.45703125,-46.38671875,37.59765625
-119.140625,-50.78125,-47.36328125,-6.8359375
-169.921875,-52.24609375,-53.22265625,-56.15234375
-62.98828125,-53.22265625,-54.19921875,-53.7109375
21.484375,-45.8984375,-50.78125,-20.01953125
-7.8125,-39.55078125,-47.8515625,-6.8359375
-133.30078125,-49.31640625,-46.38671875,-37.109375
-210.9375,-54.19921875,-46.875,-71.2890625
-114.2578125,-43.45703125,-49.8046875,-47.36328125
-14.6484375,-36.62109375,-46.875,-8.30078125
-57.6171875,-41.50390625,-46.38671875,6.34765625
-145.99609375,-47.8515625,-47.36328125,-38.57421875
-203.125,-47.8515625,-46.38671875,-100.5859375
-114.74609375,-46.38671875,-44.43359375,-56.15234375
20.01953125,-47.36328125,-37.109375,11.71875
-11.71875,-41.50390625,-36.1328125,15.625
-154.78515625,-38.57421875,-50.29296875,-51.26953125
-237.79296875,-38.0859375,-61.03515625,-99.12109375
-184.5703125,-31.73828125,-62.01171875,-74.21875
-67.87109375,-26.85546875,-69.82421875,-48.33984375
-72.265625,-30.2734375,-80.56640625,-31.25
-207.03125,-30.2734375,-83.49609375,-42.96875
-299.31640625,-32.2265625,-86.42578125,-76.66015625
-217.28515625,-29.78515625,-84.47265625,-75.1953125
-63.96484375,-21.484375,-81.0546875,-52.734375
-32.71484375,-19.04296875,-86.9140625,-40.52734375
-125.0,-17.08984375,-90.33203125,-54.19921875
-216.796875,-16.6015625,-93.75,-76.66015625
-171.38671875,-11.23046875,-92.7734375,-76.171875
-5.37109375,-4.8828125,-85.9375,-36.1328125
27.83203125,-13.671875,-81.54296875,-2.9296875
-84.47265625,-20.99609375,-79.1015625,-25.390625
-184.08203125,-22.4609375,-78.61328125,-68.84765625
-163.0859375,-31.25,-77.1484375,-55.6640625
-11.23046875,-30.76171875,-69.82421875,-34.1796875
48.33984375,-19.53125,-60.05859375,-24.90234375
-44.921875,-23.92578125,-60.05859375,-34.66796875
-163.57421875,-28.3203125,-66.89453125,-81.54296875
-178.22265625,-23.4375,-65.4296875,-87.890625
-46.875,-25.390625,-58.59375,-34.66796875
13.18359375,-29.296875,-57.6171875,-5.37109375
-55.6640625,-33.69140625,-58.10546875,-31.25
-157.71484375,-39.0625,-64.94140625,-66.40625
-195.3125,-39.0625,-64.94140625,-93.26171875
-64.453125,-32.2265625,-53.7109375,-68.359375
56.640625,-29.78515625,-53.7109375,-30.2734375
9.27734375,-30.2734375,-57.12890625,-3.90625
-116.69921875,-38.0859375,-56.15234375,-39.0625
-149.90234375,-41.50390625,-55.17578125,-85.44921875
-58.59375,-36.62109375,-55.17578125,-102.5390625
54.19921875,-30.76171875,-54.19921875,-58.59375
42.48046875,-28.80859375,-49.31640625,-12.20703125
-90.33203125,-34.66796875,-46.875,-55.6640625
-179.6875,-41.015625,-49.31640625,-88.37890625
-84.47265625,-40.52734375,-48.828125,-71.2890625
56.640625,-32.2265625,-43.9453125,-30.76171875
20.99609375,-26.3671875,-37.59765625,-27.34375
-106.4453125,-34.66796875,-45.8984375,-53.7109375
-183.10546875,-40.52734375,-48.33984375,-63.4765625
-137.6953125,-40.0390625,-48.828125,-68.84765625
19.53125,-35.64453125,-47.8515625,-48.828125
77.63671875,-29.296875,-39.55078125,-10.25390625
-14.16015625,-31.73828125,-37.59765625,-43.9453125
-109.86328125,-41.015625,-43.9453125,-86.9140625
-83.49609375,-45.41015625,-47.8515625,-72.265625
33.203125,-42.48046875,-42.96875,-35.15625
44.921875,-42.48046875,-43.45703125,-24.4140625
-25.87890625,-50.78125,-49.8046875,-51.7578125
-105.95703125,-56.640625,-57.6171875,-97.16796875
-95.703125,-56.640625,-56.15234375,-107.91015625
30.76171875,-51.7578125,-47.36328125,-59.08203125
66.89453125,-45.8984375,-43.45703125,-19.53125
-25.87890625,-46.38671875,-50.78125,-46.38671875
-132.8125,-54.19921875,-57.12890625,-85.44921875
-94.23828125,-49.31640625,-49.8046875,-78.125
27.34375,-41.50390625,-44.43359375,-58.59375
60.05859375,-45.41015625,-54.6875,-46.38671875
-33.69140625,-47.36328125,-65.91796875,-41.015625
-154.78515625,-48.828125,-50.78125,-39.55078125
-179.19921875,-55.6640625,-42.48046875,-83.49609375
-65.91796875,-60.546875,-45.8984375,-81.54296875
9.765625,-59.08203125,-43.45703125,-41.9921875
-75.1953125,-62.5,-44.921875,-74.21875
-204.58984375,-74.70703125,-43.9453125,-106.93359375
-227.05078125,-82.03125,-41.015625,-100.5859375
-106.4453125,-75.68359375,-30.76171875,-76.171875
-23.92578125,-64.453125,-20.01953125,-52.24609375
-87.890625,-64.453125,-19.04296875,-56.15234375
-214.35546875,-72.265625,-28.80859375,-80.078125
-230.46875,-72.265625,-36.62109375,-102.05078125
-153.80859375,-70.80078125,-36.1328125,-87.40234375
-105.95703125,-66.89453125,-36.1328125,-45.41015625
-114.2578125,-58.10546875,-32.71484375,-41.9921875
-212.890625,-59.5703125,-34.66796875,-71.2890625
-262.20703125,-58.59375,-34.66796875,-93.75
-151.3671875,-50.78125,-28.80859375,-66.89453125
-7.8125,-45.8984375,-26.3671875,-12.6953125
-8.30078125,-45.8984375,-27.34375,-4.8828125
-119.62890625,-49.8046875,-38.57421875,-45.8984375
-185.05859375,-54.19921875,-49.31640625,-83.49609375
-127.9296875,-56.640625,-53.7109375,-87.40234375
6.8359375,-45.41015625,-45.8984375,-51.26953125
1.953125,-38.57421875,-35.64453125,-10.25390625
-125.0,-45.8984375,-40.52734375,-50.29296875
-183.10546875,-47.36328125,-40.0390625,-93.75
-106.93359375,-48.828125,-39.0625,-85.9375
25.390625,-52.24609375,-42.96875,-40.52734375
6.34765625,-54.6875,-40.52734375,-32.71484375
-90.33203125,-54.6875,-37.109375,-66.89453125
-154.296875,-56.640625,-43.45703125,-72.75390625
-186.03515625,-60.546875,-40.0390625,-38.57421875
-109.375,-62.5,-39.0625,-42.48046875
-31.25,-62.98828125,-38.0859375,-51.26953125
-103.515625,-52.734375,-24.90234375,-44.921875
-191.40625,-53.22265625,-31.73828125,-83.0078125
-205.078125,-60.546875,-43.9453125,-104.4921875
-92.7734375,-52.734375,-45.41015625,-67.3828125
7.32421875,-48.828125,-44.43359375,-16.11328125
-76.171875,-54.19921875,-42.48046875,-34.1796875
-202.63671875,-55.17578125,-42.48046875,-70.3125
-201.171875,-50.78125,-44.43359375,-67.3828125
-61.03515625,-44.43359375,-45.8984375,-68.359375
40.0390625,-41.015625,-45.8984375,-54.6875
-54.6875,-43.45703125,-49.8046875,-54.19921875
-215.8203125,-45.41015625,-46.875,-89.35546875
-219.23828125,-48.33984375,-47.8515625,-109.86328125
-92.28515625,-58.59375,-54.6875,-77.63671875
22.94921875,-63.4765625,-51.7578125,-7.8125
-14.6484375,-57.12890625,-49.8046875,-3.41796875
-161.1328125,-54.19921875,-65.4296875,-76.66015625
-212.40234375,-53.7109375,-74.70703125,-88.37890625
-78.61328125,-47.36328125,-64.94140625,-30.2734375
75.1953125,-37.59765625,-62.01171875,0.9765625
67.87109375,-31.73828125,-70.80078125,-27.34375
-20.99609375,-25.390625,-82.03125,-64.94140625
-47.8515625,-19.53125,-81.54296875,-86.42578125
56.15234375,-10.7421875,-62.01171875,-52.24609375
145.01953125,-8.7890625,-53.7109375,2.44140625
77.1484375,-11.23046875,-62.01171875,9.27734375
-5.859375,-12.6953125,-66.40625,-12.20703125
-36.62109375,-13.671875,-67.87109375,-35.64453125
19.53125,-14.6484375,-63.96484375,-17.08984375
143.5546875,-15.625,-54.6875,26.3671875
183.10546875,-12.20703125,-48.828125,48.33984375
72.75390625,-10.25390625,-44.43359375,28.3203125
-4.8828125,-13.18359375,-40.52734375,-16.11328125
45.41015625,-15.625,-44.43359375,-23.92578125
160.15625,-9.27734375,-42.96875,6.8359375
172.36328125,-11.23046875,-38.0859375,37.109375
31.73828125,-20.99609375,-41.9921875,18.06640625
-61.03515625,-23.92578125,-50.29296875,-36.62109375
-16.11328125,-25.390625,-52.734375,-47.8515625
126.953125,-23.92578125,-42.96875,-8.30078125
161.1328125,-22.4609375,-36.62109375,24.4140625
19.04296875,-25.87890625,-38.57421875,25.390625
-62.98828125,-32.71484375,-40.0390625,0.9765625
-31.25,-36.1328125,-41.9921875,-34.66796875
74.21875,-39.55078125,-42.96875,5.37109375
179.19921875,-36.1328125,-44.921875,31.73828125
98.6328125,-30.2734375,-41.015625,5.859375
-10.7421875,-34.1796875,-41.015625,-22.94921875
31.73828125,-37.59765625,-45.41015625,-31.25
177.24609375,-30.76171875,-40.52734375,20.5078125
222.65625,-25.390625,-35.15625,42.96875
98.6328125,-30.2734375,-39.55078125,24.90234375
-42.96875,-33.203125,-41.015625,-8.30078125
-79.58984375,-35.15625,-32.71484375,-22.94921875
61.03515625,-35.15625,-34.66796875,-17.08984375
167.48046875,-35.64453125,-39.55078125,3.41796875
62.98828125,-40.0390625,-37.109375,7.32421875
-81.54296875,-41.015625,-39.55078125,-28.3203125
-140.13671875,-41.015625,-41.9921875,-38.57421875
-40.0390625,-40.52734375,-38.57421875,-20.5078125
75.1953125,-41.9921875,-39.0625,-4.39453125
64.94140625,-36.62109375,-28.3203125,-3.41796875
-42.96875,-31.25,-25.390625,-16.6015625
-154.296875,-43.9453125,-39.55078125,-58.59375
-51.7578125,-45.8984375,-36.1328125,-69.3359375
132.8125,-34.66796875,-32.2265625,-23.92578125
123.046875,-26.85546875,-34.66796875,-11.23046875
-18.06640625,-34.1796875,-39.55078125,-49.31640625
-81.54296875,-43.9453125,-44.921875,-92.28515625
0.0,-38.57421875,-46.38671875,-92.7734375
94.7265625,-35.64453125,-44.921875,-55.6640625
68.84765625,-43.45703125,-44.921875,-31.73828125
-73.73046875,-51.26953125,-45.8984375,-62.5
-147.94921875,-46.38671875,-45.41015625,-93.26171875
-49.8046875,-43.45703125,-45.41015625,-63.4765625
130.859375,-39.0625,-40.0390625,1.46484375
168.45703125,-33.69140625,-36.1328125,52.734375
13.671875,-35.64453125,-37.109375,40.0390625
-83.0078125,-39.55078125,-43.9453125,-26.85546875
-29.296875,-42.96875,-47.8515625,-41.015625
123.046875,-32.2265625,-38.57421875,0.9765625
183.59375,-29.296875,-27.34375,33.69140625
33.203125,-41.9921875,-27.83203125,16.6015625
-76.171875,-47.8515625,-35.15625,-20.99609375
-35.64453125,-41.9921875,-34.66796875,-33.69140625
95.21484375,-42.48046875,-34.1796875,-19.04296875
174.8046875,-41.9921875,-30.76171875,9.765625
58.10546875,-39.0625,-33.69140625,6.34765625
-99.609375,-52.24609375,-43.45703125,-43.9453125
-90.33203125,-53.22265625,-43.9453125,-87.890625
80.078125,-42.96875,-45.8984375,-93.75
167.48046875,-49.31640625,-44.921875,-57.6171875
74.70703125,-51.7578125,-41.9921875,-42.48046875
-57.6171875,-50.29296875,-45.8984375,-63.4765625
-52.734375,-56.15234375,-47.36328125,-62.98828125
144.04296875,-51.26953125,-44.43359375,-25.87890625
279.296875,-44.921875,-38.57421875,20.5078125
190.4296875,-49.31640625,-35.64453125,32.71484375
53.22265625,-54.19921875,-45.8984375,-0.48828125
-10.7421875,-56.640625,-52.24609375,8.7890625
62.01171875,-55.6640625,-45.41015625,62.01171875
170.8984375,-50.78125,-41.50390625,88.8671875
118.65234375,-48.33984375,-41.015625,91.796875
-46.875,-50.29296875,-39.0625,78.125
-99.12109375,-54.19921875,-36.1328125,43.45703125
23.92578125,-53.22265625,-37.109375,25.87890625
145.01953125,-48.828125,-34.66796875,72.75390625
84.9609375,-49.8046875,-29.78515625,85.9375
-67.3828125,-51.7578125,-33.69140625,41.50390625
-164.55078125,-53.7109375,-43.9453125,6.34765625
-77.63671875,-55.6640625,-41.015625,19.53125
116.2109375,-45.41015625,-25.390625,60.546875
106.93359375,-42.48046875,-22.4609375,78.125
-66.89453125,-55.6640625,-29.78515625,47.36328125
-150.390625,-57.12890625,-34.66796875,-20.01953125
-73.73046875,-49.31640625,-37.59765625,-18.5546875
61.5234375,-43.9453125,-39.0625,16.11328125
37.59765625,-46.875,-43.9453125,19.04296875
-92.7734375,-48.33984375,-44.921875,0.9765625
-172.36328125,-41.50390625,-40.0390625,-19.04296875
-143.5546875,-49.8046875,-42.96875,-22.4609375
13.18359375,-50.78125,-43.45703125,0.48828125
82.51953125,-34.66796875,-38.57421875,16.6015625
-42.48046875,-38.0859375,-40.52734375,-15.13671875
-202.63671875,-54.6875,-47.36328125,-50.29296875
-201.66015625,-54.6875,-47.36328125,-87.890625
-18.06640625,-52.734375,-46.875,-80.56640625
69.3359375,-46.38671875,-44.43359375,-28.80859375
-31.73828125,-40.52734375,-50.29296875,-37.109375
-157.71484375,-50.29296875,-59.5703125,-80.56640625
-154.78515625,-50.29296875,-45.8984375,-64.453125
-7.8125,-44.921875,-41.50390625,-38.0859375
71.77734375,-47.36328125,-55.6640625,-35.64453125
-40.52734375,-51.7578125,-54.19921875,-34.1796875
-184.08203125,-54.6875,-54.19921875,-63.96484375
-196.2890625,-51.26953125,-52.734375,-82.51953125
-59.08203125,-47.36328125,-47.36328125,-37.59765625
85.44921875,-38.0859375,-43.9453125,-15.625
18.5546875,-37.109375,-42.96875,-31.73828125
-128.90625,-49.31640625,-51.26953125,-53.22265625
-163.0859375,-52.734375,-55.6640625,-89.35546875
-23.92578125,-46.875,-52.24609375,-71.77734375
99.609375,-48.33984375,-48.828125,-12.20703125
27.83203125,-54.19921875,-45.41015625,-5.859375
-99.12109375,-55.17578125,-51.7578125,-62.01171875
-139.6484375,-47.8515625,-47.8515625,-81.54296875
-36.1328125,-41.50390625,-39.55078125,-54.6875
94.7265625,-44.921875,-44.43359375,-13.18359375
71.77734375,-48.33984375,-48.828125,-15.625
-72.75390625,-49.8046875,-50.78125,-83.49609375
-167.96875,-47.36328125,-46.38671875,-106.4453125
-108.88671875,-49.8046875,-51.26953125,-95.21484375
58.59375,-52.24609375,-48.828125,-70.3125
66.89453125,-46.875,-41.015625,-37.59765625
-75.68359375,-42.48046875,-34.66796875,-32.2265625
-189.94140625,-51.7578125,-41.9921875,-89.35546875
-118.1640625,-56.640625,-48.828125,-118.1640625
48.828125,-50.29296875,-44.921875,-75.68359375
57.12890625,-49.31640625,-43.9453125,-60.546875
-77.1484375,-52.24609375,-45.41015625,-86.42578125
-185.546875,-51.7578125,-49.8046875,-111.328125
-147.4609375,-52.24609375,-53.22265625,-108.88671875
-7.32421875,-50.29296875,-48.33984375,-80.078125
16.6015625,-53.7109375,-49.31640625,-55.17578125
-122.55859375,-56.15234375,-52.734375,-79.58984375
-249.0234375,-52.734375,-53.22265625,-113.28125
-201.171875,-54.19921875,-55.17578125,-121.09375
-34.1796875,-55.17578125,-52.734375,-90.33203125
33.203125,-50.78125,-44.921875,-51.26953125
-79.58984375,-41.50390625,-33.203125,-52.24609375
-242.1875,-47.36328125,-43.45703125,-95.21484375
-228.515625,-55.6640625,-54.19921875,-83.984375
-61.03515625,-49.31640625,-55.6640625,-48.33984375
-15.625,-46.38671875,-56.640625,-28.80859375
-207.51953125,-51.7578125,-55.17578125,-35.15625
-390.13671875,-60.546875,-58.59375,-80.078125
-398.4375,-64.453125,-57.6171875,-72.265625
-221.6796875,-57.6171875,-47.36328125,-43.45703125
-97.65625,-53.7109375,-45.8984375,-18.06640625
-168.45703125,-53.7109375,-52.24609375,-11.23046875
-300.29296875,-44.43359375,-44.43359375,-40.0390625
-327.63671875,-38.57421875,-36.62109375,-62.5
-202.63671875,-44.921875,-48.33984375,-56.15234375
-83.984375,-41.9921875,-51.26953125,-15.625
-129.39453125,-38.57421875,-46.875,-11.71875
-280.2734375,-41.50390625,-51.26953125,-38.0859375
-321.2890625,-44.921875,-55.17578125,-55.17578125
-168.45703125,-42.48046875,-47.36328125,-28.80859375
7.8125,-34.66796875,-41.9921875,-9.27734375
-35.64453125,-36.62109375,-43.45703125,-25.87890625
-200.1953125,-40.52734375,-46.875,-33.69140625
-292.48046875,-42.48046875,-52.24609375,-31.73828125
-220.21484375,-40.0390625,-51.7578125,-18.06640625
-56.640625,-38.57421875,-49.8046875,29.296875
-28.80859375,-48.828125,-52.24609375,42.96875
-156.25,-51.26953125,-52.24609375,-9.27734375
-251.46484375,-45.8984375,-43.9453125,-41.50390625
-161.62109375,-46.875,-41.9921875,-31.25
0.9765625,-46.875,-45.41015625,13.18359375
37.59765625,-47.8515625,-43.45703125,51.7578125
-106.4453125,-51.26953125,-48.828125,9.765625
-249.0234375,-49.31640625,-54.6875,-40.52734375
-197.75390625,-46.875,-55.17578125,-28.80859375
-34.1796875,-42.96875,-53.22265625,11.71875
26.85546875,-46.875,-51.26953125,40.0390625
-108.3984375,-58.59375,-55.6640625,10.25390625
-239.2578125,-60.05859375,-57.12890625,-19.04296875
-198.73046875,-49.31640625,-46.38671875,-12.20703125
-57.6171875,-42.96875,-46.875,-2.44140625
-0.9765625,-53.7109375,-58.59375,0.48828125
-102.05078125,-58.10546875,-58.59375,-5.37109375
-216.30859375,-57.12890625,-60.05859375,-24.4140625
-202.1484375,-57.6171875,-62.01171875,-54.19921875
-55.6640625,-56.15234375,-54.19921875,-19.04296875
58.59375,-51.26953125,-49.8046875,14.6484375
-43.9453125,-44.43359375,-47.36328125,10.7421875
-206.54296875,-51.26953125,-47.36328125,13.18359375
-227.05078125,-63.4765625,-53.22265625,-5.859375
-77.63671875,-58.10546875,-52.734375,-14.16015625
60.546875,-52.24609375,-53.22265625,20.99609375
12.20703125,-53.7109375,-57.12890625,14.6484375
-158.203125,-54.19921875,-56.15234375,-21.484375
-213.37890625,-56.15234375,-55.6640625,-46.875
-63.4765625,-56.640625,-50.78125,-21.97265625
81.54296875,-53.22265625,-44.43359375,39.55078125
6.8359375,-56.15234375,-49.31640625,37.59765625
-140.13671875,-55.17578125,-41.9921875,-33.203125
-168.9453125,-49.8046875,-34.1796875,-62.5
-56.640625,-58.10546875,-50.78125,-47.8515625
76.66015625,-51.7578125,-48.828125,-11.23046875
62.01171875,-45.8984375,-45.41015625,9.765625
-83.984375,-54.19921875,-53.22265625,-8.7890625
-230.46875,-52.734375,-55.6640625,-43.45703125
-149.4140625,-48.828125,-55.6640625,-45.41015625
45.8984375,-51.26953125,-49.8046875,0.9765625
63.96484375,-52.734375,-47.36328125,-0.9765625
-99.12109375,-58.10546875,-53.22265625,-38.57421875
-197.265625,-59.5703125,-54.19921875,-60.05859375
-83.0078125,-50.78125,-49.8046875,-57.12890625
82.03125,-51.26953125,-49.8046875,-23.92578125
74.70703125,-51.7578125,-50.78125,-8.7890625
-87.40234375,-50.29296875,-45.8984375,-29.296875
-194.82421875,-52.24609375,-45.8984375,-48.828125
-119.140625,-55.6640625,-50.29296875,-50.29296875
42.48046875,-51.7578125,-48.33984375,-8.30078125
80.078125,-49.31640625,-49.8046875,15.625
-44.43359375,-51.26953125,-51.26953125,-16.11328125
-172.36328125,-53.7109375,-55.17578125,-57.12890625
-131.8359375,-55.17578125,-58.59375,-47.8515625
49.31640625,-44.921875,-45.41015625,0.48828125
127.9296875,-41.50390625,-45.8984375,9.27734375
-30.76171875,-52.24609375,-49.8046875,19.53125
-170.41015625,-53.7109375,-40.52734375,66.89453125
-118.65234375,-50.78125,-44.921875,110.3515625
20.5078125,-48.33984375,-50.78125,157.71484375
114.74609375,-46.875,-53.22265625,183.59375
42.96875,-51.7578125,-55.17578125,162.109375
-111.81640625,-54.6875,-51.7578125,124.0234375
-130.37109375,-52.734375,-51.26953125,91.796875
20.01953125,-51.26953125,-49.8046875,117.1875
138.671875,-48.828125,-38.57421875,145.99609375
77.63671875,-44.921875,-36.62109375,134.27734375
-112.3046875,-51.7578125,-45.8984375,80.56640625
-208.49609375,-59.08203125,-47.8515625,52.24609375
-48.33984375,-47.36328125,-40.0390625,71.77734375
129.39453125,-42.48046875,-34.66796875,111.81640625
99.609375,-49.8046875,-37.109375,119.62890625
-57.12890625,-55.17578125,-41.9921875,80.078125
-159.66796875,-51.7578125,-37.109375,30.2734375
-47.8515625,-44.43359375,-37.109375,24.90234375
105.95703125,-43.45703125,-46.875,63.96484375
94.23828125,-43.45703125,-51.26953125,62.98828125
-56.15234375,-42.96875,-47.36328125,45.8984375
-156.73828125,-42.48046875,-49.31640625,9.27734375
-60.05859375,-44.43359375,-53.7109375,-1.953125
95.21484375,-45.41015625,-53.7109375,39.0625
90.33203125,-39.0625,-46.875,49.31640625
-62.5,-38.0859375,-45.8984375,5.859375
-188.96484375,-44.921875,-62.5,-36.62109375
-125.0,-47.8515625,-62.01171875,-25.87890625
66.40625,-37.59765625,-51.26953125,19.53125
105.95703125,-30.76171875,-49.31640625,50.78125
-35.15625,-36.1328125,-51.26953125,23.4375
-148.4375,-34.66796875,-51.7578125,-14.6484375
-78.125,-29.296875,-56.15234375,-24.4140625
93.75,-23.92578125,-52.24609375,-20.99609375
118.65234375,-25.87890625,-46.875,13.18359375
-44.43359375,-35.15625,-51.26953125,-1.46484375
-199.70703125,-38.57421875,-44.43359375,-55.17578125
-171.875,-37.59765625,-43.45703125,-58.10546875
9.765625,-41.015625,-50.29296875,-19.53125
85.9375,-35.64453125,-45.8984375,19.53125
-43.9453125,-41.50390625,-48.33984375,18.06640625
-208.984375,-52.24609375,-52.734375,-4.39453125
-207.03125,-47.8515625,-54.19921875,-23.4375
-13.671875,-39.0625,-55.6640625,-13.671875
87.890625,-31.73828125,-51.26953125,30.2734375
-36.62109375,-32.71484375,-41.9921875,22.94921875
-193.359375,-43.9453125,-47.8515625,-11.71875
-216.30859375,-46.875,-46.38671875,-13.671875
-51.26953125,-46.38671875,-43.9453125,1.46484375
60.546875,-51.7578125,-52.734375,7.32421875
-22.94921875,-48.33984375,-52.24609375,-2.9296875
-162.109375,-46.38671875,-52.734375,-46.38671875
-201.171875,-50.29296875,-56.640625,-64.453125
-68.84765625,-51.26953125,-55.17578125,-43.9453125
41.9921875,-46.875,-51.26953125,-10.7421875
-4.8828125,-41.9921875,-46.38671875,7.32421875
-133.7890625,-48.828125,-53.22265625,-43.45703125
-228.515625,-57.6171875,-64.453125,-82.03125
-117.67578125,-53.22265625,-57.6171875,-57.6171875
37.109375,-45.41015625,-43.45703125,-0.48828125
-23.4375,-52.734375,-49.31640625,-20.5078125
-169.43359375,-57.12890625,-63.96484375,-83.984375
-213.37890625,-54.19921875,-61.5234375,-89.35546875
-117.67578125,-55.17578125,-54.6875,-69.82421875
44.921875,-50.29296875,-51.26953125,-39.0625
54.6875,-44.921875,-49.8046875,-11.23046875
-96.6796875,-50.29296875,-54.6875,-6.34765625
-217.7734375,-56.640625,-51.7578125,-50.78125
-166.9921875,-58.59375,-46.875,-103.515625
16.6015625,-57.12890625,-50.78125,-70.3125
44.921875,-59.08203125,-44.43359375,-26.3671875
-140.13671875,-65.91796875,-37.109375,-65.4296875
-276.3671875,-70.3125,-32.71484375,-110.83984375
-214.35546875,-70.3125,-31.25,-120.1171875
-24.4140625,-67.87109375,-32.2265625,-90.8203125
59.5703125,-63.96484375,-33.69140625,-45.8984375
-82.03125,-69.82421875,-33.203125,-57.6171875
-264.16015625,-80.078125,-38.0859375,-103.515625
-211.9140625,-72.75390625,-35.64453125,-105.46875
-6.34765625,-65.91796875,-31.73828125,-67.3828125
78.61328125,-69.3359375,-28.3203125,-14.16015625
-52.734375,-67.3828125,-22.94921875,-12.20703125
-222.65625,-66.89453125,-31.25,-86.9140625
-226.07421875,-68.84765625,-33.203125,-115.72265625
-47.8515625,-64.94140625,-31.73828125,-63.96484375
78.125,-58.59375,-34.1796875,-18.06640625
-20.01953125,-56.15234375,-33.69140625,-29.78515625
-173.828125,-61.03515625,-38.0859375,-78.125
-184.5703125,-65.4296875,-41.9921875,-77.63671875
-32.71484375,-62.98828125,-41.50390625,-52.734375
79.1015625,-61.5234375,-41.015625,-29.296875
-19.53125,-60.546875,-44.921875,-30.76171875
-202.63671875,-60.546875,-45.8984375,-63.4765625
-255.859375,-61.03515625,-37.59765625,-80.078125
-106.4453125,-59.5703125,-41.50390625,-59.5703125
38.57421875,-59.5703125,-46.38671875,-31.25
5.859375,-62.01171875,-43.45703125,-26.3671875
-147.4609375,-59.08203125,-39.55078125,-51.7578125
-233.88671875,-59.5703125,-37.59765625,-65.4296875
-103.515625,-60.546875,-41.9921875,-77.63671875
69.82421875,-56.15234375,-41.50390625,-37.59765625
41.015625,-58.10546875,-43.45703125,-3.90625
-127.9296875,-59.5703125,-49.8046875,-63.4765625
-219.7265625,-61.5234375,-46.875,-99.609375
-117.67578125,-64.453125,-44.921875,-72.265625
52.734375,-56.640625,-45.41015625,-32.2265625
69.3359375,-57.6171875,-40.52734375,-2.9296875
-71.2890625,-66.89453125,-50.29296875,-48.33984375
-198.2421875,-59.08203125,-60.05859375,-92.7734375
-125.0,-53.7109375,-52.734375,-64.94140625
62.01171875,-54.6875,-45.8984375,-42.96875
67.87109375,-58.59375,-43.45703125,-28.80859375
-93.26171875,-63.4765625,-37.109375,-34.1796875
-204.58984375,-65.4296875,-38.57421875,-91.30859375
-144.53125,-66.40625,-42.48046875,-104.4921875
30.2734375,-62.5,-36.1328125,-35.15625
89.35546875,-55.17578125,-31.73828125,-7.32421875
-32.2265625,-50.29296875,-32.71484375,-41.015625
-143.5546875,-60.546875,-46.38671875,-83.984375
-108.3984375,-64.94140625,-54.19921875,-84.9609375
57.6171875,-52.734375,-43.45703125,-46.38671875
82.03125,-50.78125,-41.50390625,-27.83203125
-83.984375,-62.5,-48.33984375,-42.48046875
-196.77734375,-63.96484375,-49.8046875,-97.65625
-132.32421875,-60.05859375,-50.78125,-94.7265625
33.69140625,-56.15234375,-43.9453125,-46.875
121.09375,-55.17578125,-42.96875,-31.73828125
8.7890625,-57.12890625,-40.0390625,-22.94921875
-138.18359375,-56.640625,-38.57421875,-51.7578125
-151.3671875,-51.26953125,-38.0859375,-86.42578125
-13.18359375,-48.33984375,-36.1328125,-48.33984375
93.75,-47.8515625,-38.0859375,-18.06640625
-4.8828125,-51.7578125,-41.50390625,-53.7109375
-152.34375,-59.08203125,-41.50390625,-96.6796875
-179.19921875,-61.5234375,-41.50390625,-111.81640625
-29.78515625,-58.10546875,-43.45703125,-73.73046875
118.1640625,-58.59375,-40.52734375,-34.66796875
77.63671875,-58.10546875,-43.45703125,-45.41015625
-80.078125,-54.6875,-46.875,-83.0078125
-122.0703125,-53.22265625,-48.828125,-114.2578125
6.34765625,-50.78125,-47.36328125,-76.66015625
149.4140625,-46.875,-47.8515625,-28.80859375
137.20703125,-44.921875,-53.22265625,-39.55078125
-29.296875,-49.8046875,-52.24609375,-75.68359375
-148.4375,-53.7109375,-51.7578125,-107.421875
-39.0625,-55.6640625,-58.59375,-100.5859375
142.578125,-48.828125,-49.8046875,-53.7109375
128.90625,-40.0390625,-41.015625,-49.31640625
-30.76171875,-49.31640625,-51.7578125,-90.33203125
-173.828125,-56.640625,-62.5,-126.46484375
-109.375,-57.12890625,-61.5234375,-106.4453125
79.58984375,-54.19921875,-53.22265625,-51.26953125
99.12109375,-49.31640625,-49.31640625,-33.203125
-41.015625,-51.7578125,-49.8046875,-65.4296875
-169.43359375,-56.640625,-52.24609375,-103.515625
-114.74609375,-55.6640625,-45.41015625,-100.09765625
103.02734375,-52.734375,-42.96875,-56.640625
157.71484375,-53.7109375,-45.41015625,-12.20703125
8.7890625,-47.8515625,-41.50390625,-46.875
-137.20703125,-43.9453125,-39.55078125,-99.12109375
-110.83984375,-43.45703125,-45.8984375,-95.21484375
54.6875,-37.109375,-48.33984375,-77.1484375
119.62890625,-41.50390625,-47.36328125,-38.57421875
4.8828125,-49.31640625,-48.828125,-28.80859375
-139.6484375,-51.7578125,-57.6171875,-99.12109375
-128.90625,-52.734375,-58.10546875,-116.69921875
23.4375,-42.48046875,-47.36328125,-78.61328125
132.8125,-41.9921875,-44.921875,-43.9453125
50.29296875,-53.22265625,-49.8046875,-44.921875
-109.375,-57.12890625,-50.29296875,-89.84375
-151.3671875,-51.7578125,-44.43359375,-98.6328125
-3.90625,-45.41015625,-42.48046875,-60.546875
107.421875,-49.31640625,-43.9453125,-22.4609375
45.8984375,-47.36328125,-44.921875,-26.85546875
-140.13671875,-53.7109375,-46.38671875,-63.4765625
-237.79296875,-61.03515625,-49.31640625,-92.7734375
-91.30859375,-54.6875,-48.33984375,-78.61328125
67.3828125,-43.45703125,-46.875,-41.015625
38.0859375,-41.015625,-44.43359375,-18.06640625
-132.32421875,-49.8046875,-46.38671875,-61.03515625
-214.84375,-56.640625,-50.29296875,-107.91015625
-66.40625,-53.7109375,-47.36328125,-87.890625
105.95703125,-48.33984375,-48.33984375,-45.8984375
69.3359375,-49.31640625,-53.22265625,-33.203125
-100.5859375,-57.12890625,-55.6640625,-52.734375
-182.6171875,-56.15234375,-50.29296875,-67.87109375
-50.29296875,-44.921875,-43.45703125,-58.59375
112.79296875,-43.45703125,-43.9453125,-23.92578125
103.02734375,-42.48046875,-46.875,-2.44140625
-48.33984375,-39.55078125,-44.921875,-32.71484375
-173.828125,-40.0390625,-39.0625,-64.94140625
-116.69921875,-44.43359375,-45.8984375,-70.80078125
45.8984375,-47.8515625,-52.24609375,-30.76171875
83.984375,-47.8515625,-47.8515625,0.0
-61.5234375,-48.33984375,-48.828125,-27.83203125
-193.359375,-53.7109375,-53.7109375,-66.40625
-128.90625,-58.10546875,-55.17578125,-65.91796875
32.2265625,-50.78125,-54.19921875,-36.1328125
47.8515625,-43.9453125,-57.12890625,-20.5078125
-67.3828125,-50.29296875,-63.4765625,-37.109375
-186.03515625,-53.7109375,-60.546875,-75.68359375
-165.0390625,-51.7578125,-51.7578125,-68.359375
-3.90625,-52.24609375,-57.12890625,-37.109375
84.9609375,-56.15234375,-62.01171875,-19.53125
-32.2265625,-55.6640625,-55.17578125,-30.2734375
-191.89453125,-52.24609375,-47.36328125,-61.5234375
-190.4296875,-55.17578125,-50.29296875,-88.8671875
-15.13671875,-53.7109375,-49.8046875,-60.05859375
99.609375,-49.8046875,-50.78125,-17.08984375
-4.39453125,-53.7109375,-55.6640625,-41.50390625
-164.0625,-57.12890625,-53.7109375,-74.70703125
-162.109375,-57.12890625,-56.15234375,-94.23828125
11.23046875,-54.6875,-55.17578125,-74.21875
141.11328125,-45.8984375,-50.29296875,-26.3671875
43.45703125,-41.015625,-48.33984375,-15.625
-145.5078125,-51.26953125,-50.78125,-66.89453125
-187.01171875,-48.828125,-46.875,-107.91015625
-25.87890625,-36.62109375,-40.0390625,-73.73046875
122.0703125,-37.59765625,-44.921875,-37.109375
76.66015625,-42.96875,-46.875,-18.5546875
-90.8203125,-48.33984375,-46.38671875,-35.15625
-176.7578125,-53.22265625,-44.921875,-66.40625
-38.57421875,-50.78125,-42.48046875,-65.4296875
94.7265625,-46.38671875,-44.43359375,-43.9453125
42.48046875,-43.45703125,-41.9921875,-18.06640625
-104.00390625,-46.38671875,-38.57421875,-48.33984375
-197.265625,-50.78125,-43.45703125,-96.19140625
-67.3828125,-46.38671875,-45.8984375,-75.68359375
104.98046875,-30.76171875,-32.71484375,-12.20703125
79.58984375,-31.73828125,-35.15625,9.27734375
-79.58984375,-43.45703125,-48.828125,-33.203125
-206.0546875,-44.921875,-47.8515625,-71.77734375
-100.5859375,-44.43359375,-46.38671875,-69.3359375
83.49609375,-41.50390625,-48.33984375,-49.8046875
64.94140625,-41.015625,-48.33984375,-25.87890625
-79.58984375,-52.734375,-53.22265625,-50.29296875
-187.5,-53.7109375,-55.6640625,-101.07421875
-133.7890625,-44.921875,-45.8984375,-84.47265625
31.25,-45.8984375,-42.48046875,-15.625
97.65625,-39.0625,-41.015625,9.27734375
-26.85546875,-42.48046875,-43.9453125,-27.83203125
-182.6171875,-54.6875,-54.6875,-73.73046875
-157.2265625,-47.36328125,-54.19921875,-77.63671875
22.4609375,-43.45703125,-49.31640625,-29.78515625
98.6328125,-44.921875,-48.828125,-17.08984375
-35.15625,-47.36328125,-50.29296875,-37.59765625
-206.0546875,-56.15234375,-52.734375,-62.98828125
-179.6875,-58.59375,-43.45703125,-57.12890625
9.765625,-48.828125,-38.0859375,-16.6015625
98.6328125,-37.59765625,-44.43359375,-8.7890625
-15.625,-36.1328125,-53.7109375,-56.640625
-183.10546875,-37.109375,-56.640625,-70.80078125
-192.87109375,-36.1328125,-58.59375,-84.9609375
-11.71875,-33.203125,-70.3125,-86.42578125
107.421875,-26.85546875,-75.68359375,-36.62109375
21.484375,-18.5546875,-74.70703125,-20.01953125
-155.76171875,-21.484375,-78.125,-53.7109375
-199.21875,-26.3671875,-80.078125,-90.8203125
-53.7109375,-18.06640625,-69.3359375,-60.05859375
68.84765625,-11.23046875,-59.5703125,-4.8828125
27.83203125,-15.625,-61.03515625,11.71875
-125.48828125,-20.01953125,-71.2890625,-29.296875
-200.1953125,-21.484375,-78.61328125,-73.73046875
-37.59765625,-21.97265625,-74.21875,-56.15234375
127.44140625,-20.01953125,-68.84765625,-17.08984375
74.21875,-20.01953125,-68.359375,-7.8125
-66.89453125,-22.94921875,-72.265625,-43.45703125
-137.6953125,-30.2734375,-72.265625,-77.63671875
-19.04296875,-30.2734375,-64.453125,-50.29296875
120.60546875,-24.90234375,-62.01171875,-14.6484375
71.2890625,-25.390625,-58.59375,-7.32421875
-87.40234375,-32.2265625,-61.03515625,-25.87890625
-187.98828125,-36.62109375,-76.66015625,-82.03125
-95.703125,-36.1328125,-74.21875,-87.890625
83.49609375,-29.78515625,-63.4765625,-45.8984375
96.19140625,-27.34375,-60.05859375,-13.18359375
-45.41015625,-37.109375,-61.03515625,-34.66796875
-175.78125,-43.9453125,-60.05859375,-90.33203125
-134.27734375,-43.45703125,-57.12890625,-78.61328125
45.41015625,-41.015625,-56.15234375,-20.99609375
79.58984375,-36.1328125,-49.31640625,-12.20703125
-87.40234375,-39.0625,-48.33984375,-59.5703125
-222.65625,-47.36328125,-53.7109375,-100.5859375
-162.109375,-44.921875,-51.7578125,-98.14453125
37.59765625,-40.0390625,-49.31640625,-41.50390625
127.44140625,-34.1796875,-47.36328125,0.0
-22.4609375,-34.66796875,-44.43359375,-25.87890625
-186.5234375,-43.9453125,-54.6875,-72.265625
-169.43359375,-46.875,-58.59375,-83.0078125
-3.41796875,-44.43359375,-48.828125,-48.828125
104.98046875,-45.41015625,-43.9453125,-14.16015625
4.8828125,-44.43359375,-42.96875,-12.6953125
-166.50390625,-45.41015625,-49.8046875,-62.98828125
-189.453125,-46.38671875,-48.33984375,-88.37890625
-26.3671875,-43.45703125,-42.96875,-51.7578125
98.14453125,-43.45703125,-51.7578125,-31.25
18.5546875,-44.921875,-52.734375,-40.0390625
-159.1796875,-48.828125,-53.7109375,-72.75390625
-194.3359375,-50.78125,-55.17578125,-86.42578125
-26.3671875,-43.9453125,-49.31640625,-49.31640625
92.28515625,-41.50390625,-46.875,-20.99609375
29.296875,-38.57421875,-47.8515625,-20.5078125
-121.58203125,-41.50390625,-51.26953125,-52.734375
-201.171875,-48.33984375,-57.12890625,-102.05078125
-88.37890625,-46.875,-54.6875,-84.9609375
46.875,-44.921875,-51.26953125,-37.109375
24.4140625,-45.41015625,-51.26953125,-13.671875
-118.65234375,-43.9453125,-48.33984375,-42.96875
-207.03125,-44.921875,-54.6875,-96.19140625
-79.1015625,-47.8515625,-56.640625,-94.7265625
82.51953125,-46.875,-54.6875,-53.22265625
66.40625,-48.828125,-57.12890625,-35.15625
-93.26171875,-47.8515625,-48.33984375,-61.03515625
-219.23828125,-43.9453125,-43.9453125,-98.14453125
-148.4375,-49.31640625,-51.7578125,-83.49609375
23.92578125,-43.45703125,-51.7578125,-41.50390625
37.59765625,-36.1328125,-56.15234375,-29.296875
-127.44140625,-48.33984375,-56.640625,-59.5703125
-247.0703125,-55.17578125,-56.15234375,-104.98046875
-146.97265625,-53.22265625,-54.19921875,-94.23828125
62.5,-40.52734375,-46.875,-49.8046875
109.86328125,-35.15625,-43.9453125,-16.6015625
-70.3125,-46.38671875,-51.26953125,-49.31640625
-246.58203125,-51.26953125,-50.29296875,-91.30859375
-179.19921875,-44.43359375,-42.96875,-77.63671875
10.25390625,-40.52734375,-44.921875,-31.73828125
86.42578125,-39.55078125,-44.43359375,0.9765625
-45.8984375,-41.015625,-43.45703125,-30.2734375
-216.796875,-48.828125,-47.36328125,-72.265625
-198.2421875,-54.6875,-53.22265625,-75.68359375
-13.18359375,-46.875,-55.6640625,-49.8046875
90.8203125,-43.9453125,-51.26953125,-33.203125
-13.671875,-49.31640625,-48.828125,-46.38671875
-166.50390625,-50.78125,-53.7109375,-72.265625
-146.97265625,-53.7109375,-52.734375,-74.21875
17.578125,-55.6640625,-49.31640625,-43.45703125
126.953125,-52.734375,-45.41015625,-14.6484375
31.73828125,-48.828125,-46.38671875,-26.85546875
-161.62109375,-51.7578125,-49.31640625,-77.63671875
-175.29296875,-53.22265625,-44.921875,-95.21484375
-21.484375,-48.828125,-45.41015625,-50.29296875
83.984375,-45.41015625,-47.36328125,-1.953125
17.578125,-47.8515625,-49.31640625,-32.2265625
-152.83203125,-54.6875,-58.59375,-81.54296875
-181.15234375,-51.7578125,-59.5703125,-89.84375
-19.04296875,-48.828125,-55.6640625,-55.6640625
100.09765625,-49.31640625,-51.7578125,3.90625
48.828125,-47.36328125,-48.33984375,0.48828125
-109.86328125,-43.9453125,-53.22265625,-50.29296875
-200.1953125,-45.8984375,-57.6171875,-83.984375
-65.4296875,-44.43359375,-51.26953125,-74.21875
134.27734375,-30.2734375,-33.203125,-3.90625
98.6328125,-37.59765625,-35.15625,9.27734375
-88.8671875,-49.31640625,-48.33984375,-55.17578125
-162.109375,-51.7578125,-43.9453125,-86.42578125
12.20703125,-50.29296875,-40.52734375,-60.546875
235.83984375,-40.0390625,-36.62109375,-26.3671875
237.3046875,-33.69140625,-39.0625,-24.4140625
74.70703125,-44.921875,-47.36328125,-56.15234375
-17.08984375,-62.01171875,-49.8046875,-83.49609375
70.3125,-60.546875,-52.24609375,-79.58984375
218.75,-48.33984375,-52.734375,-50.29296875
221.19140625,-41.9921875,-56.15234375,-14.6484375
75.68359375,-39.55078125,-62.5,-49.31640625
-66.40625,-43.45703125,-62.5,-106.93359375
-33.69140625,-43.45703125,-64.94140625,-103.02734375
157.2265625,-40.0390625,-62.5,-69.3359375
211.9140625,-40.0390625,-61.5234375,-44.921875
68.359375,-46.38671875,-63.4765625,-56.640625
-91.796875,-47.36328125,-62.01171875,-84.47265625
-97.16796875,-49.8046875,-62.5,-98.14453125
100.09765625,-52.734375,-62.01171875,-64.94140625
203.61328125,-50.29296875,-65.4296875,-38.57421875
65.4296875,-49.8046875,-60.546875,-40.0390625
-77.63671875,-55.6640625,-56.640625,-63.4765625
-53.22265625,-56.640625,-65.4296875,-118.1640625
116.69921875,-51.26953125,-61.03515625,-91.30859375
219.7265625,-48.33984375,-54.6875,-31.73828125
130.859375,-46.38671875,-57.12890625,-42.48046875
-46.875,-50.29296875,-57.6171875,-83.984375
-92.7734375,-50.29296875,-56.640625,-94.23828125
76.66015625,-47.36328125,-50.78125,-58.10546875
215.33203125,-45.41015625,-48.33984375,-15.625
130.37109375,-42.48046875,-52.24609375,-5.37109375
-53.7109375,-42.96875,-53.7109375,-29.78515625
-134.27734375,-42.96875,-53.22265625,-49.8046875
1.953125,-37.59765625,-51.26953125,-34.1796875
186.5234375,-40.0390625,-48.828125,7.8125
145.01953125,-41.50390625,-49.31640625,19.53125
-29.296875,-34.66796875,-45.41015625,15.13671875
-122.55859375,-41.015625,-45.41015625,-7.8125
0.9765625,-48.828125,-51.26953125,-36.1328125
163.0859375,-45.8984375,-49.31640625,-5.859375
129.8828125,-38.57421875,-41.9921875,19.04296875
-29.78515625,-37.109375,-37.59765625,-9.27734375
-146.97265625,-46.875,-46.875,-60.05859375
-62.98828125,-44.43359375,-49.31640625,-58.10546875
125.0,-34.66796875,-45.8984375,-5.859375
141.6015625,-34.1796875,-44.43359375,30.2734375
-33.69140625,-42.96875,-49.31640625,-17.08984375
-160.15625,-51.7578125,-56.15234375,-79.58984375
-85.44921875,-52.24609375,-59.08203125,-81.0546875
81.0546875,-47.36328125,-59.5703125,-51.26953125
123.53515625,-47.8515625,-55.17578125,-24.90234375
-25.87890625,-50.29296875,-52.734375,-41.9921875
-182.12890625,-48.828125,-56.15234375,-72.265625
-152.34375,-49.31640625,-62.5,-68.359375
10.7421875,-50.78125,-64.453125,-41.9921875
67.3828125,-44.43359375,-57.12890625,-13.671875
-61.5234375,-40.0390625,-53.22265625,-33.203125
-214.35546875,-49.31640625,-60.05859375,-65.4296875
-204.1015625,-52.734375,-59.08203125,-68.84765625
-20.5078125,-44.43359375,-56.640625,-39.0625
71.2890625,-38.0859375,-59.08203125,-19.04296875
-52.734375,-38.0859375,-62.98828125,-53.7109375
-205.078125,-49.31640625,-68.359375,-96.6796875
-207.03125,-58.10546875,-66.40625,-83.0078125
-45.8984375,-54.19921875,-61.03515625,-47.36328125
56.640625,-44.921875,-59.5703125,-19.53125
-28.80859375,-44.921875,-60.546875,-28.80859375
-156.25,-44.43359375,-56.640625,-72.265625
-169.921875,-44.921875,-56.640625,-99.609375
-27.34375,-43.45703125,-57.6171875,-72.265625
117.1875,-37.109375,-58.59375,-32.71484375
53.7109375,-37.59765625,-57.12890625,-28.80859375
-114.2578125,-52.24609375,-56.640625,-55.17578125
-139.6484375,-51.7578125,-61.03515625,-71.77734375
2.9296875,-45.8984375,-57.6171875,-48.828125
111.328125,-46.38671875,-43.9453125,-28.3203125
69.82421875,-43.9453125,-41.9921875,-14.16015625
-65.91796875,-49.8046875,-44.43359375,-28.80859375
-141.6015625,-47.36328125,-36.62109375,-57.6171875
-7.8125,-42.48046875,-33.203125,-26.3671875
141.6015625,-42.96875,-33.69140625,27.34375
139.16015625,-39.0625,-30.2734375,36.62109375
0.9765625,-41.50390625,-28.3203125,1.46484375
-126.46484375,-48.33984375,-26.85546875,-25.390625
-23.4375,-44.43359375,-21.484375,14.6484375
137.20703125,-41.50390625,-13.18359375,73.73046875
145.99609375,-39.0625,-13.671875,79.58984375
26.85546875,-45.41015625,-14.6484375,45.8984375
-110.3515625,-54.19921875,-16.6015625,-11.71875
-46.38671875,-51.26953125,-19.53125,-13.671875
141.6015625,-50.29296875,-16.11328125,30.2734375
156.25,-44.921875,-13.671875,46.38671875
12.6953125,-43.45703125,-16.6015625,19.04296875
-110.3515625,-47.36328125,-18.5546875,-36.1328125
-86.9140625,-41.015625,-18.06640625,-41.9921875
71.77734375,-37.109375,-16.11328125,8.7890625
132.32421875,-36.1328125,-15.625,20.01953125
17.578125,-41.9921875,-23.92578125,1.953125
-140.13671875,-51.7578125,-27.34375,-14.16015625
-128.90625,-53.22265625,-26.3671875,-55.17578125
47.8515625,-48.33984375,-28.80859375,-36.1328125
117.1875,-40.52734375,-25.87890625,8.30078125
20.5078125,-38.0859375,-26.3671875,7.32421875
-140.625,-51.26953125,-39.0625,-24.90234375
-195.3125,-54.19921875,-46.38671875,-62.98828125
-16.11328125,-45.41015625,-45.8984375,-42.96875
123.53515625,-39.0625,-39.55078125,2.44140625
26.85546875,-37.109375,-41.9921875,-12.20703125
-140.13671875,-41.9921875,-43.45703125,-64.94140625
-164.55078125,-43.45703125,-38.57421875,-83.49609375
-3.41796875,-34.66796875,-35.64453125,-47.36328125
119.140625,-27.83203125,-33.69140625,16.11328125
43.9453125,-27.34375,-30.76171875,27.83203125
-132.8125,-28.80859375,-29.78515625,-37.109375
-198.73046875,-35.64453125,-34.1796875,-87.890625
-72.265625,-38.57421875,-40.52734375,-49.31640625
65.91796875,-35.15625,-43.45703125,20.01953125
54.19921875,-30.2734375,-47.36328125,2.9296875
-122.55859375,-39.55078125,-47.36328125,-62.98828125
-248.046875,-54.19921875,-42.48046875,-120.60546875
-142.08984375,-55.6640625,-48.33984375,-127.44140625
-7.32421875,-60.546875,-56.15234375,-94.23828125
-57.6171875,-73.73046875,-60.05859375,-105.46875
-260.25390625,-83.49609375,-64.453125,-163.0859375
-337.40234375,-81.54296875,-59.5703125,-210.9375
-217.7734375,-80.56640625,-57.6171875,-212.890625
-91.796875,-84.47265625,-60.05859375,-156.73828125
-95.21484375,-84.47265625,-56.640625,-143.5546875
-236.328125,-83.984375,-63.4765625,-181.640625
-355.95703125,-85.9375,-67.87109375,-220.21484375
-256.8359375,-86.42578125,-62.98828125,-199.21875
-60.05859375,-82.03125,-57.12890625,-128.41796875
-19.53125,-77.63671875,-53.22265625,-95.703125
-151.85546875,-77.1484375,-54.19921875,-108.88671875
-276.3671875,-81.54296875,-60.546875,-137.6953125
-220.21484375,-78.61328125,-61.03515625,-141.11328125
-38.0859375,-72.265625,-54.6875,-97.16796875
33.203125,-69.82421875,-52.734375,-60.546875
-89.84375,-64.94140625,-57.12890625,-75.1953125
-217.28515625,-62.01171875,-56.640625,-109.86328125
-184.5703125,-64.453125,-50.29296875,-106.4453125
-7.32421875,-64.94140625,-50.78125,-71.2890625
103.515625,-61.5234375,-50.78125,-22.4609375
-17.08984375,-60.546875,-47.8515625,-53.7109375
-174.8046875,-62.01171875,-45.41015625,-94.23828125
-176.26953125,-68.84765625,-49.8046875,-105.46875
-34.1796875,-68.359375,-53.22265625,-95.21484375
78.125,-56.640625,-45.8984375,-30.76171875
0.0,-51.7578125,-46.875,-23.4375
-142.08984375,-54.19921875,-49.8046875,-75.68359375
-160.15625,-53.7109375,-44.921875,-80.078125
-24.4140625,-54.6875,-43.45703125,-52.24609375
83.49609375,-53.22265625,-44.43359375,-12.6953125
-7.8125,-52.734375,-45.41015625,-14.16015625
-155.2734375,-53.22265625,-43.9453125,-51.26953125
-202.63671875,-51.7578125,-41.50390625,-62.98828125
-72.75390625,-52.734375,-45.41015625,-49.8046875
68.84765625,-54.6875,-52.24609375,-3.90625
20.5078125,-55.17578125,-52.734375,2.9296875
-139.6484375,-62.01171875,-56.640625,-51.7578125
-198.73046875,-60.546875,-56.640625,-82.03125
-34.66796875,-50.78125,-48.828125,-56.15234375
121.58203125,-50.78125,-50.78125,-24.4140625
70.3125,-51.7578125,-52.24609375,-20.5078125
-93.75,-57.12890625,-57.12890625,-51.26953125
-190.4296875,-61.03515625,-62.5,-94.7265625
-87.890625,-54.19921875,-59.08203125,-86.9140625
61.03515625,-49.31640625,-56.15234375,-22.94921875
45.8984375,-52.24609375,-63.4765625,-29.78515625
-90.33203125,-56.15234375,-63.4765625,-82.51953125
-194.82421875,-57.12890625,-59.08203125,-91.796875
-117.67578125,-58.10546875,-63.96484375,-88.8671875
44.921875,-52.734375,-63.96484375,-51.7578125
70.80078125,-45.41015625,-60.05859375,-17.08984375
-26.3671875,-45.41015625,-59.08203125,-42.96875
-148.92578125,-47.36328125,-58.10546875,-86.9140625
-123.53515625,-57.6171875,-57.6171875,-98.14453125
42.48046875,-58.10546875,-56.640625,-42.96875
93.26171875,-47.36328125,-52.734375,8.7890625
-54.19921875,-43.9453125,-49.31640625,-16.11328125
-193.359375,-49.31640625,-53.22265625,-65.91796875
-124.0234375,-48.33984375,-58.10546875,-80.56640625
59.08203125,-42.48046875,-56.640625,-45.41015625
137.20703125,-39.55078125,-51.26953125,-28.3203125
5.859375,-40.52734375,-43.9453125,-49.8046875
-177.24609375,-47.8515625,-43.45703125,-77.1484375
-172.8515625,-49.31640625,-44.43359375,-74.70703125
9.765625,-46.875,-40.52734375,-42.48046875
119.140625,-42.96875,-39.0625,-30.2734375
30.76171875,-42.48046875,-38.57421875,-53.22265625
-121.58203125,-49.31640625,-43.45703125,-93.75
-146.484375,-53.22265625,-50.78125,-102.5390625
20.5078125,-48.828125,-53.7109375,-59.5703125
145.99609375,-41.9921875,-47.8515625,-20.01953125
65.91796875,-47.8515625,-43.45703125,-14.16015625
-107.421875,-58.10546875,-47.36328125,-55.6640625
-157.71484375,-56.640625,-47.8515625,-79.58984375
-26.3671875,-53.7109375,-46.38671875,-45.41015625
130.859375,-47.36328125,-47.36328125,-6.34765625
98.14453125,-43.45703125,-49.31640625,-23.4375
-81.54296875,-46.38671875,-49.31640625,-62.98828125
-167.96875,-50.78125,-57.6171875,-83.984375
-47.8515625,-52.734375,-59.08203125,-55.17578125
103.515625,-50.78125,-50.29296875,-2.44140625
70.80078125,-50.78125,-51.7578125,3.41796875
-82.51953125,-55.6640625,-58.10546875,-14.6484375
-170.8984375,-59.5703125,-62.5,-45.41015625
-87.40234375,-60.546875,-61.5234375,-54.19921875
48.33984375,-53.7109375,-56.640625,-22.4609375
41.50390625,-50.29296875,-56.640625,-1.46484375
-82.51953125,-51.7578125,-58.10546875,-15.13671875
-191.89453125,-52.734375,-58.10546875,-62.98828125
-99.609375,-60.546875,-60.546875,-78.61328125
70.80078125,-62.01171875,-59.5703125,-28.3203125
48.828125,-52.734375,-56.640625,-7.32421875
-108.88671875,-51.7578125,-59.5703125,-44.921875
-245.60546875,-60.546875,-62.98828125,-80.56640625
-185.546875,-61.03515625,-61.5234375,-78.61328125
7.8125,-56.640625,-56.15234375,-42.96875
75.68359375,-50.78125,-54.6875,-12.6953125
-62.01171875,-48.828125,-57.12890625,-41.50390625
-202.1484375,-51.26953125,-59.08203125,-79.58984375
-158.203125,-53.7109375,-59.08203125,-67.3828125
-8.30078125,-57.12890625,-57.6171875,-36.1328125
57.12890625,-51.7578125,-50.29296875,-3.90625
-45.41015625,-54.19921875,-48.33984375,-5.859375
-202.1484375,-58.59375,-52.24609375,-64.453125
-200.68359375,-51.7578125,-53.7109375,-95.21484375
-27.83203125,-41.9921875,-48.828125,-60.05859375
81.0546875,-37.109375,-44.921875,-23.4375
-14.16015625,-45.8984375,-51.7578125,-32.2265625
-175.78125,-56.640625,-56.15234375,-58.59375
-182.12890625,-56.640625,-47.36328125,-56.640625
-39.55078125,-54.6875,-42.48046875,-29.78515625
63.4765625,-53.22265625,-38.57421875,-5.37109375
18.5546875,-48.828125,-38.57421875,-18.5546875
-141.11328125,-49.31640625,-40.52734375,-53.7109375
-205.56640625,-55.17578125,-40.0390625,-72.75390625
-61.5234375,-52.24609375,-47.36328125,-54.6875
79.1015625,-43.9453125,-50.29296875,-22.94921875
19.04296875,-40.52734375,-49.31640625,-14.6484375
-130.37109375,-44.921875,-48.828125,-38.57421875
-185.546875,-49.8046875,-42.96875,-51.26953125
-38.57421875,-40.52734375,-38.57421875,-28.3203125
127.9296875,-28.3203125,-43.9453125,-13.671875
58.59375,-30.76171875,-45.8984375,-12.20703125
-116.69921875,-41.015625,-46.875,-35.15625
-210.44921875,-44.43359375,-49.8046875,-59.5703125
-103.02734375,-45.41015625,-45.41015625,-40.0390625
52.24609375,-45.41015625,-39.0625,-4.8828125
41.015625,-40.0390625,-37.109375,9.765625
-82.51953125,-39.55078125,-39.0625,-1.46484375
-189.453125,-46.38671875,-40.52734375,-45.41015625
-128.90625,-47.8515625,-49.8046875,-74.70703125
42.48046875,-42.96875,-53.22265625,-37.59765625
62.01171875,-44.921875,-50.78125,-11.23046875
-82.03125,-53.22265625,-50.29296875,-38.57421875
-201.171875,-57.6171875,-47.36328125,-67.87109375
-140.13671875,-55.17578125,-45.8984375,-66.89453125
28.3203125,-47.8515625,-40.0390625,-17.578125
68.359375,-45.41015625,-41.50390625,15.625
-73.2421875,-51.7578125,-48.828125,-32.71484375
-204.1015625,-58.10546875,-49.31640625,-83.49609375
-149.4140625,-59.08203125,-51.7578125,-69.3359375
20.5078125,-62.01171875,-49.31640625,-34.66796875
52.24609375,-60.546875,-50.29296875,-17.08984375
-52.24609375,-55.6640625,-57.12890625,-32.71484375
-167.48046875,-54.19921875,-55.6640625,-78.125
-189.94140625,-50.29296875,-51.7578125,-87.890625
-59.08203125,-53.7109375,-51.7578125,-47.8515625
35.15625,-53.7109375,-47.8515625,-18.06640625
-40.0390625,-48.33984375,-51.26953125,-26.85546875
-184.08203125,-55.6640625,-60.546875,-77.1484375
-185.05859375,-63.96484375,-62.5,-105.95703125
-33.69140625,-56.640625,-55.6640625,-69.3359375
67.87109375,-50.78125,-49.8046875,-22.4609375
15.13671875,-50.78125,-44.921875,-22.4609375
-136.71875,-52.734375,-47.8515625,-63.96484375
-165.52734375,-56.640625,-52.734375,-81.0546875
-13.18359375,-50.78125,-50.78125,-48.33984375
113.28125,-42.96875,-58.10546875,-17.08984375
70.3125,-36.1328125,-62.5,-19.53125
-91.796875,-40.52734375,-57.12890625,-57.6171875
-182.6171875,-54.6875,-57.12890625,-94.23828125
-62.5,-55.17578125,-57.12890625,-72.75390625
96.19140625,-48.828125,-54.19921875,-20.01953125
61.03515625,-49.31640625,-56.640625,-23.4375
-92.28515625,-50.78125,-58.10546875,-55.17578125
-170.41015625,-56.15234375,-60.05859375,-81.54296875
-69.82421875,-55.17578125,-58.59375,-63.96484375
86.9140625,-42.48046875,-53.7109375,-30.2734375
91.796875,-37.109375,-50.78125,-44.43359375
-46.38671875,-39.0625,-50.78125,-71.2890625
-150.87890625,-48.33984375,-55.6640625,-91.796875
-58.59375,-48.828125,-53.7109375,-84.47265625
132.8125,-40.0390625,-47.36328125,-39.55078125
156.25,-46.875,-49.8046875,-13.18359375
6.8359375,-46.875,-45.41015625,-21.484375
-104.98046875,-38.57421875,-41.015625,-47.8515625
-59.08203125,-43.9453125,-52.734375,-71.77734375
114.2578125,-44.43359375,-52.734375,-42.48046875
155.2734375,-40.0390625,-47.8515625,-24.4140625
22.94921875,-40.52734375,-47.36328125,-54.6875
-84.9609375,-47.8515625,-46.38671875,-78.61328125
-55.6640625,-53.22265625,-42.96875,-57.6171875
46.875,-52.24609375,-39.0625,-17.578125
61.03515625,-44.43359375,-49.31640625,-29.296875
-31.73828125,-40.52734375,-67.3828125,-70.80078125
-148.4375,-39.55078125,-69.3359375,-88.8671875
-146.484375,-40.52734375,-64.453125,-85.44921875
16.6015625,-38.57421875,-69.82421875,-74.21875
111.81640625,-34.66796875,-68.84765625,-31.25
30.76171875,-29.296875,-66.89453125,-6.8359375
-109.375,-27.83203125,-69.82421875,-50.29296875
-117.67578125,-30.76171875,-73.2421875,-81.0546875
39.0625,-23.92578125,-71.2890625,-42.48046875
125.9765625,-16.11328125,-62.01171875,-3.41796875
18.5546875,-16.11328125,-62.01171875,-20.01953125
-126.953125,-25.87890625,-71.2890625,-69.82421875
-122.0703125,-29.296875,-73.2421875,-87.40234375
17.08984375,-24.4140625,-69.3359375,-43.45703125
119.140625,-26.85546875,-64.453125,-3.90625
55.6640625,-31.73828125,-67.87109375,-3.90625
-68.84765625,-32.2265625,-69.3359375,-23.92578125
-120.1171875,-34.1796875,-62.98828125,-44.921875
1.46484375,-32.71484375,-60.05859375,-52.734375
163.0859375,-31.73828125,-59.5703125,-12.20703125
87.890625,-32.71484375,-58.59375,2.44140625
-102.5390625,-35.15625,-62.01171875,-34.1796875
-175.78125,-38.57421875,-59.08203125,-37.59765625
-65.4296875,-36.1328125,-51.26953125,-27.83203125
76.171875,-29.296875,-53.7109375,-8.30078125
93.26171875,-22.94921875,-49.8046875,27.83203125
-48.828125,-26.3671875,-52.734375,-15.13671875
-174.8046875,-38.57421875,-61.5234375,-78.125
-94.23828125,-45.41015625,-60.546875,-61.5234375
52.24609375,-41.015625,-54.19921875,-14.16015625
77.63671875,-38.0859375,-49.31640625,2.44140625
-37.59765625,-36.1328125,-52.734375,-20.01953125
-141.11328125,-33.203125,-56.640625,-66.89453125
-73.73046875,-33.69140625,-54.6875,-69.3359375
82.51953125,-30.76171875,-51.7578125,-31.25
102.05078125,-27.83203125,-52.734375,-20.99609375
-72.75390625,-40.52734375,-59.5703125,-46.38671875
-188.4765625,-51.7578125,-62.5,-75.1953125
-131.34765625,-48.33984375,-61.03515625,-69.82421875
24.4140625,-44.921875,-52.734375,-48.33984375
96.19140625,-41.9921875,-49.8046875,-23.92578125
-34.1796875,-43.9453125,-60.05859375,-36.1328125
-172.8515625,-47.8515625,-63.96484375,-74.21875
-134.27734375,-49.8046875,-65.4296875,-88.37890625
21.484375,-46.875,-60.546875,-43.45703125
100.09765625,-43.45703125,-53.7109375,-10.7421875
-16.6015625,-50.78125,-58.59375,-52.24609375
-165.0390625,-52.734375,-63.4765625,-90.8203125
-161.1328125,-56.15234375,-62.01171875,-95.21484375
-29.78515625,-58.59375,-64.453125,-75.1953125
67.87109375,-48.828125,-65.4296875,-52.24609375
-3.41796875,-44.43359375,-62.01171875,-41.015625
-160.64453125,-52.24609375,-58.10546875,-60.546875
-195.80078125,-55.6640625,-56.15234375,-98.6328125
-60.05859375,-52.24609375,-55.6640625,-83.984375
49.31640625,-46.38671875,-49.8046875,-32.71484375
3.41796875,-43.9453125,-48.33984375,-27.34375
-136.71875,-50.29296875,-53.22265625,-77.63671875
-212.890625,-59.08203125,-57.6171875,-103.515625
-82.51953125,-54.6875,-53.7109375,-79.1015625
93.75,-43.9453125,-41.9921875,-16.6015625
71.77734375,-46.875,-40.52734375,-9.27734375
-85.9375,-52.734375,-44.43359375,-81.54296875
-211.9140625,-54.6875,-53.7109375,-134.27734375
-104.4921875,-55.17578125,-60.546875,-116.69921875
77.1484375,-52.734375,-60.05859375,-76.171875
31.25,-46.38671875,-56.640625,-68.359375
-152.34375,-45.41015625,-54.19921875,-82.51953125
-239.2578125,-49.31640625,-53.22265625,-120.1171875
-135.25390625,-43.9453125,-49.31640625,-95.703125
23.4375,-36.1328125,-45.41015625,-33.203125
43.45703125,-43.45703125,-43.45703125,-23.92578125
-71.2890625,-51.26953125,-47.36328125,-56.15234375
-191.89453125,-50.29296875,-51.7578125,-93.75
-134.27734375,-47.8515625,-46.38671875,-89.84375
47.8515625,-40.52734375,-42.48046875,-42.96875
53.22265625,-41.015625,-49.31640625,-35.15625
-78.125,-41.50390625,-51.7578125,-56.640625
-183.59375,-41.50390625,-53.22265625,-74.70703125
-154.78515625,-46.38671875,-55.6640625,-86.9140625
26.85546875,-40.0390625,-51.26953125,-55.17578125
85.44921875,-33.203125,-43.9453125,-18.5546875
-46.38671875,-38.57421875,-46.875,-22.4609375
-166.50390625,-46.38671875,-53.7109375,-76.66015625
-154.296875,-50.78125,-55.6640625,-107.421875
-8.7890625,-49.31640625,-50.29296875,-61.5234375
61.03515625,-45.8984375,-51.26953125,-34.1796875
-38.0859375,-45.8984375,-63.4765625,-63.96484375
-195.80078125,-48.828125,-64.94140625,-78.61328125
-240.234375,-55.6640625,-60.05859375,-94.7265625
-72.75390625,-54.19921875,-58.59375,-95.21484375
43.9453125,-44.43359375,-54.6875,-50.29296875
-51.7578125,-45.8984375,-53.7109375,-57.12890625
-191.40625,-53.22265625,-54.19921875,-100.5859375
-221.6796875,-58.59375,-50.78125,-100.09765625
-96.6796875,-58.10546875,-50.78125,-85.44921875
6.34765625,-57.6171875,-54.6875,-68.359375
-62.98828125,-61.03515625,-55.6640625,-74.70703125
-210.9375,-59.5703125,-56.640625,-93.75
-254.39453125,-55.6640625,-54.6875,-105.95703125
-98.14453125,-55.17578125,-56.640625,-98.14453125
48.828125,-49.8046875,-52.24609375,-47.36328125
4.39453125,-45.8984375,-43.9453125,-14.6484375
-139.6484375,-53.7109375,-42.96875,-25.87890625
-205.078125,-59.08203125,-54.6875,-75.68359375
-96.6796875,-55.6640625,-62.01171875,-89.84375
52.24609375,-47.36328125,-53.7109375,-39.0625
52.734375,-46.38671875,-49.31640625,-12.20703125
-104.00390625,-52.734375,-53.7109375,-56.640625
-218.75,-51.7578125,-54.19921875,-117.1875
-113.76953125,-42.48046875,-50.29296875,-92.28515625
39.55078125,-43.9453125,-46.38671875,-14.6484375
47.8515625,-48.33984375,-41.9921875,3.41796875
-91.796875,-47.36328125,-43.45703125,-29.296875
-211.9140625,-52.24609375,-48.33984375,-73.2421875
-138.671875,-57.12890625,-52.734375,-74.70703125
23.92578125,-51.26953125,-51.26953125,-6.34765625
73.73046875,-43.9453125,-54.19921875,44.43359375
-52.734375,-50.78125,-54.19921875,-1.953125
-214.84375,-61.03515625,-49.8046875,-67.87109375
-194.3359375,-62.01171875,-59.5703125,-135.7421875
-39.55078125,-59.08203125,-57.6171875,-168.9453125
-8.30078125,-61.03515625,-46.38671875,-148.92578125
-136.23046875,-68.84765625,-40.52734375,-160.15625
-283.69140625,-81.54296875,-39.0625,-217.7734375
-304.6875,-96.19140625,-41.9921875,-259.27734375
-153.80859375,-97.16796875,-37.109375,-216.796875
-78.125,-95.703125,-31.25,-170.41015625
-196.2890625,-100.5859375,-29.296875,-145.5078125
-327.63671875,-102.5390625,-25.390625,-161.1328125
-320.80078125,-99.609375,-27.34375,-215.8203125
-167.48046875,-97.65625,-27.83203125,-175.29296875
-44.921875,-94.7265625,-22.94921875,-91.796875
-126.953125,-97.16796875,-15.625,-103.515625
-299.8046875,-96.6796875,-13.671875,-155.2734375
-312.98828125,-90.33203125,-19.53125,-148.4375
-126.953125,-81.54296875,-20.01953125,-113.76953125
5.37109375,-77.63671875,-15.13671875,-64.94140625
-27.34375,-80.56640625,-13.18359375,-28.3203125
-167.96875,-81.54296875,-20.99609375,-63.4765625
-233.3984375,-75.68359375,-32.2265625,-90.8203125
-106.4453125,-66.40625,-32.2265625,-56.640625
20.99609375,-66.40625,-32.2265625,-30.76171875
-2.9296875,-65.4296875,-36.1328125,-25.390625
-127.44140625,-67.87109375,-43.45703125,-37.59765625
-194.82421875,-70.3125,-45.41015625,-65.91796875
-76.171875,-62.01171875,-37.109375,-58.59375
76.66015625,-55.17578125,-35.64453125,-45.41015625
30.76171875,-56.640625,-35.64453125,-52.734375
-119.140625,-58.10546875,-38.57421875,-70.80078125
-206.54296875,-63.96484375,-48.33984375,-118.1640625
-133.30078125,-66.40625,-52.24609375,-108.3984375
31.25,-59.5703125,-49.31640625,-62.01171875
43.45703125,-57.6171875,-48.828125,-31.25
-91.796875,-58.59375,-51.26953125,-51.7578125
-205.56640625,-55.6640625,-52.734375,-102.5390625
-139.6484375,-50.78125,-51.26953125,-83.0078125
23.92578125,-43.45703125,-52.24609375,-46.38671875
50.29296875,-36.1328125,-52.734375,-43.9453125
-48.828125,-39.55078125,-50.29296875,-67.3828125
-176.26953125,-46.875,-53.7109375,-107.91015625
-147.94921875,-47.8515625,-57.12890625,-113.28125
38.57421875,-45.8984375,-52.734375,-67.87109375
84.9609375,-42.96875,-50.78125,-36.1328125
-61.5234375,-41.9921875,-52.734375,-31.73828125
-200.1953125,-46.875,-56.640625,-66.40625
-159.1796875,-49.31640625,-57.6171875,-90.8203125
1.46484375,-42.48046875,-52.24609375,-42.96875
58.10546875,-37.59765625,-47.8515625,-19.04296875
-84.47265625,-44.43359375,-49.8046875,-48.828125
-212.890625,-52.24609375,-48.828125,-84.9609375
-179.19921875,-50.29296875,-49.31640625,-101.07421875
-42.48046875,-48.828125,-55.6640625,-76.171875
26.3671875,-44.921875,-56.640625,-32.2265625
-62.01171875,-47.36328125,-49.31640625,-28.3203125
-208.0078125,-52.734375,-44.921875,-80.56640625
-230.46875,-59.08203125,-51.26953125,-107.421875
-77.1484375,-60.546875,-48.33984375,-74.70703125
27.83203125,-54.6875,-41.9921875,-36.1328125
-42.48046875,-54.6875,-45.41015625,-54.19921875
-186.5234375,-60.05859375,-53.22265625,-73.73046875
-261.71875,-62.98828125,-60.05859375,-82.03125
-118.1640625,-55.6640625,-69.82421875,-99.12109375
20.01953125,-43.9453125,-68.84765625,-62.5
-63.96484375,-43.9453125,-62.5,-36.62109375
-199.70703125,-45.41015625,-63.4765625,-65.4296875
-248.53515625,-41.015625,-58.59375,-81.0546875
-150.390625,-45.8984375,-50.78125,-61.03515625
-8.7890625,-45.8984375,-53.22265625,-26.3671875
-26.3671875,-39.55078125,-56.15234375,-11.71875
-205.078125,-42.48046875,-51.7578125,-34.66796875
-327.1484375,-48.33984375,-53.7109375,-71.2890625
-248.53515625,-54.19921875,-57.6171875,-73.2421875
-91.30859375,-54.19921875,-56.640625,-41.015625
-88.8671875,-51.7578125,-56.640625,-31.73828125
-233.3984375,-54.6875,-58.10546875,-69.82421875
-317.3828125,-55.17578125,-62.01171875,-98.14453125
-214.35546875,-53.22265625,-60.546875,-80.56640625
-57.6171875,-52.734375,-52.24609375,-43.9453125
-15.625,-41.9921875,-49.8046875,2.44140625
-80.56640625,-41.9921875,-57.12890625,-18.06640625
-203.61328125,-48.33984375,-61.5234375,-90.8203125
-147.4609375,-45.8984375,-59.5703125,-94.7265625
54.6875,-49.8046875,-55.17578125,-27.83203125
115.234375,-46.38671875,-48.828125,10.25390625
-13.18359375,-46.875,-49.8046875,-26.85546875
-153.3203125,-52.24609375,-58.10546875,-78.61328125
-118.65234375,-49.31640625,-63.96484375,-92.7734375
24.90234375,-44.921875,-63.96484375,-56.640625
99.609375,-45.41015625,-60.05859375,-8.30078125
15.625,-44.921875,-56.640625,-19.53125
-124.51171875,-48.828125,-56.15234375,-64.453125
-132.32421875,-52.24609375,-54.19921875,-86.42578125
27.34375,-41.9921875,-43.9453125,-32.2265625
107.91015625,-39.55078125,-46.875,2.9296875
23.4375,-44.43359375,-58.59375,-28.80859375
-118.65234375,-45.41015625,-64.94140625,-85.44921875
-148.4375,-48.33984375,-62.98828125,-111.81640625
-11.23046875,-45.8984375,-61.03515625,-70.80078125
85.9375,-44.921875,-55.17578125,-29.296875
1.953125,-47.36328125,-50.78125,-32.71484375
-151.85546875,-50.29296875,-54.6875,-67.87109375
-216.30859375,-55.6640625,-53.7109375,-82.03125
-85.44921875,-52.734375,-49.8046875,-45.41015625
62.5,-44.43359375,-47.36328125,-13.671875
21.484375,-41.50390625,-51.7578125,-42.48046875
-127.44140625,-46.38671875,-58.10546875,-73.73046875
-189.453125,-50.78125,-60.05859375,-80.56640625
-52.734375,-42.48046875,-50.29296875,-55.6640625
79.1015625,-29.296875,-44.43359375,-17.08984375
18.06640625,-35.15625,-52.734375,-30.2734375
-116.69921875,-39.0625,-58.59375,-76.171875
-187.5,-38.57421875,-60.05859375,-106.4453125
-125.48828125,-49.31640625,-59.08203125,-84.9609375
12.6953125,-50.78125,-58.10546875,-35.15625
19.04296875,-47.36328125,-53.22265625,-20.5078125
-114.74609375,-49.31640625,-52.24609375,-20.5078125
-195.3125,-49.31640625,-59.08203125,-65.4296875
-115.72265625,-45.8984375,-59.5703125,-96.19140625
43.45703125,-39.0625,-49.8046875,-44.43359375
67.3828125,-36.1328125,-42.48046875,-14.16015625
-59.08203125,-43.45703125,-45.8984375,-36.62109375
-175.29296875,-49.31640625,-52.734375,-73.73046875
-127.44140625,-46.38671875,-49.31640625,-80.078125
42.48046875,-37.109375,-45.8984375,-44.43359375
93.75,-35.15625,-53.7109375,-19.53125
-49.8046875,-40.52734375,-54.19921875,-47.36328125
-180.17578125,-35.15625,-44.43359375,-65.91796875
-158.69140625,-29.296875,-41.015625,-39.55078125
-18.06640625,-36.1328125,-52.734375,-34.1796875
65.91796875,-42.96875,-58.10546875,-22.4609375
-18.06640625,-43.45703125,-55.6640625,-24.4140625
-141.6015625,-41.50390625,-52.24609375,-65.91796875
-141.11328125,-45.8984375,-61.03515625,-84.9609375
-16.11328125,-47.36328125,-62.01171875,-57.6171875
66.89453125,-43.45703125,-59.5703125,-18.06640625
2.44140625,-42.96875,-58.59375,-11.23046875
-158.69140625,-52.24609375,-59.08203125,-64.453125
-179.19921875,-53.7109375,-62.5,-78.125
-12.20703125,-47.8515625,-53.22265625,-21.484375
98.14453125,-49.31640625,-52.24609375,-1.46484375
6.8359375,-52.24609375,-60.05859375,-16.11328125
-152.83203125,-50.29296875,-65.91796875,-54.19921875
-182.12890625,-53.7109375,-66.40625,-83.0078125
-70.80078125,-51.26953125,-56.15234375,-44.43359375
28.3203125,-49.31640625,-54.19921875,-17.08984375
1.46484375,-51.7578125,-56.640625,-20.5078125
-132.32421875,-41.9921875,-51.26953125,-34.66796875
-201.171875,-45.8984375,-61.5234375,-83.0078125
-70.3125,-53.22265625,-68.359375,-82.51953125
60.05859375,-51.7578125,-64.94140625,-26.85546875
36.62109375,-56.15234375,-62.98828125,-10.25390625
