TP9,AF7,AF8,TP10
-171.38671875,177.24609375,157.71484375,-52.734375
-692.87109375,-1000.0,-1000.0,-143.06640625
-445.80078125,-1000.0,-1000.0,-94.7265625
238.76953125,-312.98828125,-121.58203125,18.5546875
523.92578125,999.51171875,999.51171875,83.0078125
-27.34375,736.328125,303.22265625,-8.30078125
-633.30078125,-643.5546875,-966.796875,-116.69921875
-527.34375,-1000.0,-1000.0,-77.1484375
152.83203125,-282.2265625,-217.7734375,36.62109375
507.32421875,999.51171875,999.51171875,70.3125
20.5078125,437.01171875,399.90234375,3.90625
-608.88671875,-921.875,-922.36328125,-89.84375
-545.41015625,-1000.0,-1000.0,-79.58984375
122.55859375,-759.27734375,-232.421875,25.390625
534.66796875,666.9921875,999.51171875,55.6640625
178.22265625,999.51171875,688.96484375,1.46484375
-494.62890625,-407.71484375,-658.69140625,-80.078125
-580.56640625,-1000.0,-1000.0,-102.05078125
93.75,-313.96484375,-225.5859375,-14.6484375
531.73828125,979.98046875,999.51171875,66.89453125
207.51953125,998.046875,878.90625,41.50390625
-435.05859375,-257.8125,-394.53125,-58.59375
-632.8125,-1000.0,-1000.0,-88.8671875
13.18359375,-212.40234375,-244.62890625,-11.23046875
569.82421875,964.35546875,975.5859375,79.58984375
306.15234375,999.51171875,999.51171875,40.52734375
-362.3046875,114.2578125,-52.734375,-74.70703125
-642.578125,-1000.0,-1000.0,-101.07421875
-103.02734375,-751.46484375,-406.25,-52.24609375
494.62890625,600.09765625,887.20703125,29.78515625
388.671875,999.51171875,999.51171875,26.85546875
-269.04296875,136.71875,132.8125,-52.24609375
-632.8125,-1000.0,-1000.0,-92.28515625
-206.0546875,-1000.0,-689.94140625,-41.9921875
426.7578125,-18.5546875,656.25,62.98828125
450.1953125,999.51171875,999.51171875,48.828125
-214.84375,184.5703125,167.96875,-65.91796875
-667.96875,-1000.0,-1000.0,-101.5625
-271.97265625,-1000.0,-807.12890625,-56.15234375
406.25,104.00390625,507.32421875,27.34375
486.81640625,999.51171875,999.51171875,47.36328125
-76.171875,867.67578125,240.72265625,-40.52734375
-585.9375,-362.79296875,-1000.0,-109.375
-358.88671875,-1000.0,-1000.0,-75.1953125
366.69921875,-171.38671875,170.8984375,43.45703125
541.9921875,999.51171875,999.51171875,70.80078125
-33.203125,914.55078125,348.6328125,-32.2265625
-583.0078125,-355.95703125,-947.265625,-108.3984375
-445.80078125,-1000.0,-1000.0,-94.7265625
262.20703125,-193.84765625,-8.30078125,0.0
571.77734375,999.51171875,999.51171875,58.59375
93.26171875,943.84765625,554.6875,-5.37109375
-532.2265625,-325.1953125,-790.0390625,-88.37890625
-492.67578125,-1000.0,-1000.0,-85.9375
225.09765625,-166.50390625,-71.2890625,-1.953125
585.44921875,999.51171875,999.51171875,68.359375
145.5078125,883.7890625,711.9140625,-0.9765625
-500.9765625,-392.08984375,-605.95703125,-106.4453125
-543.45703125,-1000.0,-1000.0,-94.23828125
146.484375,-305.17578125,-177.24609375,14.16015625
564.453125,930.17578125,999.51171875,71.2890625
225.5859375,999.51171875,918.45703125,22.94921875
-418.9453125,47.36328125,-320.3125,-66.40625
-598.14453125,-1000.0,-1000.0,-95.21484375
56.640625,-326.66015625,-198.73046875,-26.85546875
569.82421875,934.5703125,989.74609375,49.8046875
293.9453125,999.51171875,999.51171875,25.87890625
-368.1640625,217.7734375,-14.6484375,-82.03125
-642.578125,-1000.0,-1000.0,-109.86328125
-62.01171875,-642.578125,-306.15234375,-29.78515625
509.27734375,748.53515625,946.77734375,37.59765625
326.171875,999.51171875,999.51171875,22.4609375
-316.89453125,176.7578125,112.79296875,-57.12890625
-653.80859375,-1000.0,-1000.0,-109.86328125
-143.06640625,-861.328125,-494.140625,-40.0390625
480.95703125,446.2890625,838.37890625,35.15625
393.06640625,999.51171875,999.51171875,10.7421875
-221.6796875,562.98828125,178.22265625,-67.87109375
-645.99609375,-811.03515625,-1000.0,-119.62890625
-281.73828125,-1000.0,-724.609375,-72.265625
427.24609375,156.73828125,621.58203125,50.29296875
485.3515625,999.51171875,999.51171875,45.8984375
-150.87890625,380.859375,204.58984375,-50.29296875
-637.6953125,-938.4765625,-1000.0,-103.515625
-315.4296875,-1000.0,-875.9765625,-67.3828125
383.7890625,19.04296875,417.48046875,31.73828125
520.99609375,999.51171875,999.51171875,84.47265625
-62.98828125,570.80078125,318.359375,-32.2265625
-628.90625,-841.30859375,-1000.0,-135.7421875
-393.06640625,-1000.0,-974.12109375,-69.3359375
304.6875,169.921875,286.1328125,-4.8828125
497.55859375,999.51171875,999.51171875,37.109375
-20.99609375,579.1015625,421.38671875,-15.13671875
-605.95703125,-742.67578125,-878.90625,-101.5625
-473.6328125,-1000.0,-1000.0,-62.5
236.328125,-202.63671875,-85.44921875,46.38671875
540.52734375,999.51171875,999.51171875,81.54296875
101.07421875,899.90234375,576.66015625,38.57421875
-520.99609375,-389.6484375,-762.6953125,-54.6875
-533.69140625,-1000.0,-1000.0,-82.51953125
187.98828125,-169.43359375,-145.01953125,21.484375
589.84375,975.09765625,999.51171875,90.33203125
206.54296875,999.51171875,948.2421875,35.64453125
-440.91796875,116.2109375,-268.06640625,-86.9140625
-612.79296875,-1000.0,-1000.0,-109.86328125
68.359375,-421.875,-165.0390625,1.46484375
549.8046875,902.83203125,999.51171875,97.16796875
247.55859375,999.51171875,999.51171875,50.29296875
-390.625,163.57421875,-68.84765625,-83.0078125
-624.0234375,-1000.0,-1000.0,-127.44140625
16.6015625,-514.6484375,-230.46875,-29.296875
553.22265625,839.84375,974.609375,83.49609375
307.6171875,999.51171875,999.51171875,66.40625
-306.640625,648.4375,112.79296875,-55.17578125
-631.8359375,-853.02734375,-1000.0,-92.28515625
-110.3515625,-848.14453125,-370.1171875,-26.3671875
509.27734375,644.53125,925.29296875,39.0625
366.2109375,999.51171875,999.51171875,13.671875
-298.33984375,149.4140625,139.6484375,-74.21875
-656.73828125,-1000.0,-1000.0,-88.37890625
-192.87109375,-1000.0,-575.1953125,-38.57421875
442.3828125,197.75390625,770.5078125,23.92578125
420.41015625,999.51171875,999.51171875,34.66796875
-190.91796875,363.76953125,210.44921875,-50.78125
-655.76171875,-1000.0,-1000.0,-108.3984375
-301.7578125,-709.47265625,-678.22265625,-37.109375
405.76171875,690.91796875,675.78125,73.2421875
454.1015625,999.51171875,999.51171875,62.5
-139.16015625,500.9765625,243.65234375,-24.4140625
-643.5546875,-798.33984375,-1000.0,-126.953125
-415.0390625,-1000.0,-1000.0,-105.46875
269.04296875,-238.28125,176.26953125,23.92578125
493.65234375,999.51171875,999.51171875,25.390625
-51.26953125,516.11328125,322.75390625,-72.265625
-627.44140625,-885.7421875,-980.46875,-128.41796875
-436.5234375,-1000.0,-1000.0,-94.23828125
282.2265625,-83.984375,104.4921875,8.7890625
537.59765625,999.51171875,999.51171875,68.359375
58.10546875,958.0078125,612.79296875,14.16015625
-550.78125,-251.46484375,-712.40234375,-91.796875
-526.85546875,-1000.0,-1000.0,-55.17578125
184.08203125,-206.54296875,-97.16796875,43.9453125
546.875,999.51171875,999.51171875,75.1953125
146.97265625,999.51171875,853.515625,-26.3671875
-495.1171875,-115.72265625,-422.8515625,-290.0390625
-594.23828125,-1000.0,-1000.0,-310.05859375
115.234375,-298.33984375,-145.5078125,-117.1875
569.3359375,924.8046875,999.51171875,-7.32421875
234.375,999.51171875,998.53515625,-20.01953125
-412.109375,252.44140625,-143.5546875,-88.8671875
-627.44140625,-1000.0,-1000.0,-102.5390625
29.78515625,-394.04296875,-205.56640625,-16.11328125
549.8046875,931.15234375,999.51171875,70.80078125
258.7890625,999.51171875,999.51171875,5.37109375
-380.859375,213.8671875,-53.7109375,-88.8671875
-643.5546875,-1000.0,-1000.0,-106.4453125
-61.5234375,-648.92578125,-321.2890625,-45.41015625
529.78515625,737.3046875,932.12890625,9.27734375
365.234375,999.51171875,999.51171875,-18.5546875
-296.875,248.53515625,144.04296875,-81.0546875
-664.55078125,-1000.0,-1000.0,-132.32421875
-107.421875,-416.015625,-382.8125,60.05859375
457.03125,923.828125,917.48046875,-393.06640625
290.52734375,999.51171875,999.51171875,-1000.0
-273.92578125,149.90234375,191.89453125,-989.74609375
-658.203125,-1000.0,-1000.0,-987.3046875
-264.6484375,-1000.0,-665.52734375,-1000.0
388.671875,-143.06640625,684.08203125,-1000.0
465.8203125,999.51171875,999.51171875,-999.51171875
-121.58203125,434.08203125,254.8828125,-1000.0
-617.1875,-939.94140625,-1000.0,-1000.0
-305.17578125,-1000.0,-777.83203125,-960.44921875
369.140625,75.68359375,560.05859375,-959.47265625
492.67578125,999.51171875,999.51171875,-970.703125
11.71875,999.51171875,523.92578125,-966.796875
-520.01953125,-41.9921875,-885.7421875,-871.09375
-373.046875,-1000.0,-968.26171875,-852.5390625
349.12109375,-100.5859375,392.08984375,-929.19921875
584.9609375,999.51171875,999.51171875,-660.15625
135.7421875,999.51171875,676.7578125,-465.33203125
-450.1953125,123.046875,-685.546875,-432.6171875
-450.68359375,-1000.0,-1000.0,-641.6015625
258.30078125,-181.15234375,243.65234375,-826.66015625
581.0546875,999.51171875,999.51171875,-582.51953125
187.01171875,943.84765625,951.66015625,-189.453125
-339.84375,939.453125,-233.3984375,114.74609375
-372.55859375,974.609375,-1000.0,341.30859375
232.421875,956.54296875,126.953125,534.66796875
509.765625,918.45703125,999.51171875,387.20703125
137.20703125,999.51171875,999.51171875,-70.80078125
-481.93359375,96.6796875,-13.671875,-389.6484375
-629.8828125,-1000.0,-1000.0,-494.62890625
48.828125,-460.9375,-90.8203125,-623.53515625
512.6953125,875.0,999.51171875,-718.26171875
239.74609375,999.51171875,999.51171875,-731.93359375
-386.23046875,135.25390625,109.86328125,-710.44921875
-633.30078125,-1000.0,-1000.0,-673.33984375
15.13671875,-194.82421875,-166.50390625,-627.44140625
563.4765625,997.0703125,999.51171875,-578.61328125
318.84765625,999.51171875,999.51171875,-531.25
-334.47265625,225.09765625,200.68359375,-519.04296875
-667.96875,-1000.0,-1000.0,-501.46484375
-115.234375,-708.0078125,-240.72265625,-459.47265625
498.53515625,671.38671875,983.3984375,-449.70703125
364.74609375,999.51171875,999.51171875,-447.75390625
-254.39453125,193.84765625,244.140625,-413.0859375
-635.25390625,-1000.0,-1000.0,-376.46484375
-175.78125,-1000.0,-340.8203125,-340.33203125
459.9609375,157.2265625,936.5234375,-314.94140625
446.2890625,999.51171875,999.51171875,-306.15234375
-132.8125,686.03515625,411.1328125,-273.4375
-618.65234375,-673.33984375,-1000.0,-231.4453125
-284.66796875,-1000.0,-517.08984375,-317.87109375
409.66796875,85.44921875,862.79296875,-377.9296875
486.81640625,999.51171875,999.51171875,-302.734375
-38.0859375,691.40625,523.4375,-240.72265625
-585.44921875,-691.40625,-976.5625,-199.70703125
-372.0703125,-1000.0,-721.6796875,-191.40625
364.2578125,203.61328125,722.65625,-179.19921875
512.6953125,999.51171875,999.51171875,-165.52734375
30.2734375,999.51171875,749.51171875,-164.0625
-495.60546875,156.25,-636.71875,-124.51171875
-427.24609375,-1000.0,-1000.0,-90.33203125
274.90234375,-242.67578125,421.38671875,-122.0703125
547.8515625,999.51171875,999.51171875,-124.51171875
98.14453125,837.890625,864.74609375,-115.72265625
-502.44140625,-483.88671875,-419.921875,-137.20703125
-499.51171875,-1000.0,-1000.0,-128.41796875
203.61328125,-171.875,259.765625,-125.0
551.26953125,958.984375,999.51171875,-112.3046875
189.94140625,999.51171875,999.51171875,-132.32421875
-428.7109375,175.78125,28.80859375,-147.4609375
-545.8984375,-1000.0,-1000.0,-94.23828125
159.66796875,-8.30078125,195.80078125,-92.7734375
539.55078125,999.51171875,999.51171875,-112.79296875
220.703125,999.51171875,999.51171875,-92.28515625
-385.7421875,244.62890625,172.8515625,-68.359375
-623.046875,-1000.0,-1000.0,-58.10546875
35.15625,-356.4453125,-130.859375,-27.34375
548.33984375,942.87109375,999.51171875,-41.9921875
300.78125,999.51171875,999.51171875,-67.87109375
-324.21875,239.2578125,197.75390625,-66.40625
-621.58203125,-1000.0,-1000.0,-52.24609375
-25.390625,-510.7421875,-220.703125,109.375
569.82421875,850.09765625,991.69921875,435.546875
415.0390625,999.51171875,999.51171875,741.2109375
-227.5390625,431.15234375,230.46875,673.828125
-682.12890625,-1000.0,-1000.0,136.23046875
-178.22265625,-821.77734375,-254.8828125,-138.18359375
465.33203125,586.9140625,978.02734375,-142.08984375
378.41796875,999.51171875,999.51171875,-191.89453125
-195.3125,347.65625,309.08203125,-52.734375
-625.9765625,-1000.0,-1000.0,293.45703125
-196.2890625,-767.08984375,-481.93359375,616.2109375
506.34765625,648.92578125,871.09375,874.0234375
493.65234375,999.51171875,999.51171875,890.13671875
-127.44140625,849.12109375,258.30078125,737.3046875
-612.3046875,-636.71875,-1000.0,746.09375
-300.78125,-738.28125,-936.03515625,852.5390625
403.3203125,820.80078125,353.02734375,941.89453125
507.8125,999.51171875,999.51171875,979.00390625
-68.359375,832.03125,134.765625,896.97265625
-593.26171875,-451.171875,-999.51171875,750.0
-394.04296875,-1000.0,-1000.0,765.13671875
275.390625,77.63671875,-244.62890625,842.7734375
527.34375,999.51171875,999.51171875,855.95703125
5.859375,894.53125,136.23046875,758.30078125
-578.61328125,-349.609375,-1000.0,609.375
-481.93359375,-1000.0,-1000.0,685.546875
148.92578125,-111.328125,-420.8984375,431.15234375
471.6796875,999.51171875,999.51171875,-323.73046875
-20.99609375,513.18359375,189.94140625,-729.98046875
-618.65234375,-838.37890625,-1000.0,-870.1171875
-541.9921875,-1000.0,-1000.0,-797.8515625
46.875,-760.7421875,-444.3359375,-877.9296875
516.11328125,532.2265625,999.51171875,-958.0078125
258.30078125,999.51171875,757.32421875,-652.34375
-381.34765625,100.09765625,-636.71875,-290.52734375
-502.44140625,-1000.0,-1000.0,46.875
162.109375,-193.359375,-125.9765625,372.0703125
727.05078125,999.51171875,999.51171875,579.1015625
530.2734375,944.82421875,984.375,627.44140625
59.5703125,938.96484375,854.00390625,622.0703125
-82.03125,972.65625,675.78125,619.62890625
237.3046875,966.30859375,938.4765625,666.015625
473.6328125,965.8203125,964.35546875,716.796875
291.50390625,965.8203125,954.58984375,665.52734375
-74.21875,966.30859375,999.51171875,581.54296875
-334.47265625,966.30859375,-213.8671875,530.76171875
-47.36328125,977.05078125,3.41796875,576.66015625
353.02734375,893.06640625,999.51171875,654.78515625
250.9765625,999.51171875,999.51171875,641.6015625
-247.0703125,417.48046875,377.9296875,532.71484375
-707.51953125,-931.15234375,-1000.0,259.27734375
-340.33203125,-1000.0,-333.49609375,11.23046875
306.15234375,-100.09765625,958.0078125,13.671875
323.73046875,999.51171875,999.51171875,183.10546875
-268.5546875,179.19921875,468.26171875,260.25390625
-775.87890625,-1000.0,-1000.0,254.8828125
-401.3671875,-1000.0,-375.9765625,340.33203125
296.875,-254.39453125,996.58203125,420.8984375
363.28125,999.51171875,957.51953125,414.55078125
-185.546875,169.921875,995.1171875,333.0078125
-735.83984375,-1000.0,-434.5703125,255.859375
-477.05078125,-1000.0,-453.125,289.55078125
248.53515625,-256.34765625,999.51171875,423.33984375
409.66796875,999.51171875,952.63671875,469.23828125
-94.7265625,159.66796875,999.51171875,350.5859375
-694.82421875,-1000.0,-296.875,218.26171875
-562.5,-1000.0,-972.16796875,259.765625
163.57421875,-474.609375,492.67578125,373.046875
461.9140625,999.51171875,999.51171875,369.140625
-8.7890625,353.02734375,590.8203125,294.43359375
-645.01953125,-1000.0,-690.91796875,207.51953125
-589.35546875,-1000.0,-1000.0,209.9609375
57.6171875,-876.953125,-261.23046875,292.96875
489.2578125,481.93359375,999.51171875,340.33203125
120.60546875,999.51171875,382.32421875,262.20703125
-550.29296875,-298.828125,-933.10546875,151.85546875
-595.703125,-1000.0,-1000.0,154.296875
-21.484375,-916.9921875,-639.16015625,229.4921875
507.32421875,364.2578125,916.9921875,283.69140625
237.3046875,999.51171875,480.46875,225.5859375
-509.27734375,-210.44921875,-944.82421875,106.93359375
-644.04296875,-1000.0,-1000.0,82.03125
-91.796875,-978.02734375,-730.46875,155.2734375
478.02734375,206.0546875,734.375,245.1171875
317.3828125,999.51171875,852.5390625,216.796875
-407.71484375,22.4609375,-620.60546875,84.9609375
-625.0,-1000.0,-1000.0,48.828125
-168.45703125,-1000.0,-926.7578125,129.39453125
404.296875,-120.1171875,400.87890625,200.68359375
368.1640625,999.51171875,985.3515625,183.59375
-362.3046875,63.96484375,-536.62109375,89.35546875
-673.33984375,-1000.0,-1000.0,41.015625
-269.04296875,-1000.0,-1000.0,104.98046875
344.7265625,-242.1875,-109.375,158.69140625
435.546875,999.51171875,999.51171875,163.57421875
-291.50390625,166.50390625,-423.33984375,70.3125
-733.3984375,-1000.0,-1000.0,-6.8359375
-415.0390625,-1000.0,-1000.0,49.8046875
207.51953125,-250.9765625,-242.67578125,123.53515625
423.828125,999.51171875,999.51171875,141.11328125
-264.16015625,108.3984375,-282.71484375,46.38671875
-811.5234375,-1000.0,-1000.0,-31.25
-535.15625,-968.75,-1000.0,8.7890625
8.7890625,-977.5390625,-556.640625,76.171875
250.0,-1000.0,948.73046875,125.9765625
-265.13671875,-1000.0,-82.03125,69.3359375
-832.03125,-1000.0,-1000.0,-14.16015625
-664.0625,-1000.0,-971.19140625,30.2734375
-156.73828125,-1000.0,-970.703125,101.5625
154.296875,-1000.0,434.5703125,102.5390625
-259.27734375,-1000.0,37.59765625,50.78125
-860.83984375,-1000.0,-1000.0,-20.5078125
-746.58203125,-1000.0,-933.59375,-23.4375
-254.39453125,-1000.0,-1000.0,50.29296875
87.40234375,-1000.0,-497.55859375,110.83984375
-179.6875,-1000.0,-497.55859375,45.8984375
-735.3515625,-1000.0,-1000.0,-48.33984375
-699.70703125,-1000.0,-934.5703125,-38.57421875
-191.89453125,-1000.0,-1000.0,30.76171875
235.83984375,-1000.0,-260.7421875,91.796875
41.50390625,-1000.0,-48.828125,55.17578125
-529.296875,-1000.0,-1000.0,-35.15625
-560.546875,-1000.0,-941.89453125,-52.24609375
-82.03125,-1000.0,-1000.0,5.859375
429.19921875,-1000.0,44.921875,97.65625
308.10546875,-1000.0,452.1484375,102.05078125
-338.8671875,-1000.0,-988.76953125,3.90625
-477.5390625,-935.546875,-1000.0,-59.5703125
-12.6953125,-1000.0,-914.0625,-25.87890625
569.82421875,-307.12890625,325.68359375,63.96484375
608.88671875,999.51171875,999.51171875,83.0078125
-76.66015625,166.9921875,-21.97265625,-12.20703125
-456.0546875,-1000.0,-1000.0,-126.46484375
11.71875,-1000.0,-561.5234375,-115.234375
664.0625,116.2109375,754.39453125,3.41796875
736.328125,999.51171875,999.51171875,50.78125
126.46484375,763.671875,297.8515625,-16.11328125
-391.11328125,-753.41796875,-1000.0,-97.16796875
-13.18359375,-816.40625,-471.19140625,-27.34375
688.96484375,778.3203125,871.09375,77.63671875
738.28125,954.58984375,999.51171875,64.94140625
209.9609375,999.51171875,552.734375,-14.6484375
-338.37890625,109.86328125,-956.0546875,-80.56640625
-112.79296875,-558.10546875,-704.1015625,-25.87890625
614.74609375,925.78125,748.046875,84.9609375
768.5546875,999.51171875,999.51171875,108.88671875
273.4375,908.203125,831.0546875,15.625
-291.50390625,980.46875,-553.22265625,-89.35546875
-172.8515625,966.30859375,-970.21484375,-81.0546875
492.67578125,966.30859375,520.5078125,14.16015625
757.32421875,966.30859375,999.51171875,78.61328125
374.51171875,966.30859375,978.515625,10.25390625
-221.19140625,966.30859375,-283.203125,-72.75390625
-195.3125,966.30859375,-1000.0,-39.0625
459.9609375,965.8203125,522.94921875,39.55078125
772.4609375,965.8203125,999.51171875,74.70703125
444.82421875,966.30859375,999.51171875,27.34375
-193.84765625,965.8203125,90.8203125,-67.87109375
-306.640625,966.30859375,-1000.0,-73.73046875
307.12890625,966.30859375,170.41015625,24.4140625
675.29296875,966.30859375,999.51171875,52.24609375
392.578125,965.8203125,999.51171875,9.27734375
-248.046875,966.30859375,116.69921875,-55.17578125
-440.91796875,966.30859375,-1000.0,-77.63671875
127.9296875,973.14453125,-170.41015625,-21.484375
574.21875,937.01171875,999.51171875,19.53125
328.125,955.56640625,999.51171875,-21.484375
-324.21875,999.51171875,133.7890625,-109.86328125
-667.48046875,-384.27734375,-1000.0,-181.15234375
-173.33984375,-336.42578125,-338.8671875,-127.9296875
462.40234375,999.51171875,938.96484375,-25.87890625
334.9609375,999.51171875,999.51171875,-86.42578125
-393.5546875,588.8671875,169.921875,-232.421875
-793.9453125,-944.82421875,-1000.0,-274.4140625
-351.07421875,-835.44921875,-739.74609375,-188.4765625
315.91796875,610.3515625,611.328125,-98.6328125
378.41796875,999.51171875,999.51171875,-108.88671875
-330.078125,359.375,143.06640625,-200.68359375
-806.15234375,-917.48046875,-1000.0,-212.40234375
-445.80078125,-1000.0,-986.328125,-147.4609375
224.609375,-56.15234375,228.02734375,-85.9375
453.61328125,999.51171875,999.51171875,-46.875
-176.7578125,814.94140625,142.08984375,-109.375
-753.41796875,-484.375,-1000.0,-172.8515625
-525.87890625,-1000.0,-1000.0,-100.5859375
180.17578125,-210.44921875,-146.97265625,20.01953125
529.296875,999.51171875,999.51171875,41.9921875
-118.1640625,343.26171875,156.73828125,-36.62109375
-774.4140625,-961.42578125,-1000.0,-104.00390625
-549.31640625,-1000.0,-1000.0,-61.03515625
146.484375,-306.640625,-255.859375,8.30078125
543.9453125,999.51171875,999.51171875,31.25
-9.765625,460.9375,209.9609375,-59.08203125
-708.984375,-896.97265625,-1000.0,-156.25
-575.68359375,-1000.0,-1000.0,-107.421875
69.82421875,-555.6640625,-296.38671875,4.8828125
544.43359375,999.51171875,999.51171875,78.125
93.75,521.484375,413.0859375,-2.9296875
-684.5703125,-920.8984375,-930.17578125,-110.83984375
-670.8984375,-1000.0,-1000.0,-89.84375
-33.203125,-759.27734375,-266.6015625,-10.25390625
497.0703125,776.85546875,999.51171875,72.265625
156.73828125,704.58984375,795.41015625,39.0625
-643.06640625,-867.67578125,-541.9921875,-106.93359375
-739.2578125,-1000.0,-1000.0,-122.0703125
-138.671875,-1000.0,-273.4375,-36.1328125
439.94140625,49.31640625,969.23828125,38.57421875
246.09375,974.12109375,999.51171875,20.5078125
-553.7109375,-584.47265625,-132.32421875,-119.140625
-758.30078125,-1000.0,-1000.0,-50.78125
-244.140625,-1000.0,-347.65625,-328.125
310.05859375,-264.16015625,910.64453125,-616.2109375
271.97265625,915.0390625,999.51171875,-330.56640625
-491.69921875,-524.90234375,137.6953125,-265.625
-839.84375,-1000.0,-1000.0,-240.234375
-312.01171875,-1000.0,-322.265625,-129.39453125
351.07421875,-505.37109375,943.84765625,38.0859375
339.84375,961.9140625,999.51171875,-73.73046875
-443.84765625,-233.3984375,215.8203125,-391.11328125
-878.90625,-1000.0,-1000.0,-300.78125
-432.6171875,-1000.0,-756.34765625,-128.41796875
233.88671875,-794.43359375,599.12109375,-59.08203125
383.30078125,833.0078125,999.51171875,-20.01953125
-298.828125,228.515625,119.62890625,-95.21484375
-805.17578125,-1000.0,-1000.0,-132.32421875
-478.515625,-996.09375,-1000.0,-29.296875
151.85546875,-965.8203125,-184.5703125,77.63671875
450.68359375,557.6171875,999.51171875,99.609375
-201.66015625,289.0625,81.0546875,20.01953125
-794.921875,-1000.0,-1000.0,-58.59375
-530.76171875,-1000.0,-1000.0,-12.6953125
161.1328125,-257.32421875,-259.765625,104.00390625
535.64453125,999.51171875,999.51171875,168.9453125
-92.7734375,169.921875,133.7890625,72.75390625
-751.46484375,-1000.0,-1000.0,-9.765625
-566.40625,-911.62109375,-1000.0,-41.50390625
13.671875,-1000.0,-390.625,-257.32421875
484.86328125,-55.6640625,999.51171875,-192.87109375
55.17578125,359.86328125,203.61328125,-86.42578125
-701.66015625,-1000.0,-1000.0,-110.83984375
-608.3984375,-1000.0,-1000.0,-125.48828125
-34.66796875,-1000.0,-451.171875,-189.453125
518.06640625,458.49609375,999.51171875,-16.6015625
143.06640625,632.32421875,386.23046875,27.34375
-689.94140625,-993.1640625,-979.00390625,-59.5703125
-673.33984375,-958.984375,-1000.0,-29.78515625
-131.8359375,-1000.0,-872.55859375,48.33984375
430.6640625,-110.83984375,653.80859375,144.53125
197.75390625,579.1015625,351.5625,106.4453125
-624.51171875,-942.3828125,-1000.0,-4.39453125
-675.78125,-992.1875,-924.31640625,-6.34765625
-200.1953125,-1000.0,-1000.0,29.78515625
387.20703125,-150.390625,-49.8046875,105.46875
291.50390625,768.5546875,280.76171875,100.5859375
-530.2734375,-750.48828125,-1000.0,-11.71875
-681.640625,-1000.0,-937.01171875,-41.015625
-234.86328125,-1000.0,-1000.0,51.26953125
368.65234375,-206.54296875,-127.9296875,111.81640625
367.1875,972.65625,421.38671875,83.984375
-440.91796875,-484.86328125,-1000.0,-130.859375
-777.83203125,-1000.0,-982.91015625,-776.85546875
-364.2578125,-1000.0,-1000.0,-770.01953125
346.6796875,-542.96875,-194.3359375,-230.46875
516.6015625,999.51171875,999.51171875,-105.95703125
-271.484375,-8.30078125,-148.4375,-183.10546875
-718.26171875,-1000.0,-1000.0,-208.49609375
-301.26953125,-1000.0,-1000.0,-122.0703125
326.171875,-639.6484375,50.78125,39.55078125
554.19921875,959.9609375,999.51171875,105.46875
-140.13671875,98.6328125,144.53125,65.4296875
-722.16796875,-1000.0,-1000.0,6.34765625
-417.48046875,-1000.0,-1000.0,-0.9765625
233.3984375,-702.63671875,26.3671875,107.421875
543.45703125,918.45703125,999.51171875,158.203125
-65.91796875,242.1875,446.2890625,33.69140625
-710.9375,-1000.0,-1000.0,-50.29296875
-461.9140625,-986.328125,-812.5,5.859375
222.65625,-999.51171875,657.71484375,115.72265625
564.453125,511.71875,999.51171875,169.43359375
87.890625,354.4921875,918.45703125,87.890625
-559.5703125,-1000.0,896.97265625,-4.8828125
-438.4765625,-921.38671875,888.18359375,13.18359375
120.60546875,-1000.0,981.4453125,127.44140625
495.1171875,18.5546875,962.40234375,167.48046875
148.4375,484.375,965.8203125,81.54296875
-499.0234375,-962.890625,965.8203125,-19.53125
-428.7109375,-1000.0,966.30859375,-35.64453125
128.41796875,-828.125,966.30859375,39.0625
541.015625,495.1171875,965.8203125,148.4375
295.8984375,999.51171875,965.8203125,119.62890625
-360.3515625,-146.484375,966.30859375,-102.5390625
-441.40625,-1000.0,966.30859375,-86.9140625
48.828125,-978.515625,974.609375,-553.7109375
484.86328125,196.2890625,923.828125,-936.5234375
383.7890625,999.51171875,999.51171875,-581.0546875
-240.234375,184.5703125,927.734375,-513.671875
-524.90234375,-1000.0,-368.1640625,-508.7890625
62.01171875,-213.8671875,90.33203125,-396.97265625
672.8515625,983.3984375,999.51171875,-301.7578125
481.93359375,999.51171875,999.51171875,-510.7421875
-217.28515625,594.23828125,74.21875,-653.80859375
-535.64453125,-1000.0,-1000.0,-438.96484375
-23.92578125,-268.06640625,-1000.0,-285.15625
613.28125,999.51171875,294.921875,-277.34375
569.3359375,869.140625,998.53515625,-262.20703125
-103.02734375,999.51171875,-520.01953125,-210.44921875
-487.79296875,25.87890625,-1000.0,-120.1171875
-150.390625,-364.2578125,-1000.0,-36.1328125
515.13671875,999.51171875,-195.80078125,78.125
593.26171875,942.3828125,999.51171875,-40.0390625
-126.46484375,999.51171875,29.78515625,-558.10546875
-605.46875,-150.390625,-1000.0,-526.3671875
-305.6640625,-983.88671875,-1000.0,-551.26953125
343.75,535.15625,53.22265625,-1000.0
567.3828125,999.51171875,999.51171875,-1000.0
-39.55078125,886.71875,185.546875,-985.83984375
-614.2578125,-330.56640625,-1000.0,-1000.0
-385.25390625,-1000.0,-1000.0,-1000.0
312.5,36.62109375,-112.79296875,-1000.0
631.34765625,999.51171875,999.51171875,-990.72265625
54.19921875,999.51171875,266.11328125,-1000.0
-583.49609375,183.59375,-980.95703125,-931.15234375
-428.22265625,-1000.0,-1000.0,-777.83203125
230.95703125,-28.80859375,-247.0703125,-858.88671875
583.0078125,999.51171875,999.51171875,-890.13671875
96.6796875,999.51171875,230.46875,-818.359375
-588.37890625,253.90625,-999.51171875,-765.625
-553.22265625,-1000.0,-1000.0,-714.84375
53.22265625,-435.05859375,-491.69921875,-679.6875
520.99609375,999.51171875,999.51171875,-649.4140625
115.72265625,864.74609375,334.9609375,-593.26171875
-637.6953125,-500.9765625,-992.1875,-559.08203125
-666.015625,-1000.0,-1000.0,-541.50390625
-116.69921875,-870.1171875,-534.66796875,-520.99609375
390.625,462.40234375,958.0078125,-485.3515625
120.1171875,999.51171875,747.0703125,-453.125
-671.38671875,-341.796875,-666.015625,-408.69140625
-824.21875,-1000.0,-1000.0,-366.69921875
-290.0390625,-1000.0,-559.5703125,-343.75
278.80859375,255.859375,875.9765625,-307.6171875
98.6328125,524.90234375,877.44140625,-279.296875
-682.12890625,-1000.0,-535.15625,-275.87890625
-879.39453125,-1000.0,-1000.0,-271.97265625
-425.29296875,-955.56640625,-879.39453125,-287.109375
132.8125,-1000.0,461.42578125,-266.6015625
80.078125,-1000.0,999.51171875,-258.30078125
-611.328125,-1000.0,-439.94140625,-266.6015625
-878.90625,-1000.0,-1000.0,-248.046875
-520.01953125,-1000.0,-1000.0,-251.46484375
67.87109375,-1000.0,-35.64453125,-237.3046875
174.8046875,-1000.0,999.51171875,-202.63671875
-520.01953125,-1000.0,-277.83203125,-194.3359375
-912.109375,-1000.0,-1000.0,-188.4765625
-581.54296875,-1000.0,-1000.0,-181.640625
19.53125,-1000.0,-222.16796875,-116.69921875
204.58984375,-1000.0,999.51171875,-112.79296875
-446.2890625,-1000.0,-180.6640625,-160.15625
-897.94921875,-1000.0,-1000.0,-147.4609375
-612.79296875,-1000.0,-1000.0,-146.484375
-17.08984375,-1000.0,-274.90234375,-88.8671875
264.16015625,-1000.0,999.51171875,-14.16015625
-329.58984375,-1000.0,79.58984375,-0.48828125
-848.14453125,-1000.0,-1000.0,111.328125
-635.25390625,-1000.0,-1000.0,103.515625
-79.1015625,-1000.0,-344.23828125,-82.03125
272.94921875,-1000.0,999.51171875,-124.0234375
-254.39453125,-1000.0,128.41796875,-153.3203125
-847.16796875,-1000.0,-1000.0,-119.62890625
-676.26953125,-1000.0,-1000.0,-116.2109375
-145.5078125,-1000.0,-835.9375,-124.0234375
269.53125,-1000.0,709.9609375,3.90625
-123.046875,-1000.0,221.6796875,14.16015625
-778.80859375,-1000.0,-1000.0,-96.19140625
-667.96875,-1000.0,-983.88671875,-63.96484375
-144.04296875,-1000.0,-992.67578125,-87.890625
303.7109375,-1000.0,475.09765625,42.96875
13.18359375,-1000.0,288.0859375,191.89453125
-634.27734375,-1000.0,-1000.0,208.49609375
-644.53125,-1000.0,-951.171875,83.0078125
-195.3125,-1000.0,-1000.0,-73.73046875
289.0625,-1000.0,217.28515625,-178.7109375
61.03515625,-1000.0,333.49609375,-597.16796875
-607.421875,-1000.0,-1000.0,-679.6875
-634.765625,-1000.0,-933.10546875,-283.203125
-189.453125,-1000.0,-1000.0,-176.26953125
328.125,-1000.0,-5.859375,-186.03515625
270.01953125,-1000.0,475.5859375,-149.4140625
-419.43359375,-1000.0,-1000.0,-123.53515625
-598.6328125,-984.86328125,-965.33203125,-119.140625
-187.5,-1000.0,-1000.0,-120.60546875
372.0703125,-1000.0,-104.98046875,-108.88671875
424.8046875,-405.76171875,653.80859375,-92.28515625
-271.97265625,-587.40234375,-863.76953125,-63.4765625
-572.265625,-1000.0,-1000.0,-32.71484375
-207.51953125,-1000.0,-1000.0,-51.26953125
409.1796875,-282.71484375,-212.40234375,-59.08203125
581.54296875,999.51171875,999.51171875,-48.828125
-136.71875,90.8203125,-357.91015625,-88.37890625
-554.6875,-1000.0,-1000.0,13.18359375
-236.328125,-1000.0,-1000.0,50.78125
382.32421875,-454.1015625,-267.578125,-74.21875
652.83203125,999.51171875,999.51171875,-60.546875
-18.5546875,241.69921875,-34.1796875,93.26171875
-550.29296875,-1000.0,-1000.0,163.57421875
-295.41015625,-1000.0,-1000.0,27.83203125
345.21484375,-264.16015625,-306.15234375,-27.34375
680.6640625,999.51171875,999.51171875,-36.62109375
97.16796875,404.78515625,102.5390625,-61.03515625
-513.18359375,-942.87109375,-1000.0,-75.1953125
-338.8671875,-1000.0,-1000.0,55.17578125
312.98828125,-196.77734375,-340.33203125,235.3515625
687.5,999.51171875,999.51171875,51.26953125
143.5546875,746.09375,189.453125,-98.6328125
-531.73828125,-581.0546875,-1000.0,-77.63671875
-437.5,-1000.0,-1000.0,-49.8046875
126.46484375,-547.8515625,-576.66015625,-36.1328125
605.95703125,835.9375,999.51171875,-66.89453125
223.14453125,999.51171875,317.3828125,-73.2421875
-517.08984375,-241.69921875,-1000.0,-75.68359375
-508.30078125,-1000.0,-1000.0,-134.765625
68.84765625,-399.4140625,-520.01953125,-145.99609375
576.66015625,873.046875,912.109375,-133.30078125
286.62109375,999.51171875,934.5703125,-666.015625
-411.62109375,205.078125,-419.921875,-782.2265625
-533.69140625,-1000.0,-1000.0,-277.34375
39.0625,-256.8359375,-218.26171875,-314.94140625
563.4765625,999.51171875,953.61328125,-453.125
342.7734375,999.51171875,999.51171875,-595.703125
-352.5390625,18.5546875,139.16015625,-919.43359375
-624.51171875,-1000.0,-1000.0,-998.046875
-27.83203125,-416.9921875,-155.76171875,-986.328125
601.07421875,868.1640625,994.62890625,-613.28125
485.3515625,999.51171875,999.51171875,-234.86328125
-159.66796875,575.1953125,499.0234375,-653.3203125
-551.7578125,-1000.0,-1000.0,-763.671875
-6.8359375,-273.92578125,-158.203125,-308.10546875
624.0234375,999.51171875,999.51171875,-177.24609375
526.85546875,934.5703125,944.3359375,-122.0703125
27.83203125,938.96484375,959.9609375,-85.44921875
-367.1875,972.65625,-474.609375,-85.44921875
-4.39453125,965.8203125,-235.3515625,52.24609375
603.02734375,965.8203125,999.51171875,172.36328125
631.8359375,965.8203125,912.109375,441.40625
198.73046875,965.8203125,999.51171875,734.86328125
-194.82421875,965.8203125,600.5859375,808.10546875
-44.921875,965.8203125,512.6953125,330.56640625
453.61328125,965.8203125,999.51171875,62.98828125
589.84375,965.8203125,915.0390625,241.69921875
152.83203125,966.30859375,999.51171875,10.25390625
-322.265625,965.8203125,-172.8515625,-169.921875
-129.39453125,966.30859375,-563.96484375,-195.3125
492.67578125,965.8203125,924.31640625,-173.828125
663.57421875,965.8203125,999.51171875,-136.23046875
258.7890625,966.30859375,920.41015625,-61.03515625
-274.90234375,966.30859375,-377.9296875,-94.23828125
-217.7734375,966.30859375,-1000.0,-133.30078125
395.5078125,966.30859375,368.65234375,-94.7265625
687.01171875,966.30859375,999.51171875,-69.82421875
346.6796875,966.30859375,981.4453125,-88.37890625
-189.94140625,966.30859375,-115.72265625,-48.828125
-246.09375,966.30859375,-1000.0,46.875
303.7109375,966.30859375,-6.34765625,-2.44140625
679.6875,965.8203125,999.51171875,23.92578125
401.3671875,966.30859375,999.51171875,299.8046875
-216.796875,966.30859375,72.265625,318.359375
-367.67578125,966.30859375,-1000.0,219.23828125
190.4296875,965.8203125,-104.98046875,277.83203125
594.23828125,965.8203125,999.51171875,303.7109375
343.75,965.8203125,999.51171875,137.20703125
-271.484375,966.30859375,155.76171875,105.95703125
-456.0546875,966.30859375,-1000.0,273.92578125
45.8984375,965.8203125,-154.78515625,170.8984375
421.38671875,966.30859375,999.51171875,-18.5546875
243.65234375,965.8203125,999.51171875,-25.87890625
-316.89453125,965.8203125,240.234375,-181.640625
-586.42578125,966.30859375,-1000.0,-284.1796875
-132.32421875,966.30859375,-207.03125,-247.0703125
344.7265625,966.30859375,991.2109375,-242.67578125
257.8125,966.30859375,999.51171875,-236.81640625
-266.11328125,965.8203125,410.15625,-209.9609375
-626.953125,966.30859375,-1000.0,-186.03515625
-203.125,965.8203125,-216.796875,-161.1328125
324.70703125,965.8203125,999.51171875,-130.859375
254.39453125,965.8203125,999.51171875,-155.76171875
-239.2578125,965.8203125,713.8671875,-154.78515625
-651.85546875,966.30859375,-867.1875,-104.00390625
-351.5625,966.30859375,-366.69921875,-83.0078125
202.63671875,965.8203125,999.51171875,-95.703125
222.65625,965.8203125,999.51171875,-85.9375
-212.890625,965.8203125,792.48046875,-32.71484375
-645.99609375,966.30859375,-704.1015625,19.53125
-417.96875,966.30859375,-794.43359375,26.3671875
161.62109375,966.30859375,694.82421875,25.87890625
302.24609375,966.30859375,999.51171875,165.0390625
-98.6328125,965.8203125,727.05078125,407.71484375
-573.2421875,966.30859375,-603.02734375,609.375
-497.0703125,966.30859375,-1000.0,297.36328125
65.91796875,980.95703125,150.390625,210.44921875
317.87109375,893.5546875,999.51171875,300.78125
-70.3125,999.51171875,790.52734375,77.1484375
-580.56640625,639.6484375,-500.9765625,196.2890625
-584.9609375,-977.05078125,-1000.0,373.046875
81.0546875,-163.57421875,22.94921875,672.36328125
408.203125,999.51171875,999.51171875,626.46484375
-5.859375,999.51171875,994.62890625,271.97265625
-570.3125,228.02734375,-123.046875,292.96875
-639.16015625,-1000.0,-1000.0,211.42578125
-39.55078125,-174.31640625,-79.58984375,-202.1484375
333.0078125,999.51171875,999.51171875,-309.08203125
96.6796875,999.51171875,999.51171875,-147.94921875
-482.91015625,227.05078125,29.296875,-128.90625
-678.22265625,-1000.0,-1000.0,-39.55078125
-77.63671875,-245.1171875,-182.6171875,15.625
382.8125,999.51171875,985.3515625,-35.15625
224.609375,949.70703125,999.51171875,197.265625
-323.2421875,935.546875,224.609375,236.328125
-593.26171875,974.12109375,-1000.0,237.3046875
-83.0078125,980.95703125,-126.46484375,504.8828125
385.25390625,895.5078125,999.51171875,667.48046875
208.0078125,999.51171875,999.51171875,728.515625
-373.53515625,681.640625,499.0234375,308.59375
-722.65625,-953.61328125,-1000.0,140.13671875
-246.09375,-626.953125,-182.6171875,218.26171875
318.359375,921.875,999.51171875,-12.20703125
215.33203125,934.5703125,951.171875,41.015625
-208.984375,999.51171875,937.5,207.51953125
-614.74609375,-13.18359375,-544.43359375,272.94921875
-312.01171875,-905.2734375,-327.63671875,368.65234375
256.8359375,656.25,999.51171875,-23.92578125
186.03515625,999.51171875,999.51171875,-449.70703125
-229.00390625,860.3515625,525.87890625,-287.59765625
-581.54296875,999.51171875,-836.9140625,-337.40234375
-444.3359375,-182.6171875,-1000.0,-446.2890625
77.63671875,-349.609375,47.36328125,-485.83984375
329.1015625,999.51171875,999.51171875,-380.859375
-155.76171875,999.51171875,155.76171875,-136.71875
-649.4140625,-86.9140625,-1000.0,43.9453125
-473.14453125,-1000.0,-1000.0,316.89453125
95.21484375,23.4375,-258.30078125,583.49609375
333.0078125,999.51171875,999.51171875,717.7734375
-148.92578125,989.2578125,179.19921875,678.22265625
-681.640625,-104.98046875,-1000.0,632.8125
-639.6484375,-1000.0,-1000.0,282.71484375
-199.21875,-789.55078125,-423.828125,-236.81640625
228.02734375,622.55859375,999.51171875,-144.53125
-48.33984375,999.51171875,241.69921875,105.95703125
-659.1796875,-423.33984375,-1000.0,234.375
-607.91015625,-1000.0,-1000.0,346.6796875
-172.36328125,-1000.0,-974.609375,468.26171875
275.87890625,-22.94921875,492.67578125,677.734375
65.91796875,842.28515625,297.8515625,728.02734375
-621.58203125,-701.171875,-1000.0,652.83203125
-674.8046875,-1000.0,-938.96484375,536.62109375
-313.96484375,-1000.0,-1000.0,536.1328125
193.359375,122.55859375,125.9765625,725.5859375
-42.48046875,527.34375,325.68359375,375.0
-804.6875,-1000.0,-1000.0,66.40625
-789.55078125,-1000.0,-936.03515625,321.77734375
-402.34375,-952.63671875,-1000.0,141.11328125
18.5546875,-1000.0,-31.73828125,52.734375
-42.96875,-1000.0,466.30859375,394.04296875
-704.1015625,-1000.0,-1000.0,69.82421875
-916.9921875,-1000.0,-970.703125,-496.58203125
-517.578125,-1000.0,-1000.0,-57.6171875
-67.3828125,-1000.0,-64.94140625,52.734375
-186.03515625,-1000.0,692.87109375,-504.8828125
-760.7421875,-1000.0,-847.65625,-581.54296875
-904.296875,-1000.0,-1000.0,-187.5
-590.33203125,-1000.0,-1000.0,-229.00390625
-226.5625,-1000.0,-774.4140625,-281.25
-211.9140625,-1000.0,-498.53515625,185.546875
-682.12890625,-1000.0,-995.60546875,211.9140625
-920.41015625,-1000.0,-1000.0,173.828125
-627.9296875,-1000.0,-978.515625,316.89453125
-245.60546875,-1000.0,-1000.0,416.015625
-224.12109375,-1000.0,-1000.0,467.28515625
-583.0078125,-1000.0,-1000.0,423.33984375
-934.08203125,-1000.0,-1000.0,346.19140625
-739.2578125,-1000.0,-1000.0,393.06640625
-295.8984375,-1000.0,-1000.0,509.27734375
-241.2109375,-1000.0,-1000.0,544.921875
-524.90234375,-1000.0,-1000.0,458.0078125
-811.5234375,-1000.0,-933.59375,354.98046875
-721.19140625,-1000.0,-1000.0,413.0859375
-328.125,-1000.0,-691.89453125,538.57421875
-69.3359375,-1000.0,917.96875,616.69921875
-430.17578125,-1000.0,238.28125,451.171875
-871.58203125,-1000.0,-1000.0,231.4453125
-698.2421875,-1000.0,-1000.0,268.5546875
-128.41796875,-1000.0,-250.9765625,352.5390625
138.18359375,-1000.0,948.2421875,247.0703125
-111.328125,-1000.0,999.51171875,154.296875
-527.83203125,-1000.0,-43.45703125,148.4375
-533.203125,-1000.0,-831.0546875,200.68359375
28.3203125,-1000.0,699.70703125,358.3984375
208.984375,-1000.0,999.51171875,423.828125
-16.11328125,-1000.0,908.69140625,370.1171875
-316.89453125,-996.58203125,962.890625,295.41015625
-308.59375,-944.3359375,901.3671875,194.3359375
92.28515625,-1000.0,958.49609375,163.57421875
418.9453125,-149.4140625,972.16796875,251.46484375
298.33984375,999.51171875,962.40234375,224.12109375
-66.40625,939.94140625,966.796875,99.609375
-109.375,944.3359375,966.30859375,102.05078125
246.09375,971.19140625,966.796875,196.77734375
473.6328125,965.8203125,958.49609375,270.99609375
358.88671875,965.8203125,970.21484375,272.4609375
68.84765625,965.8203125,981.93359375,182.6171875
-95.21484375,966.30859375,724.609375,106.93359375
233.3984375,966.30859375,818.84765625,187.5
555.17578125,966.30859375,996.58203125,281.25
457.51953125,966.30859375,921.875,213.8671875
131.8359375,965.8203125,999.51171875,100.09765625
-145.5078125,965.8203125,6.8359375,82.03125
158.203125,966.30859375,-19.04296875,185.546875
563.4765625,966.30859375,999.51171875,226.5625
471.19140625,965.8203125,999.51171875,182.6171875
156.73828125,966.30859375,806.15234375,89.35546875
-190.4296875,966.30859375,-755.859375,-42.48046875
66.40625,966.30859375,-612.79296875,21.484375
572.265625,966.30859375,868.65234375,156.25
529.296875,966.30859375,999.51171875,176.7578125
154.78515625,965.8203125,790.0390625,84.9609375
-223.6328125,966.30859375,-715.33203125,19.53125
-37.109375,966.30859375,-651.3671875,56.15234375
461.42578125,966.30859375,898.4375,164.0625
472.65625,966.30859375,948.2421875,215.8203125
182.6171875,966.30859375,999.51171875,121.09375
-209.9609375,966.30859375,-76.66015625,25.87890625
-164.55078125,966.30859375,-835.9375,58.59375
338.37890625,965.8203125,674.8046875,177.24609375
440.4296875,965.8203125,999.51171875,258.30078125
172.36328125,966.30859375,939.94140625,133.30078125
-207.03125,966.30859375,-198.2421875,-58.59375
-227.05078125,966.30859375,-1000.0,-37.109375
268.5546875,966.30859375,-17.08984375,91.30859375
456.0546875,965.8203125,999.51171875,179.19921875
213.37890625,966.30859375,953.125,101.07421875
-200.68359375,966.30859375,-197.75390625,-31.25
-282.2265625,966.30859375,-1000.0,-51.7578125
238.28125,966.30859375,-228.515625,30.76171875
505.859375,973.6328125,994.62890625,123.046875
237.3046875,896.97265625,999.51171875,117.1875
-181.640625,999.51171875,-82.51953125,1.46484375
-362.79296875,225.5859375,-1000.0,-42.48046875
91.796875,-204.58984375,-373.046875,82.03125
454.58984375,999.51171875,921.38671875,174.8046875
204.1015625,990.72265625,999.51171875,148.4375
-214.84375,927.734375,7.8125,54.19921875
-413.57421875,973.14453125,-1000.0,-22.94921875
-0.9765625,977.05078125,-512.20703125,72.75390625
415.52734375,922.36328125,810.546875,156.73828125
297.8515625,978.515625,999.51171875,33.69140625
-131.34765625,981.93359375,151.3671875,-118.65234375
-403.80859375,-564.94140625,-1000.0,-134.27734375
-22.4609375,-636.71875,-672.36328125,-43.45703125
506.34765625,967.7734375,674.31640625,77.1484375
429.6875,922.8515625,999.51171875,98.6328125
-9.27734375,999.51171875,258.30078125,5.859375
-335.44921875,38.57421875,-1000.0,-86.42578125
-39.0625,-675.29296875,-699.70703125,-32.71484375
500.0,863.28125,654.296875,102.05078125
464.35546875,972.65625,999.51171875,130.37109375
88.37890625,999.51171875,585.44921875,39.55078125
-280.2734375,4.39453125,-903.80859375,-62.01171875
-52.734375,-671.875,-746.58203125,-82.51953125
483.3984375,847.65625,691.40625,89.35546875
475.5859375,999.51171875,999.51171875,-90.33203125
94.7265625,950.68359375,553.22265625,-696.77734375
-296.38671875,-172.8515625,-754.39453125,-642.08984375
-163.57421875,-1000.0,-1000.0,-350.09765625
381.8359375,-155.2734375,-87.890625,-162.59765625
583.984375,999.51171875,999.51171875,-2.44140625
222.65625,899.4140625,622.55859375,-24.90234375
-164.0625,999.51171875,-727.5390625,-99.12109375
-98.14453125,-57.6171875,-1000.0,-62.01171875
342.28515625,-307.6171875,-105.95703125,31.73828125
493.65234375,999.51171875,999.51171875,103.02734375
191.40625,999.51171875,976.07421875,84.47265625
-288.0859375,209.9609375,-198.73046875,19.53125
-394.04296875,-1000.0,-1000.0,31.73828125
174.31640625,-255.859375,-90.33203125,178.7109375
376.46484375,989.2578125,999.51171875,-484.86328125
93.75,999.51171875,999.51171875,-1000.0
-273.92578125,166.9921875,79.58984375,-954.58984375
-487.3046875,-1000.0,-1000.0,-1000.0
27.34375,-360.3515625,-176.7578125,-900.390625
429.6875,922.36328125,999.51171875,-460.44921875
218.26171875,999.51171875,999.51171875,-148.92578125
-211.9140625,388.671875,149.90234375,-58.10546875
-432.6171875,-1000.0,-1000.0,47.36328125
17.08984375,-540.0390625,-273.92578125,227.5390625
391.11328125,858.3984375,965.8203125,383.7890625
222.65625,999.51171875,999.51171875,387.20703125
-256.34765625,491.2109375,218.75,330.56640625
-545.8984375,-996.09375,-1000.0,313.96484375
-128.41796875,-812.5,-440.4296875,393.5546875
316.40625,613.76953125,885.7421875,545.41015625
240.72265625,999.51171875,999.51171875,544.43359375
-243.1640625,362.79296875,188.96484375,327.63671875
-561.03515625,-920.41015625,-1000.0,186.5234375
-207.51953125,-1000.0,-925.78125,407.2265625
177.24609375,-39.0625,344.7265625,81.0546875
134.765625,999.51171875,999.51171875,-721.19140625
-261.71875,143.5546875,152.34375,-959.47265625
-528.3203125,-1000.0,-1000.0,-979.98046875
-258.7890625,-1000.0,-1000.0,-1000.0
231.4453125,-192.87109375,97.65625,-673.828125
372.55859375,953.125,999.51171875,-181.15234375
45.8984375,999.51171875,329.1015625,-73.2421875
-326.66015625,82.51953125,-1000.0,25.390625
-210.9375,-798.33984375,-909.66796875,185.546875
314.453125,690.4296875,431.640625,455.56640625
332.51953125,999.51171875,999.51171875,324.70703125
7.32421875,999.51171875,961.9140625,-13.18359375
-339.84375,64.453125,-340.33203125,119.62890625
-300.29296875,-1000.0,-915.0390625,256.34765625
225.5859375,-51.26953125,618.1640625,366.69921875
338.8671875,999.51171875,999.51171875,544.921875
-35.15625,393.06640625,999.51171875,-186.5234375
-492.67578125,-913.0859375,-100.09765625,-1000.0
-446.77734375,-1000.0,-1000.0,-622.55859375
136.71875,-244.62890625,190.91796875,-182.6171875
391.11328125,999.51171875,999.51171875,159.66796875
62.5,543.45703125,999.51171875,-365.72265625
-371.09375,-825.68359375,16.6015625,-779.78515625
-382.8125,-1000.0,-1000.0,-192.3828125
130.859375,-290.0390625,-152.83203125,335.9375
343.26171875,913.0859375,999.51171875,168.45703125
56.640625,999.51171875,999.51171875,-828.61328125
-286.1328125,208.49609375,35.64453125,-599.609375
-404.78515625,-1000.0,-1000.0,-29.296875
61.03515625,-658.69140625,-213.37890625,177.24609375
379.39453125,701.66015625,978.515625,270.01953125
216.30859375,999.51171875,999.51171875,229.4921875
-152.83203125,498.53515625,208.984375,217.7734375
-496.58203125,-798.33984375,-1000.0,-590.8203125
-177.24609375,-1000.0,-429.19921875,-1000.0
306.15234375,-199.70703125,892.578125,-680.17578125
269.04296875,999.51171875,999.51171875,-156.73828125
-86.9140625,969.7265625,214.84375,3.41796875
-354.98046875,-302.734375,-1000.0,13.671875
-149.4140625,-1000.0,-455.078125,-491.69921875
215.33203125,-82.51953125,868.65234375,-1000.0
209.9609375,999.51171875,999.51171875,-602.05078125
-169.921875,294.43359375,352.05078125,-529.78515625
-505.37109375,-969.23828125,-1000.0,-1000.0
-206.0546875,-1000.0,-512.20703125,-990.72265625
251.46484375,-213.37890625,843.75,-1000.0
247.55859375,983.3984375,999.51171875,-966.30859375
-43.9453125,999.51171875,344.7265625,-636.71875
-399.90234375,-31.25,-943.84765625,-799.8046875
-341.30859375,-1000.0,-1000.0,-1000.0
120.1171875,-172.8515625,15.13671875,-986.81640625
234.86328125,975.5859375,999.51171875,-985.3515625
-80.56640625,999.51171875,248.046875,-998.046875
-395.01953125,75.68359375,-978.515625,-940.4296875
-258.30078125,-978.02734375,-1000.0,-248.53515625
296.875,499.51171875,-225.5859375,651.3671875
445.3125,999.51171875,999.51171875,963.8671875
102.05078125,999.51171875,155.76171875,958.49609375
-275.87890625,286.62109375,-1000.0,914.0625
-224.609375,-1000.0,-993.65234375,999.51171875
108.3984375,-193.84765625,-992.67578125,685.546875
237.79296875,999.51171875,289.55078125,-211.9140625
127.9296875,999.51171875,27.83203125,344.7265625
-164.0625,230.46875,-1000.0,999.51171875
-237.79296875,-1000.0,-960.9375,943.84765625
22.4609375,-625.48828125,-987.79296875,956.54296875
150.87890625,760.7421875,-1000.0,969.23828125
8.30078125,999.51171875,-1000.0,966.30859375
-288.57421875,125.0,-1000.0,965.8203125
-401.85546875,-1000.0,-1000.0,965.8203125
-104.4921875,-983.3984375,-1000.0,966.30859375
144.04296875,-973.14453125,-1000.0,966.30859375
104.98046875,-1000.0,-1000.0,966.30859375
-167.48046875,-1000.0,-1000.0,966.30859375
-298.828125,-1000.0,-1000.0,966.30859375
-13.18359375,-1000.0,-1000.0,965.8203125
187.98828125,-1000.0,-1000.0,966.30859375
101.5625,-1000.0,-1000.0,966.30859375
-72.265625,-1000.0,-1000.0,966.30859375
-133.30078125,-980.46875,-932.12890625,966.30859375
72.265625,-967.28515625,-1000.0,966.30859375
335.9375,-1000.0,-489.2578125,962.40234375
433.10546875,224.609375,207.51953125,975.09765625
107.421875,362.3046875,-877.44140625,930.6640625
-113.28125,-1000.0,-1000.0,880.859375
141.11328125,-1000.0,-1000.0,938.96484375
534.66796875,-262.6953125,-223.6328125,964.35546875
623.046875,999.51171875,999.51171875,974.12109375
149.90234375,491.69921875,24.90234375,885.7421875
-173.828125,-954.1015625,-1000.0,757.8125
113.28125,-1000.0,-1000.0,786.1328125
594.7265625,207.03125,105.46875,895.99609375
657.2265625,999.51171875,999.51171875,931.640625
240.234375,906.25,248.53515625,710.9375
-120.1171875,-312.01171875,-1000.0,453.61328125
47.36328125,-1000.0,-946.2890625,483.88671875
559.08203125,9.27734375,328.61328125,593.26171875
668.9453125,999.51171875,999.51171875,622.0703125
337.40234375,999.51171875,866.69921875,530.2734375
-91.796875,181.15234375,-478.02734375,410.15625
-84.47265625,-1000.0,-982.91015625,446.2890625
447.265625,-109.86328125,480.46875,544.43359375
547.36328125,999.51171875,999.51171875,562.98828125
286.62109375,999.51171875,876.953125,507.32421875
-88.37890625,517.08984375,-286.62109375,357.421875
-171.38671875,-1000.0,-1000.0,279.78515625
352.05078125,-253.41796875,-192.3828125,413.57421875
577.1484375,999.51171875,999.51171875,517.578125
265.625,881.34765625,698.2421875,367.67578125
-100.09765625,999.51171875,-623.53515625,180.17578125
-193.359375,-35.15625,-1000.0,170.41015625
242.67578125,-309.08203125,-392.578125,271.97265625
584.47265625,999.51171875,999.51171875,360.83984375
313.96484375,970.703125,688.96484375,323.73046875
-104.98046875,934.08203125,-686.5234375,225.09765625
-169.921875,973.14453125,-1000.0,224.12109375
171.38671875,980.95703125,-603.515625,300.29296875
402.34375,900.390625,759.765625,297.8515625
284.66796875,999.51171875,999.51171875,197.265625
-80.56640625,743.65234375,-274.90234375,125.0
-317.87109375,-836.9140625,-1000.0,163.0859375
7.8125,-804.19921875,-555.6640625,236.81640625
393.06640625,683.10546875,740.72265625,303.22265625
300.29296875,999.51171875,999.51171875,220.21484375
-107.91015625,599.12109375,157.71484375,86.42578125
-396.97265625,-820.80078125,-1000.0,49.31640625
-35.64453125,-1000.0,-339.35546875,80.078125
398.4375,382.32421875,927.734375,136.23046875
293.45703125,999.51171875,999.51171875,143.5546875
-88.8671875,819.82421875,389.6484375,84.9609375
-409.1796875,-488.76953125,-1000.0,45.41015625
-130.37109375,-1000.0,-397.94921875,65.4296875
326.171875,182.12890625,933.59375,126.953125
262.20703125,999.51171875,999.51171875,185.546875
-87.40234375,940.4296875,531.73828125,-29.296875
-425.29296875,-292.48046875,-934.08203125,-229.00390625
-244.140625,-1000.0,-815.4296875,-50.78125
265.625,146.97265625,575.1953125,78.61328125
340.33203125,999.51171875,999.51171875,142.08984375
-21.97265625,999.51171875,394.53125,95.21484375
-387.20703125,297.36328125,-883.7890625,-35.15625
-358.3984375,-1000.0,-1000.0,-268.5546875
92.7734375,-233.3984375,-105.46875,-671.875
322.265625,999.51171875,999.51171875,-614.2578125
-18.06640625,948.73046875,334.9609375,-679.19921875
-421.875,-264.16015625,-953.61328125,-1000.0
-352.05078125,-1000.0,-1000.0,-1000.0
141.6015625,-326.66015625,-180.17578125,-994.140625
367.67578125,899.4140625,999.51171875,-992.1875
96.19140625,999.51171875,793.45703125,-1000.0
-311.03515625,157.71484375,-534.66796875,-947.265625
-335.44921875,-1000.0,-1000.0,-527.34375
207.03125,183.10546875,-56.640625,48.33984375
420.41015625,999.51171875,999.51171875,354.4921875
185.546875,999.51171875,965.8203125,602.5390625
-297.36328125,442.87109375,-191.89453125,-41.015625
-563.4765625,-1000.0,-1000.0,-1000.0
48.33984375,-258.7890625,-141.11328125,-411.1328125
401.85546875,999.51171875,999.51171875,-87.40234375
90.8203125,999.51171875,999.51171875,-887.6953125
-328.61328125,190.91796875,45.41015625,-1000.0
-497.55859375,-1000.0,-1000.0,-962.890625
-34.1796875,-642.578125,-237.3046875,-1000.0
353.515625,730.95703125,978.515625,-1000.0
171.875,999.51171875,999.51171875,-1000.0
-265.625,236.81640625,145.01953125,-1000.0
-504.8828125,-988.28125,-1000.0,-1000.0
-158.69140625,-1000.0,-455.56640625,-1000.0
265.13671875,21.484375,865.72265625,-1000.0
218.75,999.51171875,999.51171875,-1000.0
-172.36328125,623.046875,164.0625,-1000.0
-456.54296875,-772.94921875,-1000.0,-1000.0
-157.2265625,-1000.0,-712.890625,-1000.0
282.71484375,184.08203125,614.74609375,-1000.0
278.3203125,999.51171875,999.51171875,-1000.0
-92.28515625,999.51171875,216.30859375,-1000.0
-431.640625,231.4453125,-1000.0,-1000.0
-252.9296875,-1000.0,-856.93359375,-1000.0
240.234375,-70.3125,439.453125,-1000.0
313.96484375,999.51171875,999.51171875,-1000.0
-46.38671875,999.51171875,304.19921875,-1000.0
-415.52734375,-81.54296875,-987.79296875,-1000.0
-276.3671875,-1000.0,-1000.0,-1000.0
236.81640625,-182.12890625,146.97265625,-1000.0
360.3515625,994.62890625,999.51171875,-1000.0
35.64453125,999.51171875,355.95703125,-1000.0
-329.58984375,-77.1484375,-941.40625,-1000.0
-236.328125,-1000.0,-1000.0,-1000.0
280.2734375,331.0546875,-39.55078125,-1000.0
408.203125,999.51171875,999.51171875,-994.140625
58.59375,999.51171875,540.0390625,-1000.0
-323.2421875,38.0859375,-795.8984375,-977.5390625
-307.12890625,-1000.0,-1000.0,-786.62109375
185.05859375,-162.59765625,-130.859375,-742.67578125
466.796875,983.88671875,999.51171875,-184.08203125
251.46484375,999.51171875,877.9296875,708.0078125
-224.609375,722.16796875,-379.39453125,496.58203125
-347.16796875,-870.60546875,-1000.0,719.23828125
119.62890625,-279.78515625,-157.71484375,804.19921875
393.06640625,999.51171875,999.51171875,540.52734375
164.0625,878.90625,890.625,972.65625
-258.7890625,999.51171875,-320.3125,955.56640625
-426.26953125,-159.1796875,-1000.0,731.4453125
-65.91796875,-672.8515625,-240.72265625,820.80078125
283.69140625,842.7734375,969.7265625,953.125
154.296875,999.51171875,999.51171875,966.796875
-289.0625,464.84375,36.62109375,962.890625
-558.10546875,-1000.0,-1000.0,968.26171875
-155.2734375,-736.81640625,-366.69921875,966.30859375
256.34765625,781.25,917.48046875,965.8203125
104.4921875,962.40234375,999.51171875,966.30859375
-281.73828125,999.51171875,136.71875,965.8203125
-522.94921875,239.74609375,-1000.0,965.8203125
-301.26953125,-1000.0,-625.0,966.30859375
156.73828125,-33.69140625,715.33203125,966.30859375
177.734375,999.51171875,999.51171875,967.7734375
-266.6015625,390.625,155.76171875,958.49609375
-584.9609375,-907.71484375,-1000.0,978.515625
-368.65234375,-1000.0,-849.12109375,887.6953125
91.30859375,-235.3515625,445.3125,982.91015625
89.84375,999.51171875,999.51171875,182.6171875
-469.7265625,161.1328125,172.36328125,-1000.0
-660.15625,-1000.0,-1000.0,-621.58203125
-331.54296875,-954.58984375,-951.171875,-474.609375
-12.20703125,-1000.0,250.0,-1000.0
126.953125,58.59375,999.51171875,-776.85546875
-61.03515625,999.51171875,316.40625,242.1875
-405.76171875,646.97265625,-972.65625,911.62109375
-412.109375,-923.828125,-1000.0,954.1015625
16.6015625,-262.6953125,49.31640625,953.61328125
214.84375,999.51171875,999.51171875,968.75
-108.3984375,999.51171875,574.70703125,965.8203125
-484.86328125,507.32421875,-789.0625,966.30859375
-477.05078125,-1000.0,-1000.0,966.30859375
-0.48828125,-255.37109375,86.42578125,966.30859375
251.46484375,999.51171875,999.51171875,966.30859375
26.85546875,999.51171875,893.06640625,964.35546875
-392.578125,227.05078125,-332.51953125,969.7265625
-456.54296875,-1000.0,-1000.0,957.51953125
36.62109375,-362.79296875,-20.5078125,943.84765625
282.2265625,938.96484375,999.51171875,947.75390625
85.44921875,999.51171875,967.7734375,950.68359375
-306.15234375,146.484375,-167.96875,999.51171875
-520.99609375,-1000.0,-1000.0,158.203125
-125.48828125,-920.41015625,-200.1953125,-766.11328125
187.98828125,-1000.0,999.51171875,-961.9140625
145.99609375,-244.62890625,999.51171875,-545.8984375
-74.70703125,999.51171875,-61.03515625,145.01953125
-191.40625,950.68359375,-1000.0,621.58203125
211.42578125,951.171875,-297.8515625,923.828125
487.3046875,899.4140625,969.7265625,964.35546875
325.1953125,999.51171875,999.51171875,959.9609375
-69.82421875,526.85546875,-39.0625,967.28515625
-327.63671875,-995.60546875,-1000.0,966.30859375
-8.7890625,-879.8828125,-598.6328125,967.28515625
413.0859375,514.6484375,721.6796875,960.44921875
343.75,999.51171875,999.51171875,977.05078125
-107.421875,616.2109375,113.76953125,931.15234375
-411.1328125,-951.171875,-1000.0,845.21484375
-45.41015625,-541.015625,-521.97265625,909.66796875
403.80859375,916.9921875,797.36328125,961.42578125
325.1953125,999.51171875,999.51171875,969.23828125
-68.359375,699.21875,321.77734375,944.82421875
-411.1328125,-608.88671875,-1000.0,875.48828125
-158.203125,-1000.0,-548.33984375,895.5078125
339.84375,-109.375,811.03515625,951.171875
337.890625,999.51171875,999.51171875,977.05078125
4.8828125,999.51171875,602.5390625,923.33984375
-378.90625,-58.59375,-889.16015625,759.27734375
-292.96875,-1000.0,-733.88671875,758.7890625
228.02734375,-206.0546875,704.58984375,879.8828125
336.9140625,999.51171875,999.51171875,898.92578125
-17.08984375,941.89453125,612.79296875,768.5546875
-457.03125,-321.77734375,-725.09765625,625.0
-379.8828125,-1000.0,-1000.0,616.69921875
174.31640625,-170.41015625,85.44921875,700.68359375
355.95703125,999.51171875,999.51171875,733.3984375
4.39453125,999.51171875,517.578125,611.81640625
-424.8046875,-110.83984375,-789.55078125,510.7421875
-436.5234375,-1000.0,-1000.0,504.39453125
14.16015625,-790.52734375,-252.44140625,516.11328125
316.40625,495.1171875,999.51171875,515.13671875
85.9375,999.51171875,535.64453125,432.6171875
-380.37109375,173.33984375,-812.98828125,321.77734375
-482.421875,-1000.0,-1000.0,312.01171875
-37.59765625,-721.19140625,-330.078125,427.734375
317.3828125,678.7109375,999.51171875,542.48046875
100.5859375,999.51171875,849.12109375,462.40234375
-379.8828125,15.625,-463.8671875,303.7109375
-482.421875,-1000.0,-1000.0,313.96484375
-71.77734375,-1000.0,-337.40234375,355.95703125
273.4375,231.93359375,951.171875,446.2890625
41.9921875,999.51171875,999.51171875,-310.546875
-487.79296875,-258.30078125,-175.29296875,-1000.0
-588.8671875,-1000.0,-1000.0,-959.9609375
-171.875,-1000.0,-526.3671875,-1000.0
229.4921875,20.99609375,817.3828125,-877.44140625
179.19921875,999.51171875,999.51171875,-509.765625
-267.578125,125.48828125,-145.01953125,-167.96875
-525.87890625,-1000.0,-1000.0,-160.64453125
-277.34375,-1000.0,-940.91796875,-809.08203125
123.53515625,-440.4296875,273.4375,-1000.0
201.171875,999.51171875,999.51171875,-950.68359375
-240.72265625,248.046875,-56.640625,-1000.0
-507.32421875,-1000.0,-1000.0,-821.2890625
-189.453125,-1000.0,-1000.0,-256.34765625
267.578125,-56.640625,-43.45703125,205.078125
368.65234375,999.51171875,999.51171875,609.86328125
-35.64453125,999.51171875,121.09375,789.55078125
-395.99609375,20.99609375,-1000.0,805.6640625
-261.23046875,-1000.0,-1000.0,710.44921875
209.47265625,-223.14453125,-157.71484375,613.28125
388.671875,999.51171875,999.51171875,622.0703125
-37.59765625,858.88671875,171.38671875,572.265625
-402.83203125,-422.36328125,-1000.0,530.76171875
-275.87890625,-1000.0,-1000.0,489.74609375
152.34375,-420.8984375,-210.9375,436.03515625
380.37109375,833.0078125,999.51171875,421.875
46.38671875,999.51171875,330.56640625,565.91796875
-327.1484375,525.390625,-965.8203125,518.06640625
-326.171875,-1000.0,-1000.0,134.765625
131.8359375,-550.78125,-193.84765625,191.40625
429.19921875,931.15234375,999.51171875,300.78125
178.7109375,999.51171875,736.81640625,259.27734375
-272.94921875,-30.76171875,-604.98046875,258.30078125
-361.81640625,-1000.0,-1000.0,229.98046875
197.265625,-373.046875,-79.58984375,321.2890625
492.67578125,904.78515625,999.51171875,515.625
234.86328125,999.51171875,998.53515625,541.015625
-188.4765625,196.77734375,-127.9296875,461.42578125
-357.91015625,-1000.0,-1000.0,455.56640625
145.5078125,-259.765625,-153.80859375,485.83984375
456.0546875,980.95703125,999.51171875,479.98046875
245.60546875,999.51171875,999.51171875,408.69140625
-238.76953125,159.66796875,-167.48046875,369.140625
-379.39453125,-1000.0,-1000.0,326.66015625
-21.97265625,-1000.0,-210.9375,-556.15234375
302.24609375,-170.8984375,872.55859375,-777.34375
303.7109375,999.51171875,999.51171875,-536.1328125
-124.0234375,189.94140625,-218.75,-520.5078125
-259.27734375,-1000.0,-1000.0,50.78125
47.8515625,-971.19140625,-833.49609375,382.8125
433.59375,259.27734375,431.640625,534.1796875
430.6640625,999.51171875,999.51171875,440.91796875
-84.9609375,597.65625,-21.97265625,168.45703125
-425.78125,-718.75,-1000.0,79.1015625
-156.73828125,-1000.0,-998.046875,233.3984375
342.28515625,-144.53125,146.484375,542.96875
458.0078125,999.51171875,999.51171875,729.98046875
-1.953125,759.27734375,116.2109375,685.05859375
-399.4140625,-604.00390625,-1000.0,711.42578125
-213.8671875,-1000.0,-952.1484375,453.61328125
232.91015625,-67.87109375,256.34765625,119.140625
394.04296875,999.51171875,999.51171875,384.765625
41.015625,896.97265625,288.57421875,501.953125
-379.8828125,-360.3515625,-1000.0,483.3984375
-245.60546875,-1000.0,-919.43359375,576.171875
289.0625,-192.3828125,356.93359375,648.92578125
444.3359375,999.51171875,999.51171875,729.98046875
122.55859375,872.55859375,634.27734375,470.703125
-356.93359375,-438.4765625,-757.8125,-39.55078125
-306.15234375,-1000.0,-1000.0,113.28125
282.71484375,-153.80859375,336.42578125,436.5234375
463.37890625,964.84375,999.51171875,547.8515625
185.05859375,999.51171875,846.19140625,542.48046875
-242.1875,222.16796875,-381.34765625,466.796875
-337.40234375,-1000.0,-1000.0,458.49609375
184.08203125,-207.03125,-51.26953125,563.96484375
435.05859375,999.51171875,999.51171875,643.06640625
139.16015625,999.51171875,787.59765625,575.68359375
-303.7109375,185.05859375,-491.69921875,485.83984375
-394.04296875,-1000.0,-1000.0,488.28125
104.98046875,-456.54296875,-249.51171875,421.875
356.4453125,927.24609375,999.51171875,69.82421875
112.3046875,999.51171875,666.015625,-448.73046875
-263.671875,-77.1484375,-680.17578125,-569.82421875
-331.54296875,-1000.0,-1000.0,-216.30859375
216.796875,-312.01171875,-213.37890625,112.3046875
516.11328125,925.29296875,999.51171875,285.15625
262.20703125,999.51171875,944.82421875,382.8125
-158.69140625,246.09375,-254.39453125,38.0859375
-379.39453125,-1000.0,-1000.0,-357.421875
118.1640625,-682.12890625,-199.21875,-26.3671875
510.7421875,709.47265625,985.83984375,285.15625
319.82421875,999.51171875,999.51171875,334.9609375
-117.1875,152.34375,48.33984375,291.015625
-354.00390625,-1000.0,-1000.0,280.76171875
52.24609375,-1000.0,-327.1484375,385.7421875
467.28515625,147.94921875,948.73046875,506.8359375
345.21484375,999.51171875,999.51171875,378.41796875
-118.1640625,114.74609375,67.3828125,217.7734375
-337.40234375,-1000.0,-1000.0,272.4609375
-81.54296875,-981.93359375,-667.96875,-383.30078125
234.86328125,-974.12109375,670.8984375,-1000.0
256.8359375,-1000.0,999.51171875,-575.68359375
-52.734375,-983.88671875,48.828125,-334.47265625
-261.23046875,-964.84375,-1000.0,-344.23828125
-8.7890625,-1000.0,-865.72265625,-42.96875
430.6640625,-26.85546875,395.99609375,226.5625
444.3359375,999.51171875,999.51171875,309.5703125
-8.30078125,305.6640625,145.5078125,276.85546875
-333.49609375,-990.234375,-1000.0,245.60546875
-115.234375,-1000.0,-892.08984375,294.43359375
380.859375,50.78125,368.1640625,479.98046875
394.53125,999.51171875,999.51171875,183.10546875
-78.61328125,152.34375,312.01171875,-184.08203125
-409.1796875,-1000.0,-996.58203125,40.0390625
-253.41796875,-1000.0,-1000.0,152.34375
260.7421875,-323.73046875,211.9140625,228.02734375
400.87890625,999.51171875,999.51171875,292.48046875
65.4296875,870.1171875,583.0078125,289.0625
-374.51171875,-536.62109375,-747.0703125,-48.33984375
-423.828125,-1000.0,-1000.0,-849.609375
69.3359375,-933.59375,36.62109375,-1000.0
233.88671875,-1000.0,999.51171875,-963.8671875
-26.3671875,-1000.0,818.84765625,-994.62890625
-327.1484375,-937.5,-451.171875,-745.60546875
-359.375,-1000.0,-1000.0,-283.69140625
97.16796875,-231.93359375,-58.59375,-497.0703125
315.4296875,991.69921875,999.51171875,-1000.0
36.62109375,999.51171875,951.171875,-1000.0
-366.69921875,39.0625,-219.23828125,-845.21484375
-470.21484375,-1000.0,-1000.0,-304.6875
78.125,-180.17578125,-87.40234375,213.8671875
402.34375,999.51171875,998.53515625,490.234375
98.14453125,884.765625,999.51171875,580.078125
-224.609375,999.51171875,167.96875,743.1640625
-562.98828125,39.55078125,-1000.0,-104.4921875
-248.046875,-296.38671875,-160.15625,-1000.0
226.5625,994.140625,999.51171875,-502.9296875
28.3203125,999.51171875,999.51171875,-201.66015625
-418.9453125,153.80859375,199.70703125,-803.22265625
-657.71484375,-1000.0,-1000.0,-1000.0
-280.2734375,-1000.0,-304.6875,-981.4453125
142.578125,-38.0859375,959.9609375,-982.421875
55.6640625,999.51171875,999.51171875,-960.9375
-355.46875,466.30859375,202.1484375,-1000.0
-633.30078125,-1000.0,-1000.0,-983.3984375
-303.22265625,-803.7109375,-475.5859375,-1000.0
189.94140625,611.81640625,857.91015625,-959.47265625
185.05859375,999.51171875,999.51171875,-520.01953125
-270.99609375,375.48828125,208.984375,-741.69921875
-617.67578125,-893.06640625,-1000.0,-1000.0
-364.2578125,-1000.0,-776.85546875,-977.5390625
121.09375,-178.7109375,545.41015625,-1000.0
182.6171875,999.51171875,999.51171875,-1000.0
-206.54296875,759.765625,275.87890625,-999.0234375
-563.96484375,-599.609375,-1000.0,-976.07421875
-432.6171875,-1000.0,-937.5,-1000.0
112.79296875,-76.66015625,331.0546875,-952.1484375
293.45703125,999.51171875,999.51171875,-493.65234375
-30.2734375,938.96484375,401.85546875,-23.4375
-353.02734375,944.82421875,-881.34765625,438.96484375
-277.34375,985.3515625,-1000.0,896.97265625
123.046875,892.08984375,-93.75,916.9921875
249.51171875,999.51171875,999.51171875,999.51171875
-169.921875,508.30078125,270.99609375,519.04296875
-648.4375,-847.16796875,-973.6328125,-686.03515625
-521.484375,-1000.0,-1000.0,-1000.0
53.22265625,-681.640625,-298.33984375,-682.6171875
420.8984375,627.44140625,999.51171875,-137.6953125
120.60546875,999.51171875,299.8046875,373.046875
-328.125,119.62890625,-980.46875,916.50390625
-352.05078125,-1000.0,-1000.0,971.19140625
137.6953125,-198.73046875,-406.73828125,952.63671875
464.35546875,999.51171875,999.51171875,924.8046875
166.9921875,999.51171875,534.1796875,999.51171875
-382.32421875,167.48046875,-836.42578125,405.76171875
-503.41796875,-1000.0,-1000.0,-89.35546875
104.4921875,-626.46484375,-454.1015625,771.97265625
454.1015625,732.421875,891.11328125,999.51171875
166.015625,999.51171875,691.40625,906.25
-223.14453125,360.83984375,-557.6171875,863.28125
-367.1875,-971.6796875,-1000.0,892.578125
-36.62109375,-1000.0,-791.9921875,969.7265625
406.25,251.953125,616.2109375,965.8203125
335.44921875,999.51171875,940.91796875,965.33203125
-190.4296875,34.1796875,-527.34375,953.61328125
-386.23046875,-1000.0,-1000.0,985.83984375
-73.2421875,-1000.0,-966.30859375,850.5859375
368.1640625,-263.18359375,216.30859375,498.046875
370.1171875,999.51171875,999.51171875,335.44921875
-139.16015625,167.48046875,-151.3671875,327.63671875
-421.875,-1000.0,-1000.0,307.12890625
-153.3203125,-1000.0,-981.4453125,205.56640625
357.91015625,-270.5078125,152.83203125,239.74609375
454.58984375,999.51171875,999.51171875,506.8359375
-11.71875,999.51171875,112.3046875,568.359375
-358.88671875,-267.08984375,-1000.0,637.6953125
-203.61328125,-1000.0,-1000.0,632.8125
157.71484375,-938.96484375,-33.69140625,-108.3984375
202.1484375,-1000.0,999.51171875,-719.23828125
-149.90234375,-1000.0,143.5546875,-982.91015625
-424.31640625,-933.10546875,-1000.0,-975.09765625
-264.6484375,-1000.0,-1000.0,-962.890625
257.8125,-748.046875,-134.27734375,-895.99609375
522.4609375,817.87109375,999.51171875,-234.375
131.34765625,836.9140625,269.04296875,182.6171875
-326.171875,-719.23828125,-994.140625,264.6484375
-233.88671875,-1000.0,-1000.0,483.88671875
339.84375,180.6640625,-145.5078125,725.5859375
543.45703125,999.51171875,999.51171875,854.4921875
176.26953125,999.51171875,513.18359375,822.75390625
-277.83203125,130.37109375,-818.84765625,812.98828125
-347.65625,-1000.0,-1000.0,837.890625
207.51953125,-349.12109375,-201.66015625,902.34375
499.0234375,950.1953125,999.51171875,950.1953125
213.37890625,999.51171875,750.9765625,936.5234375
-294.43359375,4.39453125,-554.6875,421.875
-456.54296875,-1000.0,-1000.0,126.953125
61.5234375,-1000.0,-231.4453125,88.8671875
455.078125,93.26171875,999.51171875,191.40625
280.2734375,999.51171875,972.16796875,520.01953125
-206.0546875,183.59375,-208.984375,507.32421875
-414.55078125,-1000.0,-1000.0,547.36328125
80.078125,-622.0703125,-282.2265625,663.0859375
522.94921875,764.6484375,961.42578125,788.0859375
311.5234375,999.51171875,999.51171875,830.56640625
-214.84375,166.015625,-5.859375,706.0546875
-466.30859375,-1000.0,-1000.0,603.02734375
-58.59375,-955.56640625,-524.4140625,653.80859375
411.1328125,310.05859375,802.24609375,717.28515625
324.70703125,999.51171875,999.51171875,680.17578125
-122.55859375,756.34765625,93.26171875,554.6875
-416.9921875,-526.3671875,-1000.0,488.76953125
-157.71484375,-1000.0,-754.39453125,494.140625
345.21484375,-94.7265625,560.05859375,526.3671875
332.03125,999.51171875,999.51171875,525.87890625
-195.80078125,152.83203125,224.609375,408.69140625
-573.73046875,-1000.0,-1000.0,280.2734375
-288.0859375,-1000.0,-544.921875,276.3671875
270.01953125,-237.79296875,819.82421875,448.73046875
272.4609375,999.51171875,999.51171875,176.7578125
-254.39453125,83.984375,418.9453125,-596.19140625
-641.11328125,-1000.0,-955.56640625,-682.6171875
-412.109375,-1000.0,-818.84765625,-326.66015625
144.04296875,-229.98046875,572.75390625,-198.2421875
264.16015625,999.51171875,999.51171875,-159.1796875
-119.62890625,453.125,460.44921875,-121.09375
-583.49609375,-901.85546875,-857.421875,-86.9140625
-492.1875,-1000.0,-1000.0,-38.57421875
86.9140625,-264.6484375,36.62109375,126.46484375
249.0234375,999.51171875,999.51171875,-310.05859375
-232.91015625,160.15625,381.34765625,-1000.0
-641.11328125,-1000.0,-903.80859375,-1000.0
-520.99609375,-1000.0,-1000.0,-883.7890625
19.04296875,-624.51171875,-186.5234375,-744.140625
341.796875,725.09765625,999.51171875,-666.015625
88.37890625,999.51171875,756.34765625,-613.76953125
-378.90625,167.48046875,-555.6640625,-586.42578125
-464.35546875,-1000.0,-1000.0,-374.0234375
61.5234375,-495.1171875,-277.83203125,-211.42578125
485.83984375,999.51171875,999.51171875,54.6875
157.2265625,678.22265625,641.11328125,-320.80078125
-427.24609375,-736.328125,-708.0078125,-1000.0
-440.4296875,-1000.0,-1000.0,-536.62109375
69.82421875,-607.91015625,-552.734375,-23.92578125
503.90625,668.9453125,885.25390625,245.60546875
321.2890625,999.51171875,839.35546875,427.734375
-187.5,512.6953125,-559.5703125,450.68359375
-370.1171875,-914.55078125,-1000.0,368.65234375
-14.6484375,-995.1171875,-782.2265625,313.96484375
435.05859375,395.5078125,596.19140625,389.16015625
345.21484375,999.51171875,999.51171875,413.0859375
-206.0546875,113.28125,-411.62109375,-204.1015625
-482.421875,-1000.0,-1000.0,-942.3828125
-67.3828125,-1000.0,-923.828125,-565.91796875
421.875,-238.76953125,288.0859375,-638.671875
411.1328125,999.51171875,999.51171875,-1000.0
-61.5234375,241.2109375,-60.05859375,-976.07421875
-360.3515625,-1000.0,-1000.0,-1000.0
34.66796875,-529.296875,-937.5,-517.578125
602.05078125,828.61328125,270.5078125,53.22265625
584.9609375,999.51171875,999.51171875,-15.625
72.75390625,331.54296875,98.14453125,-111.328125
-317.87109375,-958.984375,-1000.0,-90.8203125
-118.65234375,-1000.0,-1000.0,-121.58203125
435.546875,83.984375,145.99609375,-91.796875
545.8984375,999.51171875,999.51171875,19.53125
44.921875,182.6171875,310.546875,-28.3203125
-372.0703125,-995.1171875,-1000.0,-73.2421875
-187.98828125,-1000.0,-957.51953125,50.29296875
458.0078125,-263.671875,355.46875,299.31640625
614.2578125,999.51171875,999.51171875,91.796875
167.96875,445.3125,950.68359375,-143.06640625
-282.71484375,-949.70703125,-373.046875,-270.01953125
-190.91796875,-995.60546875,-927.24609375,-648.92578125
395.99609375,-1000.0,639.16015625,-938.96484375
575.1953125,264.16015625,991.2109375,-1000.0
286.62109375,684.5703125,999.51171875,-991.2109375
-206.54296875,-874.51171875,124.0234375,-999.51171875
-278.3203125,-1000.0,-1000.0,-1000.0
385.7421875,-163.57421875,418.45703125,-973.6328125
658.203125,959.47265625,999.51171875,-923.828125
324.70703125,999.51171875,999.51171875,-914.0625
-168.9453125,232.421875,207.03125,-942.3828125
-378.90625,-1000.0,-1000.0,-920.8984375
191.89453125,-572.265625,-184.5703125,-839.84375
562.5,813.4765625,999.51171875,-841.796875
237.3046875,999.51171875,936.5234375,-821.77734375
-302.734375,196.77734375,-231.4453125,-803.22265625
-510.25390625,-1000.0,-1000.0,-779.296875
17.578125,-282.71484375,-567.87109375,-659.66796875
473.14453125,956.0546875,870.60546875,-578.125
200.1953125,999.51171875,891.6015625,-469.7265625
-296.875,575.1953125,-500.48828125,4.39453125
-513.671875,-1000.0,-1000.0,198.73046875
-165.52734375,-333.49609375,-843.75,-153.80859375
343.75,999.51171875,492.1875,-40.52734375
262.6953125,999.51171875,999.51171875,500.9765625
-265.13671875,767.08984375,-352.05078125,778.3203125
-612.79296875,-822.265625,-1000.0,899.4140625
-206.54296875,-401.85546875,-861.328125,968.26171875
374.51171875,999.51171875,356.93359375,963.37890625
244.62890625,952.1484375,999.51171875,965.8203125
-245.60546875,972.16796875,152.83203125,966.30859375
-625.48828125,-432.6171875,-1000.0,965.8203125
-376.953125,-925.78125,-765.13671875,966.30859375
265.13671875,646.97265625,549.31640625,966.30859375
296.875,999.51171875,999.51171875,964.35546875
-170.41015625,983.88671875,345.21484375,970.703125
-626.953125,-194.3359375,-1000.0,944.82421875
-491.2109375,-1000.0,-954.58984375,936.5234375
195.3125,209.9609375,330.56640625,967.28515625
337.890625,999.51171875,999.51171875,963.8671875
-116.2109375,999.51171875,322.265625,970.21484375
-526.3671875,-2.9296875,-923.828125,900.87890625
-446.77734375,-1000.0,-1000.0,826.66015625
190.91796875,-82.03125,-187.98828125,889.6484375
472.16796875,995.60546875,999.51171875,937.01171875
13.18359375,999.51171875,178.7109375,850.5859375
-477.5390625,402.83203125,-1000.0,700.68359375
-459.9609375,-1000.0,-1000.0,664.55078125
111.328125,-338.8671875,-588.8671875,717.28515625
482.421875,999.51171875,973.6328125,896.97265625
46.875,652.34375,223.14453125,426.7578125
-581.0546875,-704.58984375,-1000.0,-747.55859375
-552.24609375,-1000.0,-1000.0,-1000.0
60.546875,-463.8671875,-618.65234375,-960.9375
499.0234375,841.796875,938.96484375,-1000.0
180.6640625,999.51171875,544.921875,-1000.0
-391.6015625,41.50390625,-885.7421875,-1000.0
-504.39453125,-1000.0,-1000.0,-980.46875
102.5390625,-205.56640625,-226.07421875,-1000.0
545.8984375,975.09765625,953.61328125,-832.51953125
304.19921875,999.51171875,999.51171875,-225.5859375
-186.5234375,328.61328125,117.1875,138.671875
-495.60546875,-1000.0,-1000.0,251.953125
16.11328125,-494.140625,-215.8203125,430.17578125
522.4609375,891.6015625,987.79296875,278.3203125
288.0859375,999.51171875,999.51171875,-60.546875
-288.0859375,195.3125,206.0546875,-133.7890625
-594.23828125,-1000.0,-1000.0,51.7578125
-90.33203125,-760.25390625,-356.93359375,273.4375
498.046875,599.12109375,936.5234375,368.65234375
406.73828125,999.51171875,999.51171875,591.30859375
-192.87109375,243.65234375,172.36328125,436.5234375
-585.9375,-977.05078125,-1000.0,274.4140625
-178.22265625,-1000.0,-916.015625,610.3515625
436.03515625,-28.3203125,371.09375,505.859375
445.80078125,999.51171875,999.51171875,225.09765625
-147.4609375,168.45703125,19.04296875,192.87109375
-522.4609375,-1000.0,-1000.0,163.57421875
-203.61328125,-1000.0,-1000.0,272.4609375
431.15234375,-247.55859375,-169.43359375,436.03515625
563.4765625,999.51171875,999.51171875,270.5078125
-32.71484375,167.48046875,145.01953125,162.59765625
-483.3984375,-1000.0,-1000.0,303.7109375
-270.5078125,-1000.0,-1000.0,371.58203125
351.5625,-281.73828125,146.484375,560.05859375
539.0625,999.51171875,999.51171875,774.4140625
61.5234375,162.109375,871.58203125,638.671875
-480.95703125,-1000.0,-556.640625,420.41015625
-381.34765625,-974.609375,-833.984375,389.6484375
224.12109375,-974.12109375,750.9765625,-13.671875
356.93359375,-1000.0,959.47265625,-188.4765625
42.48046875,-1000.0,999.51171875,-248.53515625
-388.671875,-937.5,176.7578125,-153.80859375
-430.6640625,-1000.0,-693.84765625,200.68359375
321.2890625,-220.21484375,770.5078125,364.2578125
589.35546875,974.609375,991.2109375,465.33203125
182.6171875,999.51171875,999.51171875,532.71484375
-308.10546875,231.93359375,321.2890625,525.87890625
-532.2265625,-1000.0,-1000.0,588.8671875
113.76953125,-422.36328125,133.30078125,789.0625
564.94140625,913.0859375,999.51171875,867.67578125
252.9296875,999.51171875,999.51171875,811.5234375
-299.8046875,213.37890625,217.7734375,739.2578125
-554.19921875,-1000.0,-1000.0,764.6484375
76.66015625,-370.60546875,-191.40625,849.12109375
590.8203125,921.38671875,999.0234375,778.80859375
319.3359375,999.51171875,999.51171875,676.7578125
-197.75390625,454.58984375,257.8125,577.63671875
-556.640625,-1000.0,-1000.0,424.8046875
-75.1953125,-556.640625,-201.66015625,356.93359375
546.38671875,862.79296875,999.51171875,453.61328125
373.53515625,999.51171875,989.2578125,470.703125
-131.34765625,591.30859375,878.41796875,370.60546875
-586.42578125,-867.67578125,-511.23046875,329.1015625
-192.87109375,-958.984375,-62.5,382.32421875
481.4453125,453.125,999.51171875,470.21484375
333.0078125,999.51171875,870.60546875,444.3359375
-144.53125,630.37109375,999.51171875,302.734375
-577.1484375,-702.63671875,105.95703125,204.1015625
-314.94140625,-1000.0,-102.05078125,223.6328125
373.046875,46.875,996.09375,425.29296875
308.59375,999.51171875,999.51171875,-163.0859375
-214.35546875,6.34765625,646.97265625,-648.92578125
-583.0078125,-1000.0,-791.50390625,-244.62890625
-384.765625,-1000.0,-1000.0,-120.1171875
312.98828125,-232.91015625,361.81640625,66.40625
494.140625,999.51171875,999.51171875,244.140625
-46.38671875,749.51171875,229.00390625,183.10546875
-572.75390625,-607.421875,-964.35546875,99.12109375
-475.09765625,-1000.0,-1000.0,141.11328125
235.83984375,-220.703125,-234.375,273.92578125
562.98828125,999.51171875,999.51171875,351.07421875
-4.8828125,192.87109375,243.1640625,274.4140625
-609.375,-1000.0,-1000.0,171.38671875
-532.2265625,-1000.0,-1000.0,152.34375
156.73828125,-768.5546875,-152.83203125,224.609375
515.625,827.1484375,987.3046875,262.20703125
115.72265625,506.34765625,999.51171875,205.56640625
-485.3515625,-951.66015625,-67.87109375,107.91015625
-554.19921875,-1000.0,-1000.0,93.75
129.39453125,-460.9375,492.1875,187.5
486.328125,829.58984375,999.51171875,224.12109375
161.1328125,999.51171875,898.4375,198.2421875
-322.75390625,251.953125,974.609375,115.234375
-495.1171875,-1000.0,966.30859375,78.61328125
-16.6015625,-490.72265625,966.30859375,152.83203125
425.29296875,882.8125,965.8203125,217.7734375
168.9453125,999.51171875,966.30859375,155.76171875
-366.2109375,204.1015625,966.30859375,43.9453125
-581.54296875,-1000.0,966.30859375,8.30078125
-121.58203125,-674.8046875,965.8203125,78.61328125
359.375,703.61328125,966.30859375,138.18359375
156.25,999.51171875,966.30859375,118.1640625
-341.796875,293.45703125,966.30859375,53.22265625
-593.26171875,-1000.0,966.30859375,-2.44140625
-161.62109375,-539.0625,979.4921875,47.8515625
352.05078125,856.4453125,897.4609375,167.48046875
229.98046875,999.51171875,999.51171875,180.17578125
-320.3125,247.0703125,624.51171875,49.8046875
-745.60546875,-1000.0,-903.3203125,-60.05859375
-374.51171875,-1000.0,-867.1875,-28.3203125
332.03125,145.01953125,623.046875,61.5234375
358.88671875,999.51171875,999.51171875,81.54296875
-279.78515625,269.04296875,-212.890625,-18.5546875
-719.7265625,-986.81640625,-1000.0,-42.48046875
-421.875,-1000.0,-1000.0,-118.1640625
198.2421875,-6.34765625,-653.80859375,-192.3828125
326.171875,999.51171875,-270.5078125,25.390625
-205.56640625,489.2578125,-969.7265625,-154.296875
-697.265625,-834.9609375,-1000.0,-847.16796875
-521.97265625,-1000.0,-967.7734375,-1000.0
84.9609375,-362.79296875,-1000.0,-967.28515625
264.16015625,999.51171875,-1000.0,-1000.0
-131.8359375,536.1328125,-1000.0,-909.1796875
-568.84765625,-875.48828125,-1000.0,-696.77734375
-517.578125,-1000.0,-1000.0,-755.859375
71.77734375,-177.24609375,-1000.0,-612.79296875
304.6875,955.078125,-1000.0,-475.5859375
-56.640625,999.51171875,-1000.0,-615.72265625
-502.44140625,232.421875,-1000.0,-367.1875
-531.25,-1000.0,-1000.0,-53.22265625
16.11328125,-490.234375,-1000.0,-29.78515625
295.41015625,898.92578125,-1000.0,-67.3828125
10.25390625,999.51171875,-1000.0,104.98046875
-488.28125,22.94921875,-1000.0,128.41796875
-587.890625,-1000.0,-1000.0,140.625
-46.38671875,-430.6640625,-1000.0,125.48828125
305.17578125,890.625,-1000.0,103.02734375
56.640625,999.51171875,-1000.0,199.21875
-434.5703125,127.44140625,-1000.0,237.3046875
-624.51171875,-1000.0,-1000.0,185.05859375
-83.0078125,-255.37109375,-1000.0,374.51171875
319.3359375,999.51171875,-1000.0,33.203125
-21.97265625,719.23828125,-1000.0,-728.515625
-504.8828125,-687.01171875,-1000.0,-889.16015625
-658.203125,-1000.0,-1000.0,-948.2421875
-211.9140625,-1000.0,-1000.0,-694.3359375
259.765625,7.32421875,-1000.0,-626.953125
121.58203125,999.51171875,-1000.0,-837.40234375
-346.6796875,157.2265625,-1000.0,-896.97265625
-594.23828125,-1000.0,-1000.0,-844.7265625
-262.20703125,-999.0234375,-1000.0,-786.62109375
283.69140625,233.88671875,-1000.0,-477.05078125
305.6640625,999.51171875,-1000.0,-247.0703125
-208.0078125,215.33203125,-1000.0,-331.0546875
-563.4765625,-1000.0,-1000.0,-88.8671875
-280.76171875,-1000.0,-1000.0,241.2109375
260.7421875,87.40234375,-1000.0,421.38671875
278.3203125,999.51171875,-1000.0,612.79296875
-221.19140625,437.01171875,-1000.0,232.421875
-645.5078125,-864.74609375,-1000.0,-570.80078125
-435.05859375,-1000.0,-1000.0,-770.5078125
150.87890625,-280.2734375,-1000.0,-718.26171875
282.2265625,961.9140625,-1000.0,-741.69921875
-83.49609375,999.51171875,-1000.0,-725.5859375
-509.765625,-136.71875,-940.91796875,-690.4296875
-411.62109375,-1000.0,-1000.0,-669.921875
210.44921875,-36.1328125,-752.44140625,-614.74609375
439.94140625,999.51171875,799.31640625,-586.42578125
-1.46484375,925.29296875,178.7109375,-670.8984375
-521.484375,-291.9921875,-1000.0,-614.2578125
-514.6484375,-1000.0,-1000.0,-730.95703125
127.9296875,-204.58984375,-199.21875,-998.046875
468.26171875,952.1484375,999.51171875,-1000.0
117.1875,999.51171875,999.51171875,-803.7109375
-395.5078125,192.3828125,-132.32421875,-305.17578125
-495.60546875,-1000.0,-1000.0,139.16015625
197.265625,-26.3671875,124.0234375,471.19140625
534.66796875,999.51171875,999.51171875,613.76953125
167.96875,999.51171875,999.51171875,650.87890625
-375.0,284.66796875,201.66015625,644.53125
-616.69921875,-1000.0,-1000.0,668.45703125
17.08984375,-196.77734375,-116.2109375,788.0859375
498.53515625,999.51171875,999.51171875,826.171875
202.63671875,975.09765625,999.51171875,776.3671875
-324.21875,893.06640625,180.6640625,739.2578125
-657.71484375,-665.0390625,-1000.0,708.0078125
-140.13671875,-548.33984375,-223.6328125,767.08984375
485.83984375,943.359375,990.234375,856.4453125
267.578125,999.51171875,999.51171875,824.70703125
-335.44921875,311.03515625,219.23828125,696.2890625
-676.26953125,-1000.0,-1000.0,596.19140625
-201.66015625,-704.1015625,-369.62890625,584.9609375
426.26953125,696.77734375,925.78125,614.74609375
304.19921875,999.51171875,999.51171875,574.70703125
-275.390625,250.9765625,272.4609375,464.84375
-704.1015625,-1000.0,-1000.0,330.56640625
-299.8046875,-1000.0,-412.109375,321.77734375
358.88671875,206.54296875,911.62109375,353.515625
289.55078125,999.51171875,999.51171875,215.8203125
-181.640625,699.70703125,712.890625,153.80859375
-641.6015625,-650.390625,-816.40625,190.91796875
-405.76171875,-1000.0,-606.4453125,276.3671875
183.10546875,-1000.0,869.62890625,-468.75
218.26171875,-30.2734375,999.51171875,-1000.0
-128.41796875,396.484375,747.0703125,-946.77734375
-591.796875,-1000.0,-709.47265625,-664.55078125
-416.015625,-1000.0,-850.09765625,-259.27734375
315.91796875,-46.875,656.25,208.49609375
421.875,999.51171875,999.51171875,-104.98046875
-124.0234375,458.0078125,920.41015625,-980.46875
-629.39453125,-896.97265625,-368.1640625,-1000.0
-534.1796875,-1000.0,-1000.0,-888.671875
201.66015625,-35.64453125,490.234375,-860.3515625
425.78125,999.51171875,999.51171875,-805.6640625
41.50390625,999.51171875,999.51171875,-706.0546875
-503.41796875,-96.6796875,53.7109375,-1000.0
-614.74609375,-1000.0,-1000.0,-791.50390625
121.58203125,-166.015625,198.2421875,-98.14453125
487.3046875,979.00390625,999.51171875,255.859375
154.78515625,999.51171875,999.51171875,437.01171875
-413.0859375,229.98046875,180.17578125,239.74609375
-712.40234375,-1000.0,-1000.0,-475.09765625
-65.91796875,-649.4140625,-28.3203125,-730.46875
407.71484375,822.265625,999.51171875,-836.9140625
81.54296875,999.51171875,999.51171875,-1000.0
-414.55078125,-236.328125,196.77734375,-709.9609375
-604.00390625,-1000.0,-1000.0,-71.2890625
-14.6484375,-214.84375,-150.87890625,370.1171875
455.078125,959.9609375,999.51171875,132.32421875
167.48046875,999.51171875,999.51171875,-364.74609375
-384.765625,173.33984375,269.53125,-513.18359375
-707.51953125,-1000.0,-1000.0,-454.58984375
-205.56640625,-715.8203125,-206.54296875,-444.3359375
395.5078125,633.7890625,995.60546875,-423.33984375
246.58203125,999.51171875,999.51171875,-380.37109375
-241.69921875,639.16015625,498.046875,-433.10546875
-642.578125,-764.6484375,-1000.0,-450.68359375
-287.109375,-1000.0,-305.17578125,-361.81640625
364.74609375,324.21875,999.51171875,-283.203125
298.828125,999.51171875,999.51171875,-311.5234375
-212.890625,166.015625,456.0546875,-290.0390625
-610.83984375,-960.9375,-1000.0,-191.40625
-317.87109375,-1000.0,-552.24609375,-176.26953125
317.87109375,-103.515625,854.00390625,-183.10546875
371.09375,999.51171875,999.51171875,-171.38671875
-116.69921875,415.0390625,531.25,-190.91796875
-595.703125,-999.0234375,-960.9375,-177.734375
-347.65625,-1000.0,-718.75,-146.484375
337.890625,298.828125,728.515625,-134.765625
415.0390625,999.51171875,999.51171875,-141.6015625
-13.671875,774.4140625,815.4296875,-145.5078125
-536.62109375,-482.421875,-572.265625,-115.234375
-458.49609375,-1000.0,-944.82421875,-75.1953125
261.71875,-143.06640625,583.49609375,38.0859375
448.73046875,966.30859375,999.51171875,391.11328125
70.80078125,999.51171875,999.51171875,674.8046875
-438.4765625,223.14453125,47.36328125,764.6484375
-550.78125,-1000.0,-1000.0,848.6328125
132.8125,-216.30859375,294.921875,912.59765625
473.6328125,999.51171875,999.51171875,989.74609375
87.40234375,999.51171875,975.09765625,893.06640625
-501.953125,24.90234375,-68.84765625,638.671875
-622.55859375,-1000.0,-1000.0,819.3359375
-45.41015625,-834.9609375,-153.3203125,385.25390625
287.59765625,719.23828125,999.51171875,-692.87109375
-19.53125,707.51953125,954.58984375,-985.3515625
-577.63671875,-813.96484375,-220.703125,-1000.0
-656.73828125,-1000.0,-1000.0,-645.99609375
-11.71875,-260.7421875,-135.25390625,-37.59765625
411.62109375,924.8046875,975.5859375,275.87890625
126.953125,999.51171875,999.51171875,441.89453125
-398.4375,837.40234375,331.54296875,462.890625
-721.19140625,-709.9609375,-1000.0,525.87890625
-259.765625,-685.05859375,-140.13671875,515.13671875
261.23046875,856.4453125,999.51171875,486.81640625
69.82421875,999.51171875,999.51171875,579.1015625
-447.265625,146.484375,462.40234375,475.09765625
-822.75390625,-1000.0,-1000.0,477.05078125
-430.17578125,-1000.0,-247.55859375,394.04296875
148.4375,-8.30078125,999.51171875,-108.3984375
64.453125,999.51171875,999.51171875,-256.8359375
-426.7578125,209.9609375,368.65234375,30.76171875
-783.203125,-1000.0,-1000.0,201.171875
-388.18359375,-593.75,-605.46875,350.09765625
290.0390625,766.11328125,790.52734375,540.0390625
289.0625,999.51171875,999.51171875,606.93359375
-267.578125,442.3828125,109.375,480.95703125
-685.05859375,-848.14453125,-1000.0,531.25
-448.2421875,-1000.0,-1000.0,115.234375
174.8046875,-276.3671875,-86.42578125,-276.3671875
414.55078125,999.51171875,999.51171875,159.66796875
-80.078125,510.25390625,211.42578125,300.29296875
-574.70703125,-910.64453125,-1000.0,319.3359375
-377.9296875,-1000.0,-998.046875,390.13671875
304.6875,-0.9765625,206.0546875,592.7734375
466.30859375,999.51171875,999.51171875,405.76171875
2.44140625,938.96484375,860.3515625,-129.39453125
-498.046875,-274.90234375,-478.02734375,12.6953125
-461.9140625,-1000.0,-1000.0,278.80859375
262.20703125,-123.53515625,420.41015625,407.71484375
520.01953125,978.515625,999.51171875,495.60546875
140.625,999.51171875,999.51171875,498.53515625
-387.6953125,219.7265625,76.66015625,444.82421875
-527.34375,-1000.0,-1000.0,381.8359375
200.68359375,-203.125,202.1484375,569.82421875
500.9765625,999.51171875,999.51171875,-94.7265625
71.77734375,999.51171875,999.51171875,-881.8359375
-368.1640625,230.46875,141.11328125,-373.53515625
-524.4140625,-1000.0,-1000.0,-1.46484375
93.26171875,-362.3046875,-146.484375,199.21875
550.78125,942.3828125,999.51171875,357.421875
254.8828125,999.51171875,999.51171875,336.9140625
-304.6875,183.10546875,68.359375,417.48046875
-602.05078125,-1000.0,-1000.0,-174.8046875
-111.328125,-907.71484375,-201.66015625,-1000.0
423.828125,428.22265625,990.234375,-997.0703125
265.625,999.51171875,999.51171875,-980.95703125
-301.7578125,27.34375,179.19921875,-997.0703125
-617.67578125,-1000.0,-1000.0,-995.60546875
-72.265625,-404.296875,-219.7265625,-984.375
520.99609375,879.8828125,987.79296875,-558.59375
363.28125,999.51171875,999.51171875,-14.6484375
-156.25,529.296875,271.97265625,211.42578125
-530.76171875,-1000.0,-1000.0,364.74609375
-144.04296875,-695.80078125,-486.328125,541.015625
477.05078125,764.6484375,863.28125,677.24609375
361.328125,999.51171875,999.51171875,731.4453125
-214.35546875,672.8515625,190.4296875,697.75390625
-615.72265625,-683.10546875,-1000.0,666.9921875
-333.984375,-1000.0,-890.625,726.5625
326.171875,184.5703125,373.046875,778.3203125
434.5703125,999.51171875,999.51171875,780.76171875
-63.4765625,999.51171875,445.80078125,760.7421875
-588.8671875,-73.2421875,-969.23828125,642.08984375
-416.50390625,-1000.0,-893.5546875,739.74609375
243.65234375,20.5078125,482.421875,226.07421875
334.9609375,999.51171875,999.51171875,-400.87890625
-41.9921875,737.3046875,787.59765625,-185.546875
-574.70703125,-572.75390625,-587.890625,-556.15234375
-543.45703125,-1000.0,-1000.0,-818.359375
187.5,-214.84375,448.2421875,-825.68359375
435.05859375,999.51171875,999.51171875,-856.93359375
40.0390625,630.37109375,942.3828125,-868.1640625
-458.984375,-740.72265625,-217.7734375,-791.50390625
-466.30859375,-1000.0,-1000.0,-586.9140625
188.4765625,-249.0234375,109.375,-615.234375
496.58203125,989.74609375,999.51171875,-598.14453125
108.3984375,999.51171875,900.87890625,-584.47265625
-433.59375,-194.82421875,-273.92578125,-563.96484375
-543.9453125,-1000.0,-1000.0,-513.18359375
92.7734375,-314.453125,-184.08203125,-487.3046875
515.625,914.55078125,999.51171875,-464.35546875
208.49609375,999.51171875,899.90234375,-427.24609375
-351.5625,209.47265625,-329.58984375,-383.30078125
-554.6875,-1000.0,-1000.0,-356.93359375
40.52734375,-205.56640625,-276.3671875,-352.5390625
501.953125,999.51171875,992.1875,-379.8828125
224.12109375,999.51171875,979.4921875,-363.28125
-335.44921875,181.15234375,-193.359375,-343.26171875
-592.7734375,-1000.0,-1000.0,-340.33203125
-95.703125,-874.0234375,-411.1328125,-312.98828125
478.515625,442.87109375,867.1875,-326.171875
334.47265625,999.51171875,999.51171875,-305.6640625
-248.53515625,204.58984375,144.53125,-248.53515625
-583.0078125,-1000.0,-1000.0,-257.32421875
-161.62109375,-963.37890625,-440.91796875,-290.0390625
418.9453125,303.22265625,869.62890625,-264.16015625
347.16796875,999.51171875,999.51171875,-223.14453125
-206.0546875,364.74609375,279.78515625,-214.84375
-632.8125,-987.79296875,-1000.0,-218.26171875
-274.4140625,-1000.0,-587.40234375,-218.26171875
406.73828125,277.83203125,779.78515625,-161.62109375
407.2265625,999.51171875,999.51171875,-141.6015625
-183.59375,422.36328125,238.28125,-121.09375
-586.42578125,-979.98046875,-1000.0,20.99609375
-299.31640625,-975.09765625,-911.62109375,-19.53125
337.40234375,410.64453125,358.88671875,-119.140625
436.03515625,999.51171875,999.51171875,-70.80078125
-73.2421875,921.875,208.984375,20.99609375
-495.60546875,-199.70703125,-994.62890625,306.640625
-383.7890625,-1000.0,-1000.0,322.75390625
175.78125,-209.47265625,-78.125,-166.9921875
449.21875,999.51171875,999.51171875,75.68359375
45.41015625,863.76953125,379.8828125,503.41796875
-508.7890625,-453.125,-922.8515625,419.921875
-456.54296875,-1000.0,-1000.0,454.58984375
243.65234375,-178.22265625,-133.30078125,629.8828125
481.4453125,999.51171875,999.51171875,123.53515625
38.0859375,999.51171875,747.55859375,-334.47265625
-447.75390625,-137.20703125,-568.84765625,82.51953125
-522.4609375,-1000.0,-1000.0,-2.9296875
122.0703125,-193.84765625,-122.55859375,-231.4453125
481.93359375,999.51171875,999.51171875,-280.2734375
133.30078125,984.375,930.6640625,-247.55859375
-414.55078125,-215.33203125,-276.3671875,-129.39453125
-583.984375,-1000.0,-1000.0,-115.234375
80.078125,-297.8515625,-194.82421875,312.98828125
546.38671875,923.828125,999.51171875,539.0625
229.98046875,999.51171875,978.02734375,387.6953125
-327.63671875,194.82421875,-168.45703125,388.671875
-597.16796875,-1000.0,-1000.0,154.78515625
-89.84375,-526.3671875,-334.47265625,-21.97265625
479.00390625,850.5859375,936.5234375,222.65625
290.52734375,999.51171875,999.51171875,179.6875
-320.3125,152.83203125,6.34765625,149.4140625
-648.92578125,-1000.0,-1000.0,-184.5703125
-199.21875,-1000.0,-626.46484375,-362.3046875
392.08984375,52.734375,718.26171875,-296.38671875
342.7734375,999.51171875,999.51171875,-325.1953125
-239.2578125,189.453125,43.45703125,-176.7578125
-616.2109375,-1000.0,-1000.0,-280.76171875
-271.97265625,-1000.0,-834.47265625,-574.70703125
375.0,-24.90234375,456.0546875,-263.18359375
397.4609375,999.51171875,999.51171875,-156.25
-162.59765625,462.890625,156.25,-49.31640625
-557.12890625,-889.16015625,-1000.0,95.21484375
-295.8984375,-1000.0,-864.74609375,-36.1328125
300.29296875,-96.6796875,416.015625,-195.80078125
404.296875,999.51171875,999.51171875,-243.1640625
-109.86328125,458.49609375,246.58203125,-212.40234375
-589.35546875,-889.6484375,-1000.0,-167.96875
-387.6953125,-1000.0,-1000.0,-157.2265625
265.625,-172.36328125,150.87890625,-165.52734375
450.1953125,999.51171875,999.51171875,-122.0703125
12.6953125,999.51171875,375.9765625,14.6484375
-516.11328125,-222.16796875,-922.36328125,19.53125
-469.7265625,-1000.0,-1000.0,-115.234375
242.1875,-74.70703125,-10.7421875,164.55078125
550.78125,999.51171875,999.51171875,501.46484375
54.6875,682.12890625,580.078125,293.9453125
-540.52734375,-656.73828125,-750.9765625,92.7734375
-525.390625,-1000.0,-1000.0,121.09375
132.32421875,-208.0078125,-32.2265625,86.42578125
449.21875,978.515625,999.51171875,23.92578125
87.40234375,999.51171875,999.51171875,0.9765625
-467.28515625,-55.17578125,-50.78125,-37.109375
-614.2578125,-1000.0,-1000.0,-76.171875
54.19921875,-281.73828125,28.80859375,-30.76171875
462.890625,939.94140625,999.51171875,1.953125
143.06640625,999.51171875,999.51171875,-43.45703125
-393.5546875,225.09765625,180.6640625,-51.26953125
-624.0234375,-1000.0,-1000.0,-34.1796875
-27.83203125,-531.73828125,-182.6171875,2.44140625
469.23828125,851.5625,999.51171875,-2.44140625
213.37890625,999.51171875,999.51171875,-41.015625
-346.19140625,184.5703125,154.78515625,-67.87109375
-622.55859375,-1000.0,-1000.0,-61.03515625
-107.421875,-863.76953125,-350.09765625,-2.44140625
444.82421875,479.00390625,940.91796875,-21.484375
278.80859375,999.51171875,999.51171875,-111.81640625
-311.03515625,145.01953125,133.30078125,-157.2265625
-625.0,-1000.0,-1000.0,-109.375
-196.77734375,-653.80859375,-381.8359375,-77.1484375
356.4453125,722.65625,908.69140625,-88.8671875
285.64453125,999.51171875,999.51171875,-78.61328125
-258.30078125,143.5546875,278.3203125,-103.515625
-660.64453125,-1000.0,-1000.0,-105.95703125
-298.33984375,-1000.0,-440.91796875,-73.2421875
367.67578125,14.6484375,903.3203125,-59.08203125
397.4609375,999.51171875,999.51171875,-43.45703125
-71.2890625,645.5078125,807.12890625,-63.4765625
-571.2890625,-738.76953125,-716.796875,-100.09765625
-375.0,-1000.0,-520.99609375,-101.5625
342.7734375,87.40234375,973.6328125,-73.73046875
424.31640625,999.51171875,967.7734375,-72.265625
-27.83203125,509.27734375,980.46875,-77.1484375
-524.90234375,-816.89453125,-376.953125,-57.6171875
-416.015625,-1000.0,-818.84765625,-47.36328125
250.48828125,-177.734375,705.078125,-67.3828125
424.31640625,991.2109375,999.51171875,-65.91796875
4.39453125,999.51171875,738.28125,-71.77734375
-526.3671875,-73.73046875,-515.625,-69.3359375
-540.52734375,-1000.0,-1000.0,-50.29296875
150.87890625,-175.78125,-81.0546875,-33.69140625
418.45703125,992.67578125,999.51171875,-36.62109375
5.37109375,999.51171875,355.95703125,-44.43359375
-467.7734375,97.16796875,-811.03515625,-50.29296875
-557.6171875,-1000.0,-1000.0,-63.4765625
44.921875,-312.01171875,-290.52734375,-63.96484375
443.359375,944.82421875,999.51171875,-80.078125
132.32421875,999.51171875,739.2578125,-80.078125
-421.875,219.23828125,-599.12109375,-61.03515625
-576.171875,-1000.0,-1000.0,-38.57421875
57.12890625,-339.84375,-157.71484375,6.34765625
490.234375,951.171875,970.21484375,-18.5546875
209.9609375,999.51171875,999.51171875,-76.171875
-337.40234375,217.7734375,163.0859375,-45.41015625
-600.09765625,-1000.0,-1000.0,-30.76171875
-17.08984375,-325.1953125,-137.6953125,-37.109375
499.51171875,956.54296875,999.51171875,12.6953125
257.8125,999.51171875,999.51171875,-18.5546875
-313.96484375,218.75,254.39453125,-85.44921875
-633.30078125,-1000.0,-1000.0,-53.22265625
-138.671875,-647.94921875,-246.58203125,-8.30078125
462.890625,728.02734375,987.79296875,-0.9765625
342.28515625,999.51171875,999.51171875,-29.296875
-168.9453125,681.15234375,244.140625,-71.2890625
-509.27734375,-759.765625,-1000.0,-67.87109375
-165.52734375,-974.609375,-703.61328125,-39.55078125
468.75,457.51953125,662.59765625,13.18359375
469.23828125,999.51171875,999.51171875,-6.8359375
-116.2109375,568.359375,132.8125,-77.63671875
-541.015625,-839.84375,-1000.0,-36.1328125
-270.99609375,-1000.0,-919.921875,25.87890625
354.00390625,306.15234375,326.66015625,22.4609375
452.63671875,999.51171875,999.51171875,-3.90625
-53.22265625,793.45703125,289.0625,2.9296875
-523.92578125,-519.04296875,-1000.0,22.94921875
-305.17578125,-1000.0,-907.71484375,31.25
308.10546875,165.0390625,420.8984375,38.0859375
415.52734375,999.51171875,999.51171875,9.765625
51.26953125,999.51171875,900.390625,-34.66796875
-439.453125,244.140625,-459.9609375,-14.16015625
-410.64453125,-1000.0,-921.875,-15.13671875
261.71875,-202.63671875,642.08984375,-71.77734375
525.390625,999.51171875,983.3984375,103.02734375
202.1484375,999.51171875,999.51171875,224.12109375
-353.02734375,193.359375,76.171875,18.06640625
-440.4296875,-1000.0,-814.94140625,-75.68359375
251.953125,-207.03125,694.82421875,-63.96484375
553.22265625,999.51171875,999.51171875,-20.01953125
204.58984375,999.51171875,999.51171875,39.0625
-289.0625,118.1640625,132.8125,104.4921875
-420.41015625,-1000.0,-1000.0,213.37890625
229.00390625,-31.73828125,364.74609375,235.3515625
582.51953125,999.51171875,999.51171875,186.03515625
260.25390625,999.51171875,999.51171875,57.6171875
-263.18359375,224.609375,233.88671875,-139.16015625
-464.84375,-1000.0,-1000.0,-141.6015625
191.89453125,-190.4296875,-93.26171875,168.45703125
648.92578125,989.74609375,999.51171875,277.34375
371.09375,999.51171875,999.51171875,249.0234375
-92.28515625,502.44140625,249.51171875,504.8828125
-372.0703125,-1000.0,-1000.0,447.75390625
97.65625,-340.33203125,-181.15234375,307.6171875
651.85546875,977.05078125,999.51171875,461.9140625
508.30078125,999.51171875,999.51171875,644.04296875
4.39453125,475.5859375,413.0859375,664.55078125
-409.1796875,-1000.0,-1000.0,304.19921875
35.64453125,-524.90234375,-223.6328125,-3.90625
661.62109375,883.7890625,999.51171875,-4.39453125
559.5703125,999.51171875,939.453125,171.38671875
121.58203125,595.703125,957.03125,177.24609375
-212.40234375,-965.33203125,730.95703125,102.05078125
143.06640625,-657.2265625,817.87109375,395.99609375
722.65625,879.8828125,999.51171875,644.53125
663.0859375,956.54296875,949.70703125,721.19140625
194.82421875,999.51171875,969.23828125,374.51171875
-208.984375,-25.390625,966.30859375,-159.66796875
-7.8125,-1000.0,966.30859375,-30.2734375
617.1875,312.5,966.30859375,209.9609375
710.9375,999.51171875,966.30859375,80.56640625
304.6875,999.51171875,966.30859375,57.6171875
-129.8828125,-24.4140625,966.30859375,-456.54296875
-33.69140625,-1000.0,966.30859375,-935.05859375
618.65234375,-113.76953125,966.30859375,-983.88671875
886.23046875,982.421875,966.30859375,-943.359375
614.74609375,999.51171875,966.30859375,-602.5390625
152.83203125,31.73828125,965.8203125,-416.50390625
208.49609375,-657.2265625,965.8203125,-326.171875
803.7109375,879.39453125,965.8203125,-46.875
996.58203125,968.26171875,965.8203125,-9.27734375
761.71875,999.51171875,966.30859375,-148.4375
356.4453125,339.35546875,965.8203125,-212.40234375
375.48828125,-1000.0,965.8203125,-298.33984375
845.703125,173.33984375,966.30859375,-307.12890625
999.0234375,999.51171875,966.30859375,98.6328125
904.296875,895.99609375,966.30859375,-335.44921875
665.52734375,965.33203125,966.30859375,-1000.0
736.81640625,966.796875,965.8203125,-607.91015625
981.4453125,966.30859375,966.30859375,-555.6640625
956.0546875,965.8203125,966.30859375,-334.9609375
981.93359375,965.8203125,966.30859375,173.33984375
865.72265625,966.30859375,965.8203125,164.55078125
816.40625,965.8203125,965.8203125,289.0625
971.19140625,965.8203125,965.8203125,440.91796875
958.0078125,966.30859375,965.8203125,324.21875
986.328125,966.30859375,965.8203125,287.109375
865.234375,965.8203125,965.8203125,157.71484375
735.83984375,965.8203125,966.30859375,-35.15625
916.50390625,965.8203125,965.8203125,-73.2421875
966.796875,965.8203125,965.8203125,-138.671875
985.3515625,966.30859375,966.30859375,-25.87890625
763.18359375,965.8203125,965.8203125,-33.203125
471.6796875,965.8203125,965.8203125,-19.53125
758.7890625,966.30859375,966.30859375,309.5703125
986.81640625,966.30859375,966.30859375,-123.53515625
960.44921875,966.30859375,965.8203125,-610.83984375
661.1328125,966.30859375,965.8203125,-363.28125
300.29296875,965.8203125,966.30859375,71.77734375
503.41796875,966.30859375,966.30859375,67.3828125
890.13671875,966.30859375,965.8203125,-841.30859375
861.328125,965.8203125,966.30859375,-1000.0
353.02734375,966.30859375,966.796875,-959.9609375
-117.67578125,966.30859375,962.890625,-982.91015625
54.6875,966.30859375,967.28515625,-484.375
581.0546875,977.05078125,952.1484375,138.18359375
552.734375,879.39453125,918.9453125,404.78515625
23.92578125,999.51171875,999.51171875,572.265625
-612.79296875,283.203125,-70.3125,644.04296875
-629.39453125,-505.859375,-1000.0,719.23828125
133.30078125,866.69921875,356.93359375,889.6484375
299.8046875,999.51171875,999.51171875,968.26171875
-349.12109375,999.51171875,141.6015625,910.15625
-942.3828125,102.5390625,-1000.0,818.359375
-963.8671875,-1000.0,-987.3046875,797.8515625
-446.77734375,-254.8828125,-971.19140625,886.23046875
-163.57421875,999.51171875,-1000.0,910.64453125
-656.25,563.4765625,-999.0234375,818.359375
-1000.0,-890.625,-1000.0,732.91015625
-1000.0,-977.05078125,-1000.0,641.11328125
-773.92578125,-1000.0,-1000.0,648.4375
-402.83203125,-144.04296875,-1000.0,746.09375
-718.26171875,416.9921875,-1000.0,704.1015625
-1000.0,-1000.0,-1000.0,584.47265625
-1000.0,-1000.0,-1000.0,573.2421875
-859.86328125,-951.171875,-1000.0,636.71875
-536.1328125,-1000.0,-1000.0,661.1328125
-772.4609375,-1000.0,-1000.0,597.65625
-1000.0,-1000.0,-1000.0,464.35546875
-1000.0,-1000.0,-1000.0,395.99609375
-909.66796875,-1000.0,-1000.0,426.26953125
-554.6875,-1000.0,-1000.0,432.6171875
-706.54296875,-1000.0,-1000.0,351.07421875
-1000.0,-1000.0,-1000.0,239.74609375
-1000.0,-1000.0,-1000.0,137.6953125
-882.32421875,-1000.0,-1000.0,158.203125
-419.921875,-1000.0,-1000.0,307.6171875
-523.92578125,-1000.0,-1000.0,212.40234375
-944.82421875,-1000.0,-1000.0,21.484375
-1000.0,-1000.0,-1000.0,37.59765625
-863.28125,-1000.0,-1000.0,196.2890625
-327.1484375,-1000.0,-1000.0,83.49609375
-288.57421875,-1000.0,-1000.0,-245.60546875
-784.66796875,-1000.0,-1000.0,-271.97265625
-1000.0,-1000.0,-1000.0,-243.1640625
-804.6875,-1000.0,-1000.0,8.7890625
-133.30078125,-1000.0,-1000.0,282.71484375
-28.80859375,-1000.0,-1000.0,42.96875
-627.9296875,-1000.0,-1000.0,-510.25390625
-1000.0,-950.68359375,-1000.0,-791.015625
-835.44921875,-1000.0,-1000.0,-662.59765625
-136.23046875,-963.8671875,-1000.0,-276.3671875
210.9375,617.1875,-1000.0,-40.0390625
-235.83984375,319.82421875,-1000.0,24.90234375
-817.87109375,-1000.0,-1000.0,-191.40625
-698.2421875,-1000.0,-1000.0,-500.48828125
12.6953125,-860.83984375,-1000.0,-397.4609375
400.87890625,661.62109375,-1000.0,-118.1640625
29.78515625,791.015625,-1000.0,81.0546875
-588.37890625,-742.67578125,-978.515625,112.3046875
-560.05859375,-1000.0,-975.5859375,316.89453125
151.3671875,-158.69140625,-1000.0,546.38671875
635.25390625,961.42578125,241.2109375,445.3125
231.4453125,999.51171875,315.4296875,287.109375
-493.65234375,218.26171875,-1000.0,239.74609375
-610.3515625,-1000.0,-1000.0,331.54296875
67.3828125,-447.265625,-522.4609375,488.28125
676.26953125,898.92578125,814.94140625,440.4296875
409.1796875,999.51171875,999.51171875,450.68359375
-344.7265625,174.8046875,52.24609375,495.1171875
-721.19140625,-1000.0,-1000.0,-113.76953125
-75.1953125,-962.40234375,-158.69140625,-548.33984375
667.96875,312.5,986.81640625,-200.68359375
541.50390625,999.51171875,999.51171875,90.33203125
-191.40625,195.80078125,564.94140625,-92.7734375
-701.66015625,-1000.0,-983.3984375,-547.8515625
-99.609375,-512.20703125,-124.51171875,-628.41796875
673.33984375,853.515625,999.51171875,-883.7890625
572.75390625,999.51171875,887.6953125,-1000.0
-30.2734375,264.16015625,999.51171875,-585.9375
-528.80859375,-985.3515625,-46.38671875,-333.0078125
-192.87109375,-1000.0,-79.1015625,-778.3203125
575.1953125,52.24609375,999.51171875,-1000.0
645.5078125,999.51171875,942.87109375,-980.46875
60.546875,614.2578125,949.70703125,-1000.0
-465.33203125,-786.1328125,969.23828125,-1000.0
-215.8203125,-1000.0,966.30859375,-1000.0
516.6015625,194.82421875,966.30859375,-1000.0
668.9453125,999.51171875,966.30859375,-1000.0
78.125,950.1953125,966.30859375,-1000.0
-527.83203125,-223.14453125,966.30859375,-1000.0
-366.2109375,-1000.0,966.30859375,-1000.0
355.95703125,-83.49609375,966.30859375,-1000.0
624.0234375,999.51171875,966.30859375,-1000.0
113.28125,958.0078125,966.30859375,-997.55859375
-529.296875,-263.18359375,966.30859375,-1000.0
-465.8203125,-1000.0,966.30859375,-966.30859375
234.375,-119.62890625,966.30859375,-905.76171875
617.1875,980.46875,966.30859375,-845.703125
197.75390625,999.51171875,966.30859375,-780.76171875
-492.1875,224.12109375,965.8203125,-771.484375
-544.921875,-1000.0,966.30859375,-576.66015625
140.13671875,-200.68359375,978.02734375,-438.4765625
524.90234375,999.51171875,889.16015625,-570.80078125
142.08984375,999.51171875,999.51171875,-719.7265625
-570.80078125,153.3203125,534.66796875,-758.30078125
-771.484375,-1000.0,-646.97265625,-584.47265625
14.16015625,-206.0546875,486.81640625,-508.30078125
559.5703125,992.67578125,999.51171875,-574.70703125
238.76953125,999.51171875,999.51171875,-491.69921875
-508.30078125,225.09765625,313.96484375,-411.62109375
-856.93359375,-1000.0,-1000.0,-421.875
-129.8828125,-262.20703125,-63.96484375,-354.98046875
509.765625,981.93359375,999.51171875,-123.53515625
237.3046875,999.51171875,999.51171875,-204.58984375
-543.45703125,225.09765625,250.0,-567.87109375
-893.06640625,-1000.0,-1000.0,-433.59375
-208.0078125,-628.90625,-234.86328125,-107.91015625
495.60546875,762.20703125,993.1640625,262.6953125
343.26171875,999.51171875,999.51171875,725.5859375
-404.78515625,145.99609375,228.515625,915.0390625
-875.0,-1000.0,-1000.0,950.1953125
-396.97265625,-1000.0,-500.48828125,581.0546875
385.25390625,36.1328125,846.19140625,378.90625
390.13671875,999.51171875,999.51171875,333.49609375
-403.80859375,134.27734375,237.79296875,-68.84765625
-947.75390625,-1000.0,-1000.0,-427.734375
-540.52734375,-1000.0,-825.1953125,-622.55859375
301.7578125,-253.90625,495.1171875,-319.3359375
529.296875,999.51171875,999.51171875,129.39453125
-105.95703125,511.71875,345.703125,402.34375
-763.18359375,-889.16015625,-945.80078125,641.6015625
-516.6015625,-1000.0,-1000.0,876.953125
273.92578125,-114.74609375,47.36328125,971.19140625
530.76171875,999.51171875,999.51171875,960.44921875
-55.6640625,666.9921875,401.3671875,965.8203125
-757.8125,-670.41015625,-894.04296875,968.26171875
-684.5703125,-1000.0,-1000.0,954.1015625
59.08203125,-380.859375,-240.72265625,973.14453125
514.16015625,999.51171875,999.51171875,908.203125
-43.45703125,448.2421875,423.828125,439.94140625
-839.35546875,-965.8203125,-903.80859375,243.1640625
-780.2734375,-1000.0,-1000.0,487.3046875
-97.16796875,-1000.0,-478.515625,203.125
439.94140625,356.93359375,999.51171875,-34.1796875
70.3125,778.3203125,442.3828125,17.578125
-736.328125,-769.53125,-960.9375,-31.25
-807.12890625,-1000.0,-1000.0,4.39453125
-177.24609375,-562.98828125,-917.96875,51.26953125
434.5703125,903.80859375,587.40234375,32.71484375
161.62109375,869.62890625,433.59375,69.82421875
-709.9609375,-612.3046875,-1000.0,-113.28125
-861.328125,-1000.0,-933.10546875,-281.25
-233.88671875,-1000.0,-1000.0,-7.32421875
401.3671875,-24.90234375,-69.82421875,100.5859375
294.43359375,999.51171875,360.83984375,180.6640625
-524.90234375,-147.94921875,-1000.0,322.75390625
-772.4609375,-1000.0,-947.265625,434.5703125
-276.3671875,-1000.0,-1000.0,379.39453125
362.3046875,-256.34765625,-338.8671875,358.88671875
437.5,999.51171875,337.40234375,500.48828125
-422.36328125,166.9921875,-965.33203125,-61.5234375
-888.18359375,-1000.0,-983.88671875,-477.5390625
-366.69921875,-1000.0,-1000.0,82.03125
345.21484375,-255.859375,-447.75390625,-12.6953125
449.70703125,999.51171875,523.4375,-619.62890625
-270.5078125,165.52734375,-760.7421875,-346.6796875
-719.7265625,-1000.0,-1000.0,12.6953125
-412.109375,-1000.0,-1000.0,-365.72265625
307.12890625,-261.23046875,-399.4140625,-457.03125
694.82421875,999.51171875,999.51171875,118.1640625
-64.94140625,241.2109375,-157.71484375,264.6484375
-759.27734375,-1000.0,-1000.0,412.59765625
-430.6640625,-1000.0,-1000.0,777.83203125
324.70703125,-255.859375,-306.640625,972.16796875
644.53125,999.51171875,999.51171875,950.68359375
-13.671875,490.234375,169.43359375,980.95703125
-772.4609375,-887.20703125,-1000.0,903.80859375
-611.328125,-1000.0,-1000.0,794.921875
210.9375,-254.8828125,-272.94921875,639.16015625
684.08203125,999.51171875,999.51171875,640.13671875
113.76953125,621.58203125,388.671875,615.72265625
-742.67578125,-775.87890625,-942.3828125,220.703125
-664.0625,-1000.0,-1000.0,311.03515625
153.3203125,-179.19921875,-232.91015625,250.9765625
670.8984375,986.328125,999.51171875,202.1484375
292.96875,999.51171875,805.6640625,524.90234375
-519.04296875,-110.3515625,-583.49609375,842.7734375
-585.9375,-1000.0,-1000.0,947.265625
224.609375,-21.97265625,0.0,917.96875
731.4453125,986.328125,979.00390625,999.51171875
296.38671875,999.51171875,999.51171875,461.42578125
-552.734375,-45.8984375,-80.56640625,157.2265625
-741.2109375,-1000.0,-1000.0,474.12109375
-28.3203125,-388.671875,-189.453125,241.69921875
645.99609375,881.34765625,976.07421875,602.5390625
430.6640625,999.51171875,999.51171875,999.51171875
-400.87890625,349.12109375,200.68359375,953.61328125
-829.1015625,-1000.0,-1000.0,947.265625
-148.4375,-532.71484375,-251.46484375,961.42578125
639.6484375,861.328125,978.02734375,968.75
481.4453125,999.51171875,999.51171875,964.84375
-303.22265625,384.27734375,265.13671875,966.30859375
-767.08984375,-1000.0,-1000.0,966.30859375
-203.61328125,-620.60546875,-257.32421875,965.8203125
606.4453125,791.50390625,976.5625,966.30859375
555.6640625,999.51171875,999.51171875,965.8203125
-205.56640625,552.24609375,432.6171875,966.30859375
-783.69140625,-922.36328125,-1000.0,966.30859375
-340.8203125,-884.765625,-406.73828125,966.30859375
524.90234375,544.43359375,934.08203125,966.30859375
609.86328125,999.51171875,999.51171875,965.8203125
-149.90234375,677.734375,486.81640625,966.30859375
-836.42578125,-695.80078125,-1000.0,966.30859375
-513.671875,-1000.0,-760.7421875,965.8203125
349.12109375,233.3984375,649.90234375,966.30859375
551.7578125,999.51171875,999.51171875,966.30859375
-87.890625,896.484375,625.48828125,965.8203125
-849.12109375,-395.99609375,-824.21875,966.30859375
-666.9921875,-1000.0,-912.109375,966.30859375
250.9765625,189.94140625,522.4609375,965.8203125
490.72265625,999.51171875,999.51171875,966.30859375
-172.36328125,628.41796875,793.45703125,966.30859375
-825.68359375,-672.8515625,-676.26953125,966.30859375
-933.59375,-1000.0,-790.0390625,966.30859375
-973.6328125,-274.90234375,790.0390625,966.30859375
-1000.0,999.51171875,957.51953125,965.8203125
-996.58203125,935.05859375,999.51171875,976.5625
-1000.0,-362.3046875,24.90234375,892.578125
-1000.0,-1000.0,-623.046875,999.51171875
-1000.0,-195.80078125,902.34375,385.25390625
-1000.0,999.51171875,956.54296875,-1000.0
-1000.0,903.80859375,999.51171875,-907.71484375
-1000.0,-376.953125,167.96875,-491.2109375
-1000.0,-1000.0,-959.47265625,-191.89453125
-1000.0,-257.8125,488.28125,267.578125
-1000.0,989.74609375,999.51171875,651.85546875
-1000.0,999.51171875,999.51171875,673.33984375
-1000.0,-185.546875,192.87109375,515.13671875
-1000.0,-1000.0,-1000.0,536.1328125
-1000.0,-440.91796875,-148.92578125,746.09375
-1000.0,853.515625,999.51171875,948.2421875
-1000.0,999.51171875,999.51171875,937.5
-1000.0,197.265625,-23.4375,726.07421875
-1000.0,-1000.0,-1000.0,481.4453125
-1000.0,-592.7734375,-422.8515625,598.14453125
-1000.0,794.43359375,936.5234375,897.4609375
-1000.0,999.51171875,999.51171875,910.15625
-1000.0,194.3359375,-195.80078125,696.2890625
-1000.0,-1000.0,-1000.0,601.07421875
-1000.0,-241.69921875,-735.83984375,751.953125
-1000.0,986.81640625,611.81640625,926.26953125
-1000.0,999.51171875,999.51171875,981.4453125
-993.65234375,255.37109375,-130.859375,799.8046875
-956.54296875,-1000.0,-1000.0,577.63671875
-1000.0,-611.81640625,-828.61328125,656.73828125
-63.96484375,762.20703125,436.5234375,887.20703125
180.17578125,999.51171875,999.51171875,944.82421875
-1000.0,514.16015625,205.078125,651.3671875
-978.02734375,-819.3359375,-1000.0,472.16796875
-977.5390625,-1000.0,-658.69140625,-227.05078125
-943.84765625,28.3203125,733.3984375,-1000.0
262.20703125,999.51171875,999.51171875,-1000.0
999.51171875,924.31640625,966.796875,-890.13671875
920.41015625,953.125,-447.265625,-630.37109375
961.42578125,968.75,-397.94921875,-269.53125
967.7734375,966.30859375,999.51171875,162.109375
965.33203125,966.30859375,956.54296875,361.81640625
965.33203125,965.8203125,933.59375,200.1953125
965.33203125,965.8203125,974.12109375,135.7421875
973.14453125,965.8203125,966.30859375,255.37109375
932.6171875,966.30859375,965.8203125,483.88671875
965.8203125,966.30859375,965.8203125,702.63671875
976.07421875,966.30859375,966.30859375,625.48828125
-291.9921875,966.30859375,966.30859375,461.42578125
-1000.0,966.30859375,965.8203125,501.953125
-940.91796875,979.4921875,973.6328125,701.171875
-1000.0,894.04296875,925.29296875,815.4296875
-1000.0,999.51171875,999.51171875,708.49609375
-1000.0,671.38671875,734.86328125,524.4140625
-996.58203125,-296.875,350.5859375,497.0703125
-1000.0,691.89453125,927.24609375,677.734375
-948.2421875,999.51171875,937.01171875,810.546875
-885.25390625,999.51171875,999.51171875,700.1953125
-1000.0,599.609375,345.21484375,574.21875
-550.78125,-1000.0,-1000.0,107.421875
-167.96875,-322.265625,51.26953125,-343.75
-1000.0,990.234375,999.51171875,-210.9375
-369.62890625,999.51171875,999.51171875,-708.0078125
546.875,547.36328125,262.6953125,-1000.0
-1000.0,-1000.0,-1000.0,-972.16796875
-67.3828125,-465.8203125,-226.5625,-1000.0
335.9375,951.171875,999.51171875,-1000.0
-1000.0,999.51171875,999.51171875,-1000.0
-1000.0,131.34765625,179.19921875,-1000.0
-829.58984375,-1000.0,-1000.0,-994.62890625
461.9140625,-1000.0,-829.58984375,-999.0234375
999.51171875,223.6328125,545.41015625,-993.1640625
907.2265625,999.51171875,999.51171875,-734.375
972.16796875,160.64453125,-140.13671875,-471.19140625
901.85546875,-1000.0,-1000.0,-311.5234375
999.51171875,-1000.0,-1000.0,-14.16015625
191.40625,37.59765625,-141.11328125,350.5859375
-994.62890625,999.51171875,957.51953125,574.70703125
-32.71484375,258.7890625,-500.48828125,496.09375
775.390625,-918.45703125,-1000.0,414.0625
880.859375,-1000.0,-1000.0,562.5
988.28125,-236.328125,-739.74609375,805.17578125
960.9375,999.51171875,163.57421875,914.0625
333.0078125,107.421875,-680.17578125,749.51171875
229.00390625,-1000.0,-1000.0,544.43359375
-208.0078125,-916.015625,-947.265625,620.60546875
-927.24609375,-1000.0,-1000.0,856.4453125
-927.734375,-11.71875,-859.86328125,966.30859375
-1000.0,236.328125,-955.078125,867.67578125
-103.02734375,-1000.0,-1000.0,694.3359375
999.51171875,-1000.0,-989.74609375,696.77734375
111.328125,-970.21484375,-1000.0,858.3984375
-948.2421875,-1000.0,-1000.0,980.46875
429.6875,-1000.0,-1000.0,897.94921875
999.51171875,-972.16796875,-1000.0,699.70703125
753.90625,-989.74609375,-1000.0,648.92578125
713.37890625,-1000.0,-1000.0,741.69921875
313.96484375,252.9296875,-1000.0,865.234375
-949.70703125,230.46875,-1000.0,809.5703125
-1000.0,-1000.0,-1000.0,599.12109375
-914.55078125,-907.71484375,-1000.0,529.78515625
-1000.0,-1000.0,-1000.0,674.31640625
-954.1015625,-134.27734375,-1000.0,855.95703125
308.59375,741.2109375,-1000.0,806.15234375
999.51171875,-784.1796875,-1000.0,564.453125
906.73828125,-1000.0,-1000.0,449.70703125
966.796875,-1000.0,-1000.0,566.89453125
966.796875,-149.4140625,-1000.0,727.05078125
965.33203125,831.54296875,-1000.0,696.77734375
965.33203125,-684.5703125,-1000.0,502.9296875
965.33203125,-1000.0,-1000.0,390.625
965.33203125,-1000.0,-1000.0,508.7890625
965.33203125,-296.875,-1000.0,691.89453125
965.33203125,999.51171875,-1000.0,665.0390625
965.8203125,166.50390625,-1000.0,461.9140625
965.33203125,-1000.0,-1000.0,338.8671875
965.33203125,-1000.0,-1000.0,427.24609375
965.8203125,-250.0,-1000.0,619.62890625
965.33203125,999.51171875,-1000.0,652.34375
965.33203125,28.3203125,-1000.0,436.5234375
965.8203125,-1000.0,-948.2421875,272.94921875
965.33203125,-1000.0,-1000.0,343.26171875
965.33203125,-377.44140625,-807.12890625,543.9453125
965.33203125,999.51171875,-37.59765625,645.99609375
965.33203125,147.94921875,-744.140625,463.8671875
965.33203125,-1000.0,-1000.0,252.9296875
965.33203125,-1000.0,-1000.0,314.94140625
965.33203125,-244.62890625,-453.125,510.25390625
965.33203125,999.51171875,999.51171875,632.8125
965.8203125,339.84375,25.390625,456.54296875
965.8203125,-960.9375,-1000.0,198.2421875
965.8203125,-1000.0,-1000.0,238.28125
965.33203125,-324.70703125,-339.84375,456.0546875
965.33203125,999.51171875,999.51171875,572.75390625
965.33203125,496.09375,221.6796875,417.48046875
965.33203125,-888.671875,-1000.0,178.7109375
965.8203125,-1000.0,-1000.0,177.734375
965.33203125,-354.98046875,-230.95703125,384.765625
965.33203125,999.51171875,999.51171875,513.671875
