TP9,AF7,AF8,TP10
962.890625,999.51171875,999.51171875,-54.19921875
651.3671875,205.56640625,1.46484375,-46.875
358.3984375,-1000.0,-1000.0,-41.9921875
685.05859375,-795.8984375,-399.90234375,-36.1328125
980.95703125,566.40625,899.4140625,-39.0625
943.359375,999.51171875,999.51171875,-49.8046875
578.125,166.50390625,133.30078125,-46.38671875
241.2109375,-1000.0,-1000.0,-41.015625
534.66796875,-916.9921875,-579.58984375,-35.64453125
936.03515625,387.6953125,777.83203125,-34.1796875
941.40625,999.51171875,999.51171875,-33.203125
531.73828125,170.8984375,172.36328125,-28.80859375
159.66796875,-1000.0,-1000.0,-24.4140625
367.1875,-1000.0,-811.03515625,-27.83203125
826.66015625,77.1484375,522.4609375,-36.1328125
895.5078125,999.51171875,999.51171875,-40.0390625
458.0078125,308.59375,177.24609375,-41.50390625
76.66015625,-968.26171875,-1000.0,-32.71484375
231.4453125,-1000.0,-983.3984375,-23.4375
697.75390625,-47.8515625,247.55859375,-36.62109375
826.171875,999.51171875,999.51171875,-49.8046875
431.640625,421.38671875,244.62890625,-47.36328125
11.71875,-899.90234375,-992.1875,-41.9921875
90.33203125,-1000.0,-1000.0,-29.78515625
562.01171875,-226.5625,-7.8125,-25.87890625
764.16015625,999.51171875,999.51171875,-36.62109375
431.640625,714.35546875,411.62109375,-35.15625
-14.16015625,-660.15625,-902.34375,-31.25
-6.8359375,-1000.0,-1000.0,-31.73828125
474.12109375,-217.7734375,-152.34375,-38.57421875
735.83984375,999.51171875,999.51171875,-49.31640625
438.96484375,699.70703125,577.1484375,-49.8046875
-30.2734375,-670.8984375,-774.90234375,-48.828125
-89.35546875,-1000.0,-1000.0,-44.921875
368.65234375,-214.84375,-197.75390625,-43.9453125
687.5,962.40234375,999.51171875,-45.8984375
472.65625,999.51171875,875.0,-42.48046875
12.20703125,42.96875,-408.203125,-32.2265625
-151.85546875,-1000.0,-1000.0,-31.25
264.6484375,-447.265625,-207.03125,-33.203125
629.39453125,875.48828125,996.58203125,-45.8984375
449.21875,999.51171875,999.51171875,-60.546875
-13.671875,188.4765625,-106.4453125,-44.921875
-223.14453125,-1000.0,-1000.0,-28.80859375
147.4609375,-618.1640625,-312.98828125,-35.15625
561.03515625,770.01953125,942.3828125,-44.43359375
454.1015625,999.51171875,999.51171875,-42.48046875
-12.20703125,168.45703125,55.6640625,-35.64453125
-276.3671875,-1000.0,-1000.0,-33.203125
40.52734375,-925.78125,-516.11328125,-32.71484375
500.0,375.48828125,825.68359375,-31.73828125
472.65625,999.51171875,999.51171875,-39.55078125
8.30078125,194.82421875,141.11328125,-31.73828125
-303.7109375,-1000.0,-1000.0,-27.83203125
-26.3671875,-506.34765625,-626.953125,-37.59765625
453.125,866.2109375,733.88671875,-36.62109375
485.83984375,999.51171875,999.51171875,-35.64453125
58.59375,155.2734375,165.52734375,-33.69140625
-270.5078125,-1000.0,-1000.0,-16.11328125
-74.70703125,-1000.0,-921.38671875,-19.53125
375.48828125,-33.69140625,351.5625,-56.640625
484.375,999.51171875,999.51171875,-67.3828125
86.9140625,446.77734375,210.44921875,-61.03515625
-312.98828125,-916.50390625,-1000.0,-61.03515625
-188.4765625,-1000.0,-1000.0,-56.15234375
317.3828125,10.7421875,108.88671875,-49.8046875
500.0,999.51171875,999.51171875,-49.8046875
125.0,549.31640625,320.80078125,-61.5234375
-315.91796875,-791.9921875,-949.21875,-75.1953125
-275.390625,-1000.0,-1000.0,-77.63671875
268.5546875,-228.02734375,-112.3046875,-75.68359375
217.7734375,999.51171875,999.51171875,-63.4765625
-350.5859375,666.50390625,499.51171875,-48.33984375
-658.69140625,-717.7734375,-845.703125,-45.41015625
-620.1171875,-1000.0,-1000.0,-38.0859375
-210.9375,-168.9453125,-183.59375,-38.57421875
-72.265625,976.5625,999.51171875,-51.7578125
-273.92578125,999.51171875,831.0546875,-48.33984375
-592.28515625,49.31640625,-477.5390625,-45.8984375
-610.83984375,-1000.0,-1000.0,-49.31640625
-77.1484375,-317.3828125,-193.84765625,-48.828125
334.47265625,958.49609375,999.51171875,-53.22265625
194.82421875,999.51171875,924.8046875,-51.7578125
-522.94921875,12.20703125,-316.40625,-44.921875
-1000.0,-1000.0,-1000.0,-41.9921875
-982.91015625,-932.12890625,-282.2265625,-39.0625
-992.67578125,325.68359375,965.33203125,-41.9921875
-1000.0,999.51171875,999.51171875,-49.8046875
-1000.0,111.328125,-80.078125,-46.875
-1000.0,-1000.0,-1000.0,-45.8984375
-1000.0,-700.1953125,-376.46484375,-52.24609375
-1000.0,665.52734375,908.203125,-49.8046875
-1000.0,999.51171875,999.51171875,-50.29296875
-977.05078125,160.15625,98.6328125,-49.31640625
-1000.0,-1000.0,-1000.0,-39.55078125
-930.17578125,-977.5390625,-633.30078125,-44.921875
-428.22265625,258.30078125,720.21484375,-55.6640625
-738.76953125,999.51171875,999.51171875,-57.6171875
-1000.0,391.6015625,168.45703125,-55.6640625
-970.21484375,-952.1484375,-1000.0,-42.48046875
-1000.0,-1000.0,-832.51953125,-40.0390625
-1000.0,168.9453125,495.1171875,-46.875
-1000.0,999.51171875,999.51171875,-45.8984375
-1000.0,235.83984375,165.0390625,-50.29296875
-1000.0,-968.75,-1000.0,-47.36328125
-1000.0,-1000.0,-1000.0,-41.50390625
-1000.0,-236.328125,165.0390625,-43.45703125
-1000.0,999.51171875,999.51171875,-39.55078125
-959.9609375,723.14453125,275.87890625,-41.015625
-1000.0,-682.6171875,-981.4453125,-44.921875
-756.34765625,-1000.0,-1000.0,-36.1328125
458.49609375,44.921875,-16.6015625,-42.96875
999.51171875,999.51171875,999.51171875,-55.6640625
925.29296875,999.51171875,536.62109375,-46.38671875
964.35546875,237.3046875,-799.8046875,-32.71484375
967.28515625,-1000.0,-1000.0,-29.78515625
965.33203125,-225.09765625,-166.9921875,-32.2265625
965.33203125,999.51171875,999.51171875,-36.1328125
965.33203125,999.51171875,639.6484375,-39.55078125
965.8203125,-93.26171875,-716.30859375,-38.57421875
965.8203125,-1000.0,-1000.0,-26.3671875
965.8203125,-187.01171875,-204.1015625,-19.53125
965.33203125,999.51171875,999.51171875,-28.3203125
965.33203125,999.51171875,807.6171875,-35.64453125
965.33203125,-86.9140625,-511.71875,-34.66796875
965.33203125,-1000.0,-1000.0,-27.83203125
965.33203125,-161.62109375,-185.546875,-32.2265625
965.33203125,981.93359375,999.51171875,-36.1328125
965.33203125,999.51171875,999.51171875,-34.1796875
965.33203125,221.6796875,-107.91015625,-38.0859375
965.33203125,-1000.0,-1000.0,-33.203125
965.8203125,-693.359375,-333.984375,-34.66796875
965.33203125,690.91796875,930.17578125,-31.73828125
965.33203125,999.51171875,999.51171875,-27.34375
965.33203125,175.29296875,75.68359375,-41.9921875
965.33203125,-1000.0,-1000.0,-50.29296875
965.33203125,-872.0703125,-511.23046875,-42.48046875
965.33203125,460.9375,830.078125,-31.25
965.33203125,999.51171875,999.51171875,-35.64453125
965.33203125,143.06640625,145.99609375,-27.83203125
965.33203125,-1000.0,-1000.0,-14.6484375
965.33203125,-1000.0,-757.32421875,-20.99609375
965.33203125,87.40234375,588.37890625,-24.90234375
965.33203125,999.51171875,999.51171875,-28.3203125
965.33203125,345.703125,160.64453125,-27.83203125
965.8203125,-931.640625,-1000.0,-21.484375
968.26171875,-1000.0,-960.9375,-25.390625
951.66015625,-145.5078125,279.78515625,-36.1328125
977.5390625,999.51171875,999.51171875,-36.62109375
929.19921875,901.3671875,259.765625,-37.59765625
459.47265625,-354.4921875,-994.62890625,-39.55078125
541.50390625,-1000.0,-1000.0,-30.2734375
-264.6484375,-363.76953125,55.17578125,-28.80859375
-751.46484375,999.51171875,999.51171875,-42.96875
58.59375,689.94140625,338.37890625,-40.0390625
-43.9453125,-725.09765625,-941.40625,-27.34375
-653.80859375,-1000.0,-1000.0,-26.3671875
-243.1640625,-230.95703125,-141.11328125,-36.62109375
533.203125,999.51171875,999.51171875,-46.38671875
348.6328125,778.3203125,531.73828125,-38.57421875
91.30859375,-583.0078125,-820.3125,-25.390625
331.54296875,-1000.0,-1000.0,-27.34375
876.46484375,-167.48046875,-187.01171875,-35.15625
980.46875,981.93359375,999.51171875,-43.9453125
948.2421875,999.51171875,775.390625,-44.921875
968.26171875,20.5078125,-551.7578125,-39.55078125
965.8203125,-1000.0,-1000.0,-34.66796875
965.33203125,-238.76953125,-187.5,-38.57421875
965.33203125,967.28515625,999.51171875,-50.78125
965.33203125,999.51171875,972.65625,-47.8515625
965.33203125,214.84375,-221.19140625,-45.8984375
965.33203125,-1000.0,-1000.0,-45.8984375
965.33203125,-529.296875,-254.8828125,-42.96875
965.33203125,850.5859375,965.33203125,-49.8046875
965.33203125,999.51171875,999.51171875,-62.98828125
965.33203125,180.17578125,25.390625,-62.01171875
965.8203125,-1000.0,-1000.0,-54.19921875
967.7734375,-903.3203125,-436.03515625,-46.38671875
953.125,408.203125,881.8359375,-38.57421875
994.140625,999.51171875,999.51171875,-45.8984375
848.14453125,159.66796875,134.27734375,-40.0390625
618.65234375,-985.83984375,-1000.0,-35.15625
458.49609375,-1000.0,-649.90234375,-41.015625
-586.9140625,-262.20703125,709.47265625,-46.38671875
-1000.0,999.51171875,999.51171875,-57.12890625
-947.75390625,371.58203125,171.875,-58.59375
-986.81640625,-977.05078125,-1000.0,-48.33984375
-1000.0,-1000.0,-860.83984375,-49.8046875
-706.54296875,-62.01171875,454.58984375,-57.6171875
-108.88671875,999.51171875,999.51171875,-60.546875
-61.03515625,321.2890625,170.8984375,-62.5
-106.93359375,-985.83984375,-1000.0,-55.6640625
369.140625,-1000.0,-1000.0,-47.8515625
930.17578125,-2.9296875,184.08203125,-48.828125
848.14453125,999.51171875,999.51171875,-50.29296875
-22.4609375,415.0390625,271.484375,-51.7578125
-880.37109375,-932.6171875,-991.2109375,-47.36328125
-756.8359375,-1000.0,-1000.0,-49.8046875
281.25,49.8046875,33.203125,-54.6875
928.7109375,999.51171875,999.51171875,-51.26953125
934.08203125,919.921875,454.58984375,-41.015625
396.97265625,-293.9453125,-867.1875,-42.96875
42.96875,-1000.0,-1000.0,-52.734375
683.10546875,-141.6015625,-145.5078125,-45.8984375
999.51171875,999.51171875,999.51171875,-43.9453125
954.1015625,999.51171875,660.15625,-45.8984375
894.04296875,-101.5625,-685.05859375,-44.43359375
884.765625,-1000.0,-1000.0,-42.96875
975.5859375,-227.5390625,-197.75390625,-36.62109375
948.2421875,979.98046875,999.51171875,-38.0859375
992.1875,999.51171875,872.55859375,-45.8984375
794.43359375,31.25,-409.66796875,-38.57421875
398.92578125,-1000.0,-1000.0,-27.83203125
161.62109375,-699.70703125,-228.515625,-19.04296875
-394.53125,688.96484375,995.60546875,-25.87890625
-923.33984375,999.51171875,999.51171875,-37.109375
-1000.0,-80.078125,-147.94921875,-38.57421875
-987.79296875,-1000.0,-1000.0,-31.73828125
-1000.0,-313.4765625,-264.16015625,-33.69140625
-1000.0,927.734375,953.125,-39.55078125
-1000.0,999.51171875,999.51171875,-28.80859375
-1000.0,158.69140625,117.1875,-33.203125
-1000.0,-1000.0,-1000.0,-37.109375
-1000.0,-1000.0,-568.359375,-40.0390625
-1000.0,-73.73046875,787.109375,-48.828125
-1000.0,999.51171875,999.51171875,-47.36328125
-1000.0,161.1328125,148.92578125,-38.0859375
-1000.0,-1000.0,-1000.0,-30.76171875
-992.1875,-1000.0,-771.97265625,-36.1328125
-1000.0,-22.4609375,572.75390625,-41.9921875
-948.2421875,999.51171875,999.51171875,-41.015625
-668.45703125,411.62109375,169.43359375,-43.45703125
-265.625,-1000.0,-1000.0,-49.31640625
481.4453125,-516.11328125,-854.4921875,-52.24609375
984.375,879.8828125,458.984375,-53.7109375
949.70703125,999.51171875,999.51171875,-53.7109375
960.9375,562.98828125,198.2421875,-44.43359375
951.171875,-774.90234375,-1000.0,-40.52734375
946.2890625,-1000.0,-1000.0,-38.57421875
968.75,-55.6640625,54.6875,-36.1328125
964.84375,999.51171875,999.51171875,-34.1796875
965.33203125,815.91796875,342.7734375,-33.203125
965.8203125,-485.3515625,-941.40625,-38.0859375
964.84375,-1000.0,-1000.0,-34.66796875
952.63671875,-171.875,-118.1640625,-37.109375
999.51171875,999.51171875,999.51171875,-44.43359375
790.52734375,991.69921875,591.796875,-40.0390625
575.1953125,-216.30859375,-757.32421875,-34.66796875
851.5625,-1000.0,-1000.0,-19.53125
987.79296875,-196.77734375,-195.80078125,-16.6015625
954.1015625,969.7265625,999.51171875,-28.3203125
965.33203125,999.51171875,821.2890625,-37.109375
965.8203125,137.20703125,-490.72265625,-37.109375
965.8203125,-1000.0,-1000.0,-35.64453125
965.33203125,-316.89453125,-188.4765625,-41.9921875
965.33203125,945.80078125,999.51171875,-42.96875
968.75,999.51171875,999.51171875,-41.015625
951.66015625,252.9296875,-158.203125,-38.57421875
958.984375,-1000.0,-1000.0,-33.69140625
973.14453125,-704.1015625,-292.48046875,-33.69140625
317.87109375,799.8046875,973.6328125,-32.71484375
-252.9296875,999.51171875,999.51171875,-40.52734375
-689.94140625,-345.21484375,-99.609375,-54.6875
-949.70703125,-1000.0,-1000.0,-54.19921875
-138.18359375,-794.921875,-437.98828125,-43.9453125
719.23828125,465.33203125,866.69921875,-42.48046875
785.64453125,999.51171875,999.51171875,-47.8515625
675.78125,166.015625,130.859375,-43.45703125
92.7734375,-1000.0,-1000.0,-34.66796875
-926.26953125,-1000.0,-612.79296875,-28.80859375
-1000.0,45.8984375,747.0703125,-34.66796875
-963.37890625,999.51171875,999.51171875,-39.0625
-1000.0,26.3671875,145.99609375,-40.52734375
-1000.0,-1000.0,-1000.0,-50.29296875
-1000.0,-1000.0,-891.11328125,-41.9921875
-1000.0,-230.95703125,401.85546875,-37.109375
-1000.0,999.51171875,999.51171875,-48.33984375
-1000.0,366.69921875,178.7109375,-51.7578125
-1000.0,-952.63671875,-1000.0,-49.31640625
-1000.0,-1000.0,-1000.0,-43.9453125
-1000.0,-232.421875,129.39453125,-41.015625
-1000.0,999.51171875,999.51171875,-43.45703125
-1000.0,657.2265625,302.24609375,-43.9453125
-1000.0,-724.609375,-961.42578125,-37.109375
-1000.0,-1000.0,-1000.0,-29.296875
-1000.0,-237.79296875,-86.42578125,-34.66796875
-1000.0,999.51171875,999.51171875,-45.41015625
-1000.0,656.25,445.80078125,-35.64453125
-1000.0,-732.421875,-882.8125,-29.296875
-948.73046875,-1000.0,-1000.0,-29.78515625
-1000.0,-148.92578125,-179.19921875,-33.69140625
-683.59375,946.77734375,999.51171875,-41.9921875
626.46484375,999.51171875,727.05078125,-46.38671875
999.51171875,397.94921875,-619.140625,-43.9453125
882.8125,-1000.0,-1000.0,-39.0625
999.51171875,28.3203125,-177.734375,-38.0859375
-155.76171875,999.51171875,999.51171875,-43.45703125
-282.2265625,999.51171875,904.296875,-43.9453125
999.51171875,237.3046875,-353.515625,-40.52734375
951.171875,-1000.0,-1000.0,-44.43359375
887.6953125,-316.89453125,-217.7734375,-43.45703125
999.51171875,999.51171875,999.0234375,-36.62109375
38.57421875,999.51171875,999.51171875,-39.0625
-1000.0,-104.4921875,-129.39453125,-45.41015625
-1000.0,-1000.0,-1000.0,-39.55078125
-818.84765625,-589.35546875,-334.47265625,-36.1328125
439.453125,722.16796875,919.921875,-43.9453125
999.51171875,999.51171875,999.51171875,-50.29296875
914.55078125,424.31640625,138.18359375,-55.17578125
968.26171875,-1000.0,-1000.0,-57.6171875
966.30859375,-577.63671875,-516.6015625,-56.640625
965.33203125,841.30859375,832.03125,-54.19921875
976.5625,999.51171875,999.51171875,-48.828125
884.765625,366.69921875,161.62109375,-51.7578125
999.51171875,-896.484375,-1000.0,-49.8046875
286.62109375,-1000.0,-817.87109375,-43.45703125
-390.13671875,-247.55859375,510.7421875,-48.33984375
914.55078125,999.51171875,999.51171875,-56.15234375
999.51171875,555.17578125,169.921875,-57.12890625
910.64453125,-868.1640625,-1000.0,-55.6640625
977.05078125,-1000.0,-964.84375,-49.31640625
965.33203125,18.5546875,271.97265625,-49.8046875
965.33203125,999.51171875,999.51171875,-50.78125
965.33203125,914.0625,287.59765625,-45.41015625
965.8203125,-313.96484375,-981.4453125,-30.2734375
965.8203125,-1000.0,-1000.0,-28.80859375
965.33203125,-188.96484375,46.875,-41.50390625
965.33203125,999.51171875,999.51171875,-46.875
965.33203125,651.3671875,351.07421875,-44.43359375
980.46875,-724.609375,-933.10546875,-46.875
887.20703125,-1000.0,-1000.0,-51.26953125
999.51171875,-232.91015625,-164.55078125,-54.6875
548.828125,999.51171875,999.51171875,-57.6171875
-653.3203125,460.9375,552.734375,-47.8515625
416.9921875,-906.25,-804.19921875,-41.50390625
999.51171875,-1000.0,-1000.0,-41.50390625
905.76171875,-180.17578125,-185.546875,-46.38671875
899.90234375,975.5859375,999.51171875,-53.7109375
999.51171875,999.51171875,837.40234375,-52.24609375
328.125,55.6640625,-468.26171875,-47.8515625
-1000.0,-1000.0,-1000.0,-40.0390625
-1000.0,-239.2578125,-188.4765625,-29.296875
154.296875,975.09765625,999.51171875,-30.2734375
999.51171875,999.51171875,961.42578125,-65.4296875
928.7109375,176.7578125,-240.72265625,-82.03125
969.7265625,-1000.0,-1000.0,-62.5
895.5078125,-562.98828125,-273.92578125,-69.82421875
999.51171875,929.6875,965.8203125,-89.84375
536.62109375,972.65625,999.51171875,-109.86328125
-899.90234375,-440.91796875,-40.0390625,-107.421875
-1000.0,-1000.0,-1000.0,-104.98046875
-945.3125,-1000.0,-461.9140625,-123.53515625
-1000.0,-121.58203125,849.12109375,-124.51171875
-1000.0,999.51171875,999.51171875,-126.953125
-1000.0,217.7734375,162.59765625,-138.671875
-954.1015625,-1000.0,-1000.0,-125.48828125
-1000.0,-1000.0,-668.45703125,-117.1875
-638.671875,60.05859375,696.77734375,-127.44140625
601.07421875,999.51171875,999.51171875,-127.9296875
999.51171875,583.49609375,175.29296875,-121.58203125
925.78125,-965.8203125,-1000.0,-108.3984375
967.28515625,-752.44140625,-820.80078125,-93.75
966.30859375,755.859375,505.859375,-93.75
965.33203125,999.51171875,999.51171875,-94.7265625
965.33203125,940.91796875,197.75390625,-88.8671875
965.33203125,-198.73046875,-1000.0,-88.37890625
965.33203125,-1000.0,-1000.0,-74.70703125
965.33203125,-183.10546875,124.0234375,-66.89453125
965.33203125,999.51171875,999.51171875,-70.3125
965.33203125,578.125,270.99609375,-63.4765625
965.8203125,-802.734375,-976.5625,-57.6171875
965.8203125,-1000.0,-1000.0,-52.734375
965.8203125,-194.3359375,-85.44921875,-50.29296875
965.33203125,999.51171875,999.51171875,-55.17578125
965.33203125,957.51953125,498.046875,-53.22265625
965.33203125,-319.3359375,-849.609375,-39.55078125
965.8203125,-1000.0,-1000.0,-38.0859375
965.33203125,-72.265625,-141.11328125,-46.38671875
965.33203125,999.51171875,999.51171875,-44.43359375
965.33203125,953.125,683.59375,-42.48046875
965.8203125,-249.0234375,-657.71484375,-43.45703125
965.8203125,-1000.0,-1000.0,-43.45703125
965.8203125,-291.50390625,-196.2890625,-48.828125
965.8203125,939.453125,999.51171875,-56.640625
965.33203125,999.51171875,918.45703125,-53.22265625
966.30859375,59.5703125,-336.42578125,-42.96875
964.35546875,-1000.0,-1000.0,-36.62109375
906.73828125,-311.03515625,-207.03125,-37.59765625
999.51171875,957.51953125,988.28125,-45.8984375
154.296875,999.51171875,999.51171875,-51.7578125
-1000.0,26.85546875,-38.57421875,-49.31640625
-980.95703125,-1000.0,-1000.0,-36.1328125
-975.09765625,-1000.0,-387.6953125,-25.390625
-1000.0,-68.359375,909.66796875,-29.78515625
-1000.0,999.51171875,999.51171875,-33.203125
-1000.0,-4.8828125,71.2890625,-35.64453125
-1000.0,-1000.0,-1000.0,-31.25
-1000.0,-1000.0,-579.1015625,-26.3671875
-1000.0,25.87890625,771.484375,-36.62109375
-1000.0,999.51171875,999.51171875,-40.0390625
-1000.0,137.20703125,144.53125,-30.76171875
-1000.0,-1000.0,-1000.0,-26.85546875
-1000.0,-1000.0,-828.61328125,-36.62109375
-1000.0,-200.68359375,493.1640625,-54.19921875
-1000.0,999.51171875,999.51171875,-57.6171875
-1000.0,276.85546875,162.109375,-47.36328125
-1000.0,-995.1171875,-1000.0,-46.875
-1000.0,-1000.0,-983.88671875,-47.8515625
-1000.0,-201.171875,241.69921875,-46.875
-1000.0,999.51171875,999.51171875,-41.015625
-1000.0,474.609375,230.95703125,-32.2265625
-1000.0,-907.71484375,-1000.0,-33.69140625
-1000.0,-1000.0,-1000.0,-33.203125
-1000.0,-94.7265625,39.55078125,-28.80859375
-1000.0,999.51171875,999.51171875,-28.80859375
-1000.0,711.9140625,380.37109375,-25.87890625
-1000.0,-631.8359375,-917.96875,-21.97265625
-1000.0,-1000.0,-1000.0,-18.5546875
-1000.0,-184.08203125,-160.15625,-11.71875
-1000.0,999.51171875,999.51171875,-13.671875
-1000.0,999.51171875,614.74609375,-26.85546875
-1000.0,-193.359375,-741.69921875,-37.109375
-1000.0,-1000.0,-1000.0,-36.62109375
-1000.0,-199.21875,-190.4296875,-37.59765625
-1000.0,961.42578125,999.51171875,-38.57421875
-1000.0,999.51171875,901.85546875,-38.57421875
-1000.0,209.47265625,-366.69921875,-36.1328125
-1000.0,-1000.0,-1000.0,-29.78515625
-1000.0,-252.44140625,-192.3828125,-25.390625
-1000.0,999.0234375,999.51171875,-24.90234375
-1000.0,999.51171875,962.890625,-38.57421875
-1000.0,97.16796875,-236.328125,-47.8515625
-1000.0,-1000.0,-1000.0,-43.45703125
-1000.0,-478.02734375,-273.4375,-37.109375
-1000.0,863.28125,957.51953125,-35.64453125
-1000.0,999.51171875,999.51171875,-37.59765625
-1000.0,196.77734375,19.53125,-36.62109375
-1000.0,-1000.0,-1000.0,-38.57421875
-1000.0,-767.08984375,-452.63671875,-43.9453125
-1000.0,604.4921875,868.1640625,-43.9453125
-1000.0,999.51171875,999.51171875,-51.7578125
-1000.0,151.85546875,140.625,-55.6640625
-1000.0,-1000.0,-1000.0,-43.9453125
-1000.0,-1000.0,-680.17578125,-38.57421875
-1000.0,178.22265625,676.26953125,-44.921875
-1000.0,999.51171875,999.51171875,-54.19921875
-930.17578125,239.74609375,164.0625,-56.15234375
-1000.0,-1000.0,-1000.0,-43.9453125
-416.015625,-817.3828125,-888.671875,-34.66796875
999.51171875,526.3671875,411.1328125,-44.921875
593.75,999.51171875,999.51171875,-50.78125
46.875,493.65234375,182.12890625,-49.31640625
690.91796875,-852.5390625,-1000.0,-46.875
999.51171875,-1000.0,-1000.0,-47.8515625
936.03515625,107.421875,125.48828125,-47.8515625
966.30859375,999.51171875,999.51171875,-49.31640625
965.8203125,996.58203125,328.61328125,-52.24609375
965.8203125,-146.97265625,-954.58984375,-43.45703125
965.8203125,-1000.0,-1000.0,-34.66796875
965.33203125,-4.39453125,-40.52734375,-35.15625
965.8203125,999.51171875,999.51171875,-46.875
965.8203125,999.51171875,563.96484375,-50.29296875
965.33203125,63.96484375,-776.3671875,-40.52734375
965.33203125,-1000.0,-1000.0,-31.25
965.8203125,-184.5703125,-177.24609375,-34.1796875
965.33203125,994.140625,999.51171875,-52.734375
965.33203125,999.51171875,708.0078125,-65.91796875
965.8203125,166.015625,-635.7421875,-62.5
965.8203125,-1000.0,-1000.0,-49.31640625
965.33203125,-259.765625,-197.75390625,-41.9921875
965.33203125,989.74609375,999.51171875,-43.45703125
965.33203125,999.51171875,915.0390625,-44.921875
965.33203125,88.37890625,-340.33203125,-32.71484375
965.8203125,-1000.0,-1000.0,-6.34765625
965.33203125,-187.01171875,-205.56640625,-13.671875
965.33203125,993.65234375,995.60546875,-36.62109375
965.33203125,999.51171875,999.51171875,-33.69140625
965.33203125,200.1953125,-74.70703125,-25.87890625
965.33203125,-1000.0,-1000.0,-23.92578125
965.33203125,-810.05859375,-385.7421875,-23.4375
965.33203125,536.62109375,899.90234375,-21.484375
965.33203125,999.51171875,999.51171875,-21.97265625
965.33203125,207.51953125,128.41796875,-21.97265625
965.8203125,-1000.0,-1000.0,-15.625
965.8203125,-903.3203125,-582.51953125,-1.953125
965.8203125,427.734375,776.3671875,0.9765625
965.33203125,999.51171875,999.51171875,1.46484375
965.33203125,147.94921875,163.57421875,1.953125
965.8203125,-1000.0,-1000.0,7.32421875
965.8203125,-1000.0,-781.73828125,14.6484375
965.8203125,152.34375,561.5234375,5.859375
965.33203125,999.51171875,999.51171875,-4.39453125
965.33203125,318.359375,168.45703125,-1.953125
965.8203125,-956.0546875,-1000.0,4.8828125
965.33203125,-1000.0,-984.86328125,6.8359375
965.33203125,-26.3671875,236.81640625,2.44140625
965.33203125,999.51171875,999.51171875,-3.90625
965.33203125,893.06640625,291.015625,-5.859375
965.8203125,-349.12109375,-967.28515625,-9.765625
965.8203125,-1000.0,-1000.0,-16.11328125
965.33203125,-213.37890625,-33.203125,-23.92578125
965.33203125,999.51171875,999.51171875,-29.296875
965.8203125,762.20703125,381.8359375,-26.3671875
965.33203125,-595.703125,-924.8046875,-20.01953125
965.8203125,-1000.0,-1000.0,-17.578125
965.8203125,-202.1484375,-161.62109375,-10.25390625
965.33203125,999.51171875,999.51171875,-13.671875
965.33203125,875.9765625,592.28515625,-27.83203125
967.28515625,-436.03515625,-764.6484375,-26.3671875
959.9609375,-1000.0,-1000.0,-23.92578125
913.57421875,-228.515625,-190.91796875,-26.85546875
999.51171875,999.51171875,999.51171875,-28.3203125
89.84375,441.89453125,770.99609375,-27.34375
-1000.0,-912.109375,-557.6171875,-14.16015625
-974.12109375,-1000.0,-1000.0,-1.953125
-928.7109375,-732.421875,-211.42578125,-20.01953125
-1000.0,562.98828125,999.51171875,-39.55078125
-412.59765625,999.51171875,954.58984375,-40.52734375
831.54296875,196.77734375,-254.8828125,-34.1796875
987.3046875,-1000.0,-1000.0,-33.69140625
929.6875,-531.73828125,-308.10546875,-34.1796875
971.6796875,852.05078125,940.4296875,-40.52734375
965.33203125,999.51171875,999.51171875,-50.29296875
965.33203125,193.359375,23.92578125,-55.6640625
965.33203125,-1000.0,-1000.0,-48.828125
965.8203125,-773.4375,-479.98046875,-41.50390625
965.33203125,596.6796875,849.609375,-46.38671875
965.33203125,999.51171875,999.51171875,-52.24609375
965.33203125,157.71484375,133.30078125,-55.6640625
965.33203125,-1000.0,-1000.0,-50.78125
965.8203125,-974.609375,-685.05859375,-32.71484375
973.6328125,268.5546875,669.43359375,-33.69140625
925.78125,999.51171875,999.51171875,-51.7578125
999.51171875,653.80859375,170.8984375,-44.43359375
750.9765625,-642.578125,-1000.0,-38.0859375
-264.6484375,-1000.0,-901.3671875,-48.33984375
-901.85546875,-219.7265625,389.6484375,-46.875
-988.76953125,999.51171875,999.51171875,-50.29296875
-945.80078125,186.5234375,189.94140625,-55.17578125
-1000.0,-1000.0,-1000.0,-50.29296875
-239.74609375,-1000.0,-1000.0,-42.96875
882.32421875,-4.39453125,125.48828125,-42.48046875
999.51171875,999.51171875,999.51171875,-43.45703125
3.90625,273.92578125,310.05859375,-49.8046875
-640.625,-1000.0,-963.37890625,-55.6640625
713.37890625,-1000.0,-1000.0,-51.26953125
999.51171875,63.4765625,-46.38671875,-57.12890625
865.72265625,999.51171875,999.51171875,-64.453125
-220.703125,778.3203125,558.59375,-64.453125
-1000.0,-499.51171875,-779.296875,-58.59375
-964.84375,-1000.0,-1000.0,-48.33984375
-977.05078125,-240.234375,-178.7109375,-47.36328125
-1000.0,991.2109375,999.51171875,-40.52734375
-855.95703125,999.51171875,741.2109375,-30.76171875
-283.69140625,-188.96484375,-599.609375,-37.109375
520.01953125,-1000.0,-1000.0,-33.69140625
966.796875,-195.3125,-195.3125,-28.3203125
927.24609375,999.51171875,999.51171875,-36.1328125
-146.484375,965.8203125,926.26953125,-37.59765625
-1000.0,-266.11328125,-318.84765625,-34.1796875
-969.23828125,-1000.0,-1000.0,-35.15625
-987.3046875,-804.19921875,-251.46484375,-40.0390625
-1000.0,464.84375,971.6796875,-44.921875
-1000.0,999.51171875,999.51171875,-42.48046875
-1000.0,126.46484375,-43.45703125,-43.45703125
-1000.0,-1000.0,-1000.0,-47.8515625
-1000.0,-818.359375,-391.6015625,-52.734375
-1000.0,501.46484375,895.01953125,-57.12890625
-1000.0,999.51171875,999.51171875,-54.6875
-1000.0,339.35546875,158.203125,-53.7109375
-1000.0,-955.56640625,-1000.0,-48.33984375
-1000.0,-1000.0,-630.859375,-47.8515625
-1000.0,100.5859375,736.81640625,-59.5703125
-1000.0,999.51171875,999.51171875,-59.08203125
-1000.0,148.4375,151.85546875,-58.59375
-1000.0,-1000.0,-1000.0,-66.89453125
-1000.0,-1000.0,-825.1953125,-67.87109375
-1000.0,12.20703125,498.53515625,-65.91796875
-1000.0,999.51171875,999.51171875,-60.546875
-1000.0,380.859375,176.26953125,-53.7109375
-1000.0,-958.49609375,-1000.0,-48.828125
-1000.0,-1000.0,-964.35546875,-45.41015625
-1000.0,66.40625,279.296875,-46.38671875
-1000.0,999.51171875,999.51171875,-50.78125
-1000.0,455.56640625,230.46875,-52.24609375
-944.82421875,-866.69921875,-988.28125,-51.7578125
-1000.0,-1000.0,-1000.0,-43.9453125
-662.59765625,-171.875,-67.3828125,-41.9921875
671.875,966.30859375,999.51171875,-52.24609375
999.51171875,999.51171875,419.43359375,-58.10546875
878.90625,130.859375,-902.83203125,-51.26953125
980.46875,-1000.0,-1000.0,-40.0390625
964.35546875,-144.53125,-145.99609375,-40.0390625
-334.47265625,999.51171875,999.51171875,-32.71484375
-1000.0,999.51171875,682.12890625,-31.73828125
-897.94921875,-102.5390625,-661.1328125,-29.78515625
-1000.0,-1000.0,-1000.0,-21.97265625
-854.00390625,-419.43359375,-202.1484375,-22.4609375
389.16015625,871.58203125,999.51171875,-30.76171875
999.51171875,999.51171875,845.703125,-41.9921875
918.45703125,194.3359375,-456.54296875,-42.48046875
965.33203125,-1000.0,-1000.0,-41.50390625
966.796875,-255.859375,-205.078125,-47.36328125
965.33203125,977.5390625,999.51171875,-51.7578125
965.33203125,999.51171875,997.55859375,-46.875
965.33203125,297.36328125,-161.62109375,-42.48046875
963.8671875,-1000.0,-1000.0,-51.7578125
967.28515625,-604.00390625,-319.82421875,-58.10546875
906.25,805.6640625,938.4765625,-57.6171875
999.51171875,999.51171875,999.51171875,-55.17578125
219.7265625,198.73046875,38.0859375,-54.19921875
-1000.0,-1000.0,-1000.0,-42.96875
-272.94921875,-651.3671875,-475.5859375,-26.85546875
999.51171875,739.2578125,854.00390625,-31.25
954.58984375,999.51171875,999.51171875,-45.8984375
933.10546875,203.125,142.08984375,-41.9921875
974.12109375,-1000.0,-1000.0,-26.85546875
965.33203125,-834.47265625,-683.59375,-32.71484375
965.33203125,500.9765625,673.33984375,-48.828125
965.33203125,999.51171875,999.51171875,-54.19921875
965.8203125,328.125,165.0390625,-54.19921875
965.8203125,-968.26171875,-1000.0,-47.8515625
965.8203125,-1000.0,-917.96875,-27.34375
965.33203125,129.8828125,362.3046875,-21.484375
965.33203125,999.51171875,999.51171875,-34.1796875
965.33203125,437.98828125,197.75390625,-42.96875
965.8203125,-874.51171875,-1000.0,-41.015625
965.8203125,-1000.0,-1000.0,-43.9453125
965.33203125,-190.91796875,73.2421875,-54.19921875
965.8203125,999.51171875,999.51171875,-52.734375
965.8203125,693.84765625,318.84765625,-55.17578125
903.3203125,-673.33984375,-956.0546875,-50.29296875
999.51171875,-1000.0,-1000.0,-41.50390625
177.734375,-228.515625,-97.16796875,-41.9921875
-1000.0,999.51171875,999.51171875,-36.62109375
-982.91015625,334.47265625,480.46875,-41.015625
-973.6328125,-970.21484375,-858.3984375,-37.59765625
-1000.0,-1000.0,-1000.0,-26.3671875
-1000.0,-222.65625,-186.03515625,-32.2265625
-998.046875,999.51171875,999.51171875,-39.0625
-950.68359375,983.3984375,741.69921875,-39.0625
-1000.0,-224.609375,-595.703125,-43.45703125
-283.69140625,-1000.0,-1000.0,-41.9921875
935.05859375,-216.796875,-197.265625,-42.96875
970.703125,958.0078125,999.51171875,-46.875
933.10546875,999.51171875,935.546875,-48.828125
973.14453125,183.10546875,-304.19921875,-48.33984375
965.8203125,-1000.0,-1000.0,-44.43359375
965.8203125,-292.48046875,-233.3984375,-44.43359375
965.33203125,964.35546875,975.09765625,-56.15234375
965.33203125,999.51171875,999.51171875,-56.15234375
965.33203125,214.84375,-15.13671875,-46.38671875
965.8203125,-1000.0,-1000.0,-44.921875
965.8203125,-212.40234375,-316.89453125,-40.52734375
965.33203125,999.0234375,939.453125,-47.8515625
965.33203125,999.51171875,999.51171875,-49.8046875
965.33203125,196.77734375,126.46484375,-41.015625
965.8203125,-1000.0,-1000.0,-36.62109375
965.8203125,-969.23828125,-615.234375,-32.2265625
965.33203125,281.73828125,740.72265625,-37.59765625
965.33203125,999.51171875,999.51171875,-46.38671875
965.33203125,294.43359375,166.9921875,-41.015625
965.8203125,-972.65625,-1000.0,-38.57421875
965.8203125,-1000.0,-839.84375,-41.9921875
965.33203125,26.3671875,480.46875,-41.50390625
965.33203125,999.51171875,999.51171875,-41.015625
965.33203125,425.29296875,178.22265625,-37.109375
965.8203125,-915.0390625,-1000.0,-31.25
965.8203125,-1000.0,-981.93359375,-32.71484375
965.33203125,-39.55078125,245.1171875,-44.43359375
965.33203125,999.51171875,999.51171875,-55.17578125
965.33203125,478.02734375,256.8359375,-56.15234375
965.8203125,-870.60546875,-986.328125,-56.15234375
965.33203125,-1000.0,-1000.0,-54.19921875
965.33203125,-187.5,-12.6953125,-60.546875
965.33203125,999.51171875,999.51171875,-69.82421875
965.33203125,759.27734375,411.62109375,-65.91796875
965.8203125,-590.8203125,-897.94921875,-48.828125
965.33203125,-1000.0,-1000.0,-43.9453125
965.33203125,-183.10546875,-170.41015625,-56.640625
965.33203125,999.51171875,999.51171875,-59.5703125
965.33203125,999.51171875,656.25,-55.6640625
965.33203125,-184.08203125,-694.82421875,-48.828125
965.33203125,-1000.0,-1000.0,-44.43359375
965.8203125,-229.98046875,-192.3828125,-42.96875
965.33203125,976.07421875,999.51171875,-36.1328125
965.33203125,999.51171875,888.671875,-34.66796875
965.8203125,0.0,-389.6484375,-40.0390625
965.8203125,-1000.0,-1000.0,-43.45703125
965.8203125,-179.6875,-188.96484375,-51.26953125
967.7734375,991.69921875,999.51171875,-57.12890625
924.8046875,999.51171875,999.51171875,-58.10546875
999.51171875,159.66796875,-149.4140625,-54.19921875
487.3046875,-1000.0,-1000.0,-50.29296875
167.48046875,-688.96484375,-320.3125,-49.8046875
925.29296875,683.59375,934.08203125,-54.19921875
999.51171875,999.51171875,999.51171875,-54.19921875
885.7421875,186.03515625,69.82421875,-42.48046875
618.1640625,-1000.0,-1000.0,-36.62109375
806.15234375,-748.046875,-497.55859375,-30.76171875
999.51171875,619.140625,836.9140625,-40.0390625
950.1953125,999.51171875,999.51171875,-41.9921875
965.8203125,211.9140625,170.8984375,-33.203125
965.8203125,-1000.0,-1000.0,-26.85546875
966.796875,-1000.0,-735.83984375,-30.76171875
958.984375,126.953125,618.65234375,-46.38671875
977.05078125,999.51171875,999.51171875,-50.78125
935.05859375,299.31640625,160.64453125,-43.45703125
825.68359375,-964.84375,-1000.0,-37.109375
912.59765625,-1000.0,-947.75390625,-35.15625
975.5859375,-70.80078125,305.6640625,-35.15625
961.42578125,999.51171875,999.51171875,-40.52734375
966.796875,559.5703125,224.609375,-41.50390625
868.1640625,-802.24609375,-1000.0,-37.109375
897.4609375,-1000.0,-1000.0,-33.69140625
973.6328125,-160.64453125,122.55859375,-37.109375
961.42578125,999.51171875,999.51171875,-46.875
974.12109375,657.71484375,355.95703125,-48.33984375
773.92578125,-712.40234375,-932.6171875,-38.57421875
784.1796875,-1000.0,-1000.0,-39.0625
967.7734375,-202.1484375,-98.6328125,-45.8984375
968.26171875,999.51171875,999.51171875,-46.38671875
957.51953125,896.484375,568.359375,-45.41015625
511.71875,-402.83203125,-779.78515625,-42.96875
416.9921875,-1000.0,-1000.0,-33.203125
859.86328125,-163.57421875,-159.66796875,-30.2734375
983.88671875,992.67578125,999.51171875,-44.921875
925.29296875,999.51171875,791.50390625,-44.921875
593.75,-9.27734375,-521.97265625,-24.90234375
459.9609375,-1000.0,-1000.0,-17.08984375
803.7109375,-385.7421875,-190.91796875,-32.2265625
991.2109375,913.0859375,999.51171875,-55.6640625
903.80859375,999.51171875,977.05078125,-66.40625
483.3984375,97.16796875,-215.33203125,-59.5703125
258.30078125,-1000.0,-1000.0,-52.734375
585.9375,-521.97265625,-255.859375,-47.36328125
999.51171875,841.30859375,960.44921875,-47.8515625
463.37890625,999.51171875,999.51171875,-50.29296875
-889.16015625,150.87890625,53.22265625,-40.52734375
-1000.0,-1000.0,-1000.0,-32.2265625
-817.3828125,-975.09765625,-432.6171875,-31.73828125
-215.33203125,280.76171875,887.20703125,-41.50390625
141.11328125,999.51171875,999.51171875,-53.22265625
-78.125,191.40625,139.6484375,-49.31640625
-190.91796875,-1000.0,-1000.0,-39.55078125
208.0078125,-985.83984375,-648.92578125,-37.59765625
770.99609375,280.2734375,713.37890625,-36.62109375
869.140625,999.51171875,999.51171875,-35.15625
473.14453125,183.59375,160.15625,-45.41015625
179.19921875,-1000.0,-1000.0,-40.0390625
441.40625,-1000.0,-847.65625,-37.109375
870.60546875,101.5625,466.30859375,-43.45703125
985.83984375,999.51171875,999.51171875,-44.921875
675.78125,428.7109375,183.59375,-40.52734375
279.296875,-906.25,-1000.0,-28.3203125
445.3125,-1000.0,-998.53515625,-24.4140625
854.98046875,0.48828125,205.56640625,-30.76171875
997.0703125,999.51171875,999.51171875,-41.015625
745.1171875,801.26953125,327.1484375,-36.62109375
292.96875,-514.16015625,-957.03125,-31.73828125
344.23828125,-1000.0,-1000.0,-32.71484375
788.0859375,-69.3359375,-3.41796875,-39.0625
998.53515625,999.51171875,999.51171875,-45.8984375
731.4453125,745.60546875,448.73046875,-48.33984375
245.60546875,-586.42578125,-869.140625,-53.7109375
219.7265625,-1000.0,-1000.0,-51.26953125
693.359375,-200.68359375,-174.8046875,-50.29296875
967.28515625,999.51171875,999.51171875,-49.31640625
691.89453125,880.859375,653.80859375,-49.8046875
217.28515625,-417.96875,-699.21875,-51.26953125
123.53515625,-1000.0,-1000.0,-47.36328125
565.4296875,-224.12109375,-192.3828125,-48.33984375
890.625,942.87109375,999.51171875,-50.78125
682.6171875,999.51171875,929.6875,-47.8515625
217.28515625,216.30859375,-314.453125,-44.921875
41.015625,-1000.0,-1000.0,-36.62109375
450.1953125,-516.6015625,-231.4453125,-27.34375
822.265625,869.140625,997.55859375,-41.015625
649.90234375,999.51171875,999.51171875,-60.05859375
177.734375,119.140625,-143.06640625,-63.96484375
-39.0625,-1000.0,-1000.0,-55.17578125
321.2890625,-675.78125,-350.09765625,-57.6171875
742.1875,695.80078125,922.36328125,-61.5234375
659.1796875,999.51171875,999.51171875,-52.24609375
194.3359375,168.45703125,58.59375,-47.36328125
-75.68359375,-1000.0,-1000.0,-46.875
217.7734375,-839.84375,-521.484375,-47.8515625
662.59765625,503.41796875,818.359375,-46.38671875
642.578125,999.51171875,999.51171875,-53.7109375
190.4296875,150.390625,160.15625,-48.828125
-126.953125,-1000.0,-1000.0,-37.59765625
118.65234375,-1000.0,-766.6015625,-29.78515625
598.14453125,112.79296875,579.1015625,-26.85546875
648.4375,999.51171875,999.51171875,-35.64453125
222.16796875,341.796875,169.43359375,-36.1328125
-144.53125,-986.81640625,-1000.0,-30.76171875
18.06640625,-1000.0,-942.87109375,-30.76171875
505.37109375,166.015625,320.3125,-33.69140625
625.0,999.51171875,999.51171875,-43.45703125
227.5390625,380.37109375,217.7734375,-41.50390625
-170.41015625,-901.85546875,-1000.0,-33.203125
-68.84765625,-1000.0,-1000.0,-39.55078125
409.1796875,-220.21484375,43.45703125,-45.8984375
608.88671875,999.51171875,999.51171875,-47.8515625
270.01953125,654.296875,367.1875,-43.9453125
-175.78125,-727.5390625,-926.7578125,-40.52734375
-156.25,-1000.0,-1000.0,-44.921875
329.1015625,-163.57421875,-136.71875,-48.828125
581.54296875,967.7734375,999.51171875,-50.78125
302.734375,999.51171875,692.3828125,-54.19921875
-143.5546875,133.7890625,-650.87890625,-48.828125
-219.23828125,-1000.0,-1000.0,-45.8984375
250.0,-283.69140625,-196.77734375,-48.33984375
568.84765625,999.51171875,999.51171875,-47.8515625
326.171875,999.51171875,787.59765625,-51.7578125
-133.7890625,-189.94140625,-538.57421875,-49.8046875
-254.8828125,-1000.0,-1000.0,-47.8515625
178.7109375,-251.46484375,-188.96484375,-58.59375
537.59765625,951.171875,999.51171875,-61.03515625
353.515625,999.51171875,974.12109375,-52.734375
-112.3046875,138.671875,-213.37890625,-50.29296875
-303.7109375,-1000.0,-1000.0,-56.640625
84.47265625,-569.82421875,-275.87890625,-57.6171875
484.86328125,804.6875,964.35546875,-61.03515625
375.48828125,999.51171875,999.51171875,-59.5703125
-75.68359375,161.62109375,-22.4609375,-49.8046875
-322.265625,-1000.0,-1000.0,-40.0390625
18.06640625,-621.09375,-406.73828125,-33.203125
465.8203125,762.20703125,893.5546875,-34.1796875
416.9921875,999.51171875,999.51171875,-23.4375
-41.9921875,165.52734375,125.9765625,-20.01953125
-360.3515625,-1000.0,-1000.0,-31.25
-100.09765625,-975.5859375,-663.0859375,-28.3203125
368.65234375,287.109375,693.84765625,-31.25
383.30078125,999.51171875,999.51171875,-44.43359375
-62.5,189.453125,167.48046875,-41.9921875
-380.37109375,-1000.0,-1000.0,-32.71484375
-157.2265625,-1000.0,-868.1640625,-32.2265625
327.63671875,58.10546875,440.91796875,-33.69140625
435.05859375,999.51171875,999.51171875,-35.64453125
25.87890625,298.828125,177.734375,-36.62109375
-356.4453125,-968.75,-1000.0,-41.50390625
-208.984375,-1000.0,-1000.0,-45.41015625
250.9765625,-66.40625,166.9921875,-43.9453125
257.8125,999.51171875,999.51171875,-45.41015625
-216.796875,818.84765625,338.37890625,-52.734375
-584.9609375,-477.5390625,-942.87109375,-49.31640625
-500.9765625,-1000.0,-1000.0,-42.96875
1.953125,-201.171875,-69.3359375,-43.45703125
285.15625,999.51171875,999.51171875,-41.50390625
24.4140625,815.91796875,484.375,-36.1328125
-382.32421875,-524.4140625,-852.5390625,-36.62109375
-360.3515625,-1000.0,-1000.0,-32.71484375
141.11328125,-165.0390625,-172.8515625,-36.1328125
436.5234375,979.4921875,999.51171875,-45.41015625
205.56640625,999.51171875,772.4609375,-50.29296875
-231.93359375,47.8515625,-555.6640625,-46.875
-357.421875,-1000.0,-1000.0,-41.9921875
97.16796875,-218.26171875,-194.3359375,-47.8515625
464.35546875,999.51171875,999.51171875,-50.78125
270.5078125,999.51171875,869.140625,-57.6171875
-169.921875,-154.296875,-416.9921875,-58.59375
-301.7578125,-1000.0,-1000.0,-42.96875
146.484375,-165.52734375,-198.73046875,-40.52734375
527.83203125,981.93359375,999.51171875,-47.36328125
366.69921875,999.51171875,999.51171875,-44.43359375
-85.44921875,165.0390625,-105.95703125,-46.875
-312.5,-1000.0,-1000.0,-47.8515625
49.8046875,-654.296875,-377.44140625,-44.921875
490.234375,725.5859375,909.1796875,-46.875
412.59765625,999.51171875,999.51171875,-45.8984375
-47.36328125,186.03515625,71.2890625,-44.921875
-318.359375,-1000.0,-1000.0,-36.62109375
-29.296875,-771.97265625,-526.3671875,-29.296875
421.875,599.12109375,816.40625,-32.71484375
397.4609375,999.51171875,999.51171875,-42.96875
-63.4765625,176.7578125,156.73828125,-49.8046875
-372.55859375,-1000.0,-1000.0,-42.96875
-120.1171875,-812.98828125,-729.00390625,-44.43359375
363.28125,525.87890625,620.60546875,-45.8984375
412.59765625,999.51171875,999.51171875,-37.59765625
-12.20703125,693.359375,179.6875,-47.8515625
-372.55859375,-595.703125,-1000.0,-56.640625
-211.42578125,-1000.0,-996.58203125,-50.78125
289.55078125,-176.26953125,223.14453125,-51.7578125
454.58984375,999.51171875,999.51171875,-53.22265625
76.171875,405.76171875,216.796875,-47.36328125
-318.359375,-933.10546875,-1000.0,-40.52734375
-213.37890625,-1000.0,-1000.0,-44.43359375
274.4140625,-213.8671875,12.20703125,-46.38671875
479.98046875,999.51171875,999.51171875,-41.9921875
154.78515625,710.9375,369.62890625,-34.1796875
-344.23828125,-662.109375,-930.6640625,-34.1796875
-420.8984375,-1000.0,-1000.0,-46.875
-188.4765625,-200.1953125,-126.953125,-53.22265625
-31.73828125,999.51171875,999.51171875,-55.17578125
-448.73046875,762.20703125,588.8671875,-55.17578125
-1000.0,-571.2890625,-759.765625,-53.7109375
-997.55859375,-1000.0,-1000.0,-44.921875
-986.328125,-416.50390625,-202.63671875,-39.55078125
-1000.0,906.73828125,999.51171875,-41.50390625
-1000.0,999.51171875,820.3125,-40.0390625
-1000.0,-166.50390625,-493.65234375,-27.83203125
-1000.0,-1000.0,-1000.0,-36.1328125
-1000.0,-256.34765625,-192.87109375,-52.24609375
-1000.0,964.84375,999.51171875,-50.29296875
-1000.0,999.51171875,970.21484375,-51.26953125
-1000.0,31.25,-223.6328125,-45.8984375
-1000.0,-1000.0,-1000.0,-41.50390625
-1000.0,-685.05859375,-281.73828125,-45.41015625
-1000.0,658.69140625,954.1015625,-40.0390625
-1000.0,999.51171875,999.51171875,-36.62109375
-1000.0,157.2265625,20.5078125,-33.69140625
-984.86328125,-1000.0,-1000.0,-30.2734375
-1000.0,-962.890625,-480.95703125,-36.1328125
-913.0859375,287.59765625,842.7734375,-49.8046875
-324.21875,999.51171875,999.51171875,-52.734375
132.32421875,723.14453125,167.48046875,-45.8984375
284.66796875,-773.92578125,-1000.0,-42.96875
701.171875,-849.12109375,-664.0625,-41.015625
982.421875,644.53125,701.171875,-45.8984375
957.03125,999.51171875,999.51171875,-53.22265625
960.9375,378.90625,166.015625,-47.8515625
966.796875,-976.07421875,-1000.0,-35.64453125
965.8203125,-1000.0,-869.62890625,-36.1328125
965.33203125,292.96875,436.03515625,-43.45703125
965.33203125,999.51171875,999.51171875,-48.33984375
965.33203125,637.6953125,203.61328125,-50.78125
965.33203125,-782.2265625,-1000.0,-45.8984375
965.33203125,-1000.0,-999.0234375,-40.0390625
965.33203125,342.7734375,219.23828125,-39.0625
965.33203125,999.51171875,999.51171875,-44.43359375
965.33203125,646.484375,302.24609375,-52.24609375
965.8203125,-651.3671875,-955.56640625,-42.96875
965.8203125,-1000.0,-1000.0,-33.69140625
965.33203125,-193.84765625,-83.0078125,-38.0859375
965.33203125,999.51171875,999.51171875,-41.015625
965.33203125,919.921875,490.234375,-43.45703125
965.33203125,-357.91015625,-847.16796875,-41.50390625
965.8203125,-1000.0,-1000.0,-32.2265625
965.33203125,-180.6640625,-190.91796875,-31.25
965.33203125,999.51171875,999.51171875,-41.50390625
965.33203125,999.51171875,731.4453125,-42.48046875
965.33203125,-145.01953125,-612.79296875,-40.52734375
965.33203125,-1000.0,-1000.0,-40.0390625
965.33203125,-524.90234375,-196.2890625,-33.203125
965.33203125,822.265625,999.51171875,-40.0390625
965.33203125,999.51171875,923.828125,-45.41015625
965.8203125,11.23046875,-325.68359375,-41.015625
965.8203125,-1000.0,-1000.0,-43.45703125
965.8203125,-485.3515625,-235.3515625,-41.015625
962.890625,850.09765625,977.5390625,-41.50390625
971.6796875,999.51171875,999.51171875,-54.6875
946.77734375,204.58984375,-42.96875,-56.15234375
927.24609375,-1000.0,-1000.0,-50.29296875
966.30859375,-639.6484375,-355.95703125,-51.26953125
957.51953125,752.44140625,922.8515625,-42.48046875
984.375,999.51171875,999.51171875,-37.109375
886.71875,184.08203125,94.7265625,-40.52734375
722.16796875,-1000.0,-1000.0,-40.52734375
874.51171875,-805.6640625,-544.43359375,-48.828125
969.23828125,554.6875,805.6640625,-48.828125
985.3515625,999.51171875,999.51171875,-44.921875
852.5390625,160.64453125,159.1796875,-45.41015625
591.30859375,-1000.0,-1000.0,-40.0390625
790.52734375,-948.2421875,-769.04296875,-41.015625
973.14453125,306.640625,574.21875,-42.48046875
982.91015625,999.51171875,999.51171875,-42.48046875
850.5859375,375.9765625,172.8515625,-45.8984375
501.46484375,-896.484375,-1000.0,-40.0390625
645.99609375,-1000.0,-1000.0,-40.52734375
939.94140625,-232.91015625,167.48046875,-49.31640625
995.1171875,999.51171875,999.51171875,-56.640625
811.5234375,476.5625,235.3515625,-56.15234375
388.671875,-898.92578125,-1000.0,-55.6640625
472.65625,-1000.0,-1000.0,-47.8515625
854.00390625,-206.54296875,12.6953125,-36.1328125
999.51171875,999.51171875,999.51171875,-40.52734375
781.73828125,704.58984375,399.4140625,-42.48046875
310.546875,-666.9921875,-905.76171875,-33.69140625
300.29296875,-1000.0,-1000.0,-29.78515625
743.1640625,-180.17578125,-161.62109375,-31.73828125
994.140625,999.51171875,999.51171875,-38.57421875
748.046875,999.51171875,687.98828125,-39.0625
260.7421875,-136.71875,-663.57421875,-26.3671875
158.69140625,-1000.0,-1000.0,-21.484375
616.2109375,-172.36328125,-183.59375,-28.3203125
921.38671875,991.2109375,999.51171875,-33.203125
677.734375,999.51171875,853.515625,-38.57421875
207.51953125,79.1015625,-438.96484375,-43.45703125
34.1796875,-1000.0,-1000.0,-43.45703125
449.70703125,-370.60546875,-200.68359375,-45.41015625
814.94140625,931.15234375,999.51171875,-50.78125
624.0234375,999.51171875,991.2109375,-55.17578125
152.34375,97.16796875,-181.15234375,-55.17578125
-52.24609375,-1000.0,-1000.0,-47.8515625
322.75390625,-582.51953125,-299.8046875,-45.41015625
726.5625,783.69140625,942.87109375,-55.17578125
609.86328125,999.51171875,999.51171875,-56.15234375
140.625,203.125,55.17578125,-50.78125
-133.30078125,-1000.0,-1000.0,-46.875
194.3359375,-508.7890625,-425.29296875,-43.45703125
648.4375,864.74609375,891.11328125,-40.52734375
587.40234375,999.51171875,999.51171875,-47.36328125
132.32421875,170.8984375,141.6015625,-50.29296875
-170.41015625,-1000.0,-1000.0,-47.8515625
82.51953125,-988.28125,-682.12890625,-47.8515625
548.33984375,266.6015625,673.828125,-53.7109375
587.890625,999.51171875,999.51171875,-52.734375
146.484375,158.69140625,162.59765625,-51.26953125
-207.51953125,-1000.0,-1000.0,-54.6875
-5.859375,-1000.0,-903.3203125,-45.8984375
479.00390625,5.859375,378.90625,-41.9921875
589.84375,999.51171875,999.51171875,-46.875
187.98828125,562.01171875,220.21484375,-45.41015625
-213.37890625,-782.2265625,-1000.0,-42.96875
-105.95703125,-1000.0,-1000.0,-44.921875
371.58203125,-196.2890625,96.6796875,-54.6875
561.5234375,999.51171875,999.51171875,-54.6875
210.44921875,564.453125,310.05859375,-45.8984375
-211.9140625,-818.84765625,-955.078125,-37.109375
-167.96875,-1000.0,-1000.0,-37.109375
298.828125,-191.40625,-120.1171875,-50.29296875
545.41015625,999.51171875,999.51171875,-47.36328125
249.51171875,996.58203125,522.4609375,-43.9453125
-183.10546875,-200.1953125,-821.77734375,-37.109375
-216.30859375,-1000.0,-1000.0,-31.73828125
251.46484375,-188.4765625,-188.96484375,-35.15625
546.38671875,999.51171875,999.51171875,-48.33984375
277.34375,999.51171875,740.72265625,-65.91796875
-190.4296875,-177.734375,-599.609375,-62.5
-287.109375,-1000.0,-1000.0,-47.8515625
172.36328125,-253.90625,-194.82421875,-50.29296875
517.08984375,966.30859375,999.51171875,-59.08203125
317.87109375,999.51171875,930.17578125,-54.19921875
-135.25390625,8.7890625,-315.91796875,-54.6875
-305.6640625,-1000.0,-1000.0,-54.6875
121.09375,-184.08203125,-205.078125,-53.22265625
478.02734375,997.0703125,997.55859375,-62.01171875
353.02734375,999.51171875,999.51171875,-71.2890625
-372.55859375,107.421875,-82.51953125,-62.01171875
-1000.0,-1000.0,-1000.0,-45.41015625
-727.05078125,-761.71875,-384.27734375,-54.6875
-45.41015625,584.47265625,900.87890625,-63.96484375
46.38671875,999.51171875,999.51171875,-56.15234375
-317.3828125,168.9453125,118.65234375,-54.19921875
-521.97265625,-1000.0,-1000.0,-48.33984375
-188.4765625,-898.92578125,-595.21484375,-39.0625
284.66796875,413.0859375,759.27734375,-44.921875
231.93359375,999.51171875,999.51171875,-50.78125
-256.8359375,192.87109375,170.41015625,-45.8984375
-547.8515625,-1000.0,-1000.0,-44.43359375
-290.52734375,-1000.0,-844.23828125,-45.8984375
238.28125,24.4140625,475.09765625,-46.38671875
381.8359375,999.51171875,999.51171875,-41.9921875
-44.43359375,265.13671875,167.96875,-39.0625
-540.52734375,-979.00390625,-1000.0,-39.55078125
-640.625,-1000.0,-995.60546875,-34.66796875
-348.14453125,-148.92578125,213.37890625,-41.015625
-298.828125,999.51171875,999.51171875,-41.015625
-774.4140625,428.7109375,255.859375,-31.25
-1000.0,-909.1796875,-983.3984375,-36.1328125
-987.3046875,-1000.0,-1000.0,-44.43359375
-997.55859375,-241.2109375,-48.828125,-47.36328125
-1000.0,999.51171875,999.51171875,-53.22265625
-1000.0,609.86328125,400.87890625,-52.24609375
-1000.0,-779.296875,-911.62109375,-41.50390625
-1000.0,-1000.0,-1000.0,-43.9453125
-1000.0,-218.26171875,-173.33984375,-46.38671875
-1000.0,999.51171875,999.51171875,-46.875
-1000.0,964.35546875,631.8359375,-49.8046875
-1000.0,-293.9453125,-724.12109375,-41.9921875
-1000.0,-1000.0,-1000.0,-30.76171875
-1000.0,-174.31640625,-190.4296875,-44.921875
-1000.0,999.51171875,999.51171875,-55.17578125
-1000.0,999.51171875,850.5859375,-38.0859375
-1000.0,-52.734375,-443.359375,-17.578125
-1000.0,-1000.0,-1000.0,-25.390625
-1000.0,-525.390625,-221.19140625,-42.48046875
-1000.0,810.546875,998.046875,-48.33984375
-1000.0,999.51171875,999.51171875,-51.7578125
-971.6796875,166.50390625,-152.83203125,-44.43359375
-1000.0,-1000.0,-1000.0,-35.64453125
-645.99609375,-420.8984375,-302.24609375,-26.3671875
206.54296875,893.06640625,933.59375,-24.4140625
474.12109375,999.51171875,999.51171875,-27.83203125
340.8203125,431.15234375,134.765625,-33.69140625
438.4765625,-1000.0,-1000.0,-35.64453125
854.4921875,-369.140625,-439.94140625,-37.59765625
983.3984375,966.30859375,890.625,-43.45703125
951.66015625,999.51171875,999.51171875,-47.36328125
966.30859375,268.06640625,156.25,-44.921875
965.8203125,-1000.0,-1000.0,-38.0859375
966.796875,-978.515625,-736.328125,-37.109375
959.9609375,281.73828125,613.76953125,-37.59765625
972.65625,999.51171875,999.51171875,-35.64453125
943.359375,455.078125,166.015625,-36.1328125
777.34375,-886.71875,-1000.0,-37.109375
835.9375,-1000.0,-928.7109375,-38.0859375
976.07421875,21.97265625,341.796875,-43.45703125
968.26171875,999.51171875,999.51171875,-50.29296875
945.3125,408.203125,195.3125,-43.9453125
842.28515625,-909.66796875,-1000.0,-31.25
777.83203125,-1000.0,-1000.0,-30.76171875
844.7265625,-147.94921875,102.05078125,-31.25
980.95703125,999.51171875,999.51171875,-34.1796875
945.80078125,762.6953125,338.8671875,-34.66796875
710.9375,-613.28125,-946.77734375,-25.390625
729.00390625,-1000.0,-1000.0,-27.34375
952.1484375,-9.765625,-70.80078125,-37.109375
966.30859375,999.51171875,999.51171875,-43.45703125
974.609375,847.65625,513.671875,-49.8046875
839.35546875,-425.29296875,-820.80078125,-42.48046875
828.61328125,-1000.0,-1000.0,-40.52734375
977.5390625,-177.24609375,-191.40625,-42.96875
955.56640625,999.51171875,999.51171875,-40.52734375
989.2578125,999.51171875,760.7421875,-42.48046875
825.1953125,-118.1640625,-574.21875,-34.1796875
747.0703125,-1000.0,-1000.0,-29.78515625
951.171875,-310.05859375,-187.98828125,-39.0625
962.890625,932.6171875,999.51171875,-46.875
988.76953125,999.51171875,979.4921875,-36.62109375
719.7265625,133.7890625,-212.890625,-31.25
485.3515625,-1000.0,-1000.0,-38.0859375
769.04296875,-564.453125,-261.23046875,-44.921875
-163.0859375,843.26171875,970.21484375,-48.828125
-1000.0,999.51171875,999.51171875,-43.45703125
-954.58984375,-25.390625,-27.83203125,-44.43359375
-747.55859375,-1000.0,-1000.0,-41.015625
-88.8671875,-620.1171875,-379.8828125,-41.015625
565.91796875,727.05078125,907.2265625,-46.38671875
669.43359375,999.51171875,999.51171875,-42.96875
338.37890625,199.70703125,128.41796875,-36.62109375
122.0703125,-1000.0,-1000.0,-31.73828125
452.1484375,-435.05859375,-525.87890625,-32.71484375
913.0859375,899.90234375,823.2421875,-44.43359375
914.55078125,999.51171875,999.51171875,-46.875
513.18359375,229.98046875,170.8984375,-36.1328125
192.3828125,-992.1875,-1000.0,-33.69140625
409.1796875,-1000.0,-859.375,-44.921875
850.09765625,-25.390625,451.171875,-45.41015625
966.796875,999.51171875,999.51171875,-43.9453125
590.33203125,331.0546875,178.22265625,-44.921875
189.94140625,-1000.0,-1000.0,-34.1796875
362.3046875,-1000.0,-996.58203125,-35.64453125
814.453125,145.5078125,225.09765625,-51.26953125
982.421875,999.51171875,999.51171875,-54.19921875
654.78515625,491.2109375,271.97265625,-44.43359375
209.47265625,-825.68359375,-974.609375,-42.96875
275.87890625,-1000.0,-1000.0,-43.9453125
747.0703125,-227.05078125,-45.41015625,-49.31640625
959.47265625,999.51171875,999.51171875,-57.6171875
641.6015625,713.8671875,440.4296875,-52.734375
191.89453125,-662.109375,-884.27734375,-42.96875
181.640625,-1000.0,-1000.0,-44.43359375
645.99609375,-161.62109375,-146.97265625,-48.828125
893.06640625,968.75,999.51171875,-46.875
626.46484375,999.51171875,761.23046875,-46.38671875
172.8515625,131.8359375,-565.4296875,-49.31640625
57.6171875,-1000.0,-1000.0,-39.0625
504.8828125,-252.9296875,-190.91796875,-30.2734375
821.2890625,999.51171875,999.51171875,-37.109375
589.84375,999.51171875,857.421875,-42.96875
117.1875,-39.0625,-428.22265625,-48.828125
-56.15234375,-1000.0,-1000.0,-49.8046875
352.05078125,-506.8359375,-223.6328125,-51.7578125
729.00390625,840.8203125,996.09375,-52.24609375
571.2890625,999.51171875,999.51171875,-46.38671875
104.00390625,97.16796875,-138.671875,-46.38671875
-118.65234375,-1000.0,-1000.0,-47.36328125
242.67578125,-635.25390625,-331.0546875,-50.78125
655.76171875,735.3515625,932.6171875,-49.8046875
555.6640625,999.51171875,999.51171875,-42.48046875
86.9140625,171.38671875,53.7109375,-37.59765625
-187.98828125,-1000.0,-1000.0,-36.62109375
119.140625,-861.328125,-522.94921875,-33.69140625
577.63671875,447.265625,815.91796875,-29.78515625
541.50390625,999.51171875,999.51171875,-38.57421875
75.68359375,400.87890625,162.109375,-45.8984375
-256.8359375,-968.26171875,-1000.0,-39.0625
-40.52734375,-1000.0,-749.51171875,-42.48046875
423.33984375,302.734375,604.00390625,-54.19921875
470.21484375,999.51171875,999.51171875,-57.12890625
23.92578125,125.48828125,153.80859375,-54.19921875
-330.078125,-1000.0,-1000.0,-49.8046875
-140.13671875,-1000.0,-966.796875,-45.41015625
338.37890625,-184.5703125,267.578125,-49.31640625
466.30859375,999.51171875,999.51171875,-55.6640625
77.63671875,587.40234375,242.67578125,-48.828125
-332.51953125,-793.9453125,-1000.0,-37.59765625
-254.39453125,-1000.0,-1000.0,-45.8984375
228.02734375,-150.390625,64.453125,-51.26953125
427.24609375,999.51171875,999.51171875,-46.875
92.7734375,969.23828125,398.92578125,-48.828125
-326.66015625,-258.7890625,-910.15625,-46.38671875
-294.43359375,-1000.0,-1000.0,-42.48046875
188.96484375,-209.9609375,-110.3515625,-43.45703125
434.5703125,999.51171875,999.51171875,-47.36328125
132.32421875,812.98828125,554.19921875,-48.33984375
-321.2890625,-521.484375,-791.50390625,-49.31640625
-366.69921875,-1000.0,-1000.0,-49.31640625
86.42578125,-225.5859375,-199.21875,-55.17578125
391.11328125,991.2109375,999.51171875,-57.12890625
166.9921875,999.51171875,773.92578125,-53.7109375
-284.1796875,-160.64453125,-557.12890625,-53.22265625
-393.5546875,-1000.0,-1000.0,-46.38671875
52.734375,-184.5703125,-188.4765625,-43.45703125
398.4375,985.83984375,999.51171875,-49.8046875
220.21484375,999.51171875,958.984375,-44.43359375
-234.86328125,77.1484375,-247.55859375,-45.8984375
-426.7578125,-1000.0,-1000.0,-52.24609375
-31.25,-496.09375,-269.04296875,-51.7578125
373.53515625,850.5859375,965.33203125,-56.640625
253.41796875,999.51171875,999.51171875,-52.734375
-191.89453125,179.19921875,-23.92578125,-39.0625
-418.45703125,-1000.0,-1000.0,-30.76171875
-76.66015625,-785.15625,-438.96484375,-31.25
363.76953125,579.58984375,875.0,-41.50390625
303.7109375,999.51171875,999.51171875,-51.26953125
-151.85546875,160.64453125,119.62890625,-52.24609375
-437.5,-1000.0,-1000.0,-51.26953125
-152.34375,-966.30859375,-645.99609375,-47.36328125
326.171875,308.59375,710.9375,-41.015625
354.98046875,999.51171875,999.51171875,-37.59765625
-89.84375,139.6484375,163.0859375,-36.62109375
-440.91796875,-1000.0,-1000.0,-36.1328125
-246.58203125,-1000.0,-875.0,-46.38671875
234.86328125,49.8046875,425.78125,-61.5234375
331.0546875,999.51171875,999.51171875,-64.453125
-78.61328125,825.68359375,210.44921875,-59.5703125
-522.4609375,-445.3125,-1000.0,-58.59375
-371.09375,-1000.0,-1000.0,-58.59375
-348.14453125,-192.87109375,144.04296875,-48.828125
-890.625,999.51171875,999.51171875,-47.36328125
-1000.0,441.89453125,274.4140625,-53.22265625
-971.19140625,-913.0859375,-976.07421875,-58.10546875
-1000.0,-1000.0,-1000.0,-61.5234375
-530.76171875,-218.75,-69.82421875,-61.03515625
21.484375,999.51171875,999.51171875,-63.4765625
-205.56640625,869.140625,468.75,-63.96484375
-600.09765625,-455.56640625,-865.72265625,-51.7578125
-455.56640625,-1000.0,-1000.0,-42.48046875
139.16015625,-143.5546875,-160.15625,-51.26953125
455.56640625,999.51171875,999.51171875,-53.7109375
192.87109375,999.51171875,686.03515625,-49.31640625
-258.7890625,-187.5,-661.62109375,-50.78125
-363.76953125,-1000.0,-1000.0,-52.734375
144.53125,-171.38671875,-189.453125,-50.78125
498.53515625,992.1875,999.51171875,-49.8046875
264.16015625,999.51171875,880.859375,-51.26953125
-138.18359375,47.36328125,-391.6015625,-49.31640625
-364.2578125,-1000.0,-1000.0,-47.36328125
-161.62109375,-421.38671875,-224.12109375,-50.29296875
1.953125,888.18359375,979.98046875,-54.19921875
-116.2109375,999.51171875,999.51171875,-53.22265625
-378.90625,204.1015625,-42.96875,-42.48046875
-500.0,-1000.0,-1000.0,-39.0625
-143.06640625,-726.07421875,-375.48828125,-48.828125
229.00390625,655.2734375,916.9921875,-53.22265625
226.07421875,999.51171875,999.51171875,-52.24609375
-111.81640625,180.17578125,64.94140625,-59.5703125
-315.91796875,-1000.0,-1000.0,-61.03515625
56.640625,-797.8515625,-538.0859375,-48.828125
544.921875,535.15625,803.22265625,-46.38671875
525.390625,999.51171875,999.51171875,-46.38671875
115.72265625,511.71875,176.26953125,-49.8046875
-167.96875,-860.83984375,-1000.0,-49.8046875
82.51953125,-1000.0,-795.8984375,-47.8515625
570.80078125,166.50390625,547.36328125,-59.08203125
663.0859375,999.51171875,999.51171875,-56.640625
203.125,262.20703125,159.1796875,-47.8515625
-96.6796875,-959.47265625,-1000.0,-45.41015625
-112.3046875,-1000.0,-972.16796875,-33.203125
-778.3203125,-227.05078125,267.578125,-36.62109375
-1000.0,999.51171875,999.51171875,-56.15234375
-964.84375,174.8046875,193.84765625,-52.24609375
-988.76953125,-1000.0,-1000.0,-45.8984375
-1000.0,-1000.0,-1000.0,-45.8984375
-824.70703125,-125.48828125,68.84765625,-41.9921875
-336.42578125,999.51171875,999.51171875,-46.875
-267.08984375,834.47265625,365.234375,-49.31640625
-418.45703125,-517.08984375,-933.59375,-48.828125
-163.57421875,-1000.0,-1000.0,-56.15234375
496.58203125,70.3125,-83.49609375,-60.546875
912.59765625,999.51171875,999.51171875,-54.6875
619.62890625,936.03515625,567.87109375,-46.38671875
124.0234375,-257.32421875,-771.484375,-35.64453125
234.86328125,-1000.0,-1000.0,-37.59765625
746.09375,-168.9453125,-193.359375,-44.921875
988.76953125,989.74609375,999.51171875,-42.48046875
904.296875,999.51171875,815.4296875,-50.29296875
590.8203125,31.25,-496.58203125,-59.08203125
278.3203125,-1000.0,-1000.0,-53.7109375
539.0625,-375.0,-204.1015625,-54.19921875
903.80859375,921.38671875,999.51171875,-59.5703125
700.68359375,999.51171875,968.75,-54.19921875
226.5625,102.5390625,-233.88671875,-52.734375
104.98046875,-1000.0,-1000.0,-50.78125
611.328125,-238.76953125,-247.0703125,-45.8984375
984.375,976.5625,972.16796875,-46.875
928.22265625,999.51171875,999.51171875,-46.38671875
575.68359375,207.03125,3.90625,-45.41015625
313.4765625,-1000.0,-1000.0,-39.55078125
558.10546875,-885.7421875,-472.16796875,-37.59765625
999.51171875,504.8828125,856.4453125,-41.9921875
564.94140625,999.51171875,999.51171875,-43.45703125
-879.8828125,-195.3125,102.5390625,-43.45703125
-1000.0,-1000.0,-1000.0,-42.96875
-943.359375,-1000.0,-695.3125,-39.55078125
-1000.0,-258.30078125,653.80859375,-42.96875
-1000.0,999.51171875,999.51171875,-50.78125
-1000.0,174.8046875,162.109375,-55.17578125
-1000.0,-1000.0,-1000.0,-47.36328125
-1000.0,-1000.0,-838.37890625,-35.64453125
-1000.0,180.17578125,482.91015625,-39.55078125
-1000.0,999.51171875,999.51171875,-41.015625
-1000.0,124.51171875,160.15625,-46.875
-1000.0,-1000.0,-1000.0,-46.38671875
-1000.0,-1000.0,-1000.0,-39.0625
-1000.0,-265.625,80.56640625,-45.41015625
-1000.0,999.51171875,999.51171875,-50.29296875
-1000.0,565.4296875,294.921875,-51.7578125
-1000.0,-823.2421875,-971.19140625,-50.78125
-955.078125,-1000.0,-1000.0,-40.52734375
-1000.0,-165.0390625,-71.77734375,-32.71484375
-683.10546875,962.40234375,999.51171875,-39.0625
552.24609375,999.51171875,544.921875,-46.875
999.51171875,176.7578125,-800.78125,-48.33984375
925.78125,-1000.0,-1000.0,-41.015625
966.30859375,-163.57421875,-164.55078125,-32.2265625
966.796875,999.51171875,999.51171875,-36.62109375
965.33203125,999.51171875,718.75,-48.33984375
965.8203125,50.29296875,-624.0234375,-56.15234375
966.30859375,-1000.0,-1000.0,-49.31640625
902.83203125,-195.3125,-189.94140625,-35.64453125
999.51171875,999.51171875,999.51171875,-41.50390625
175.29296875,999.51171875,943.359375,-51.7578125
-1000.0,-0.9765625,-282.2265625,-37.109375
-1000.0,-1000.0,-1000.0,-28.3203125
-742.1875,-682.6171875,-246.09375,-42.96875
584.9609375,656.73828125,982.421875,-49.8046875
999.51171875,999.51171875,999.51171875,-53.7109375
907.71484375,197.75390625,-79.1015625,-58.59375
975.09765625,-1000.0,-1000.0,-49.8046875
965.8203125,-449.21875,-335.44921875,-38.0859375
965.33203125,889.6484375,925.29296875,-37.59765625
965.33203125,999.51171875,999.51171875,-43.9453125
965.33203125,333.0078125,130.859375,-42.96875
965.8203125,-1000.0,-1000.0,-39.55078125
965.8203125,-363.28125,-468.26171875,-35.64453125
965.33203125,946.77734375,864.74609375,-29.78515625
967.28515625,999.51171875,999.51171875,-39.55078125
954.1015625,362.3046875,178.22265625,-49.8046875
921.38671875,-962.890625,-1000.0,-46.38671875
999.51171875,-1000.0,-780.2734375,-41.9921875
-3.90625,131.34765625,566.40625,-36.1328125
-1000.0,999.51171875,999.51171875,-37.59765625
-958.984375,86.9140625,148.92578125,-40.52734375
-987.3046875,-1000.0,-1000.0,-35.64453125
-1000.0,-1000.0,-1000.0,-30.76171875
-1000.0,-334.47265625,175.78125,-32.2265625
-1000.0,999.51171875,999.51171875,-38.0859375
-1000.0,331.54296875,231.4453125,-45.8984375
-1000.0,-980.46875,-1000.0,-49.8046875
-1000.0,-1000.0,-1000.0,-42.96875
-1000.0,-283.203125,-20.01953125,-36.1328125
-1000.0,999.51171875,999.51171875,-33.69140625
-1000.0,784.66796875,419.43359375,-40.0390625
-1000.0,-577.63671875,-896.484375,-38.57421875
-1000.0,-1000.0,-1000.0,-32.71484375
-1000.0,-211.42578125,-151.85546875,-43.45703125
-1000.0,994.62890625,999.51171875,-49.8046875
-1000.0,999.51171875,641.6015625,-43.45703125
-1000.0,-154.296875,-711.9140625,-38.57421875
-1000.0,-1000.0,-1000.0,-40.52734375
-1000.0,-254.8828125,-182.6171875,-35.64453125
-1000.0,979.4921875,999.51171875,-34.66796875
-1000.0,999.51171875,838.37890625,-42.96875
-1000.0,-59.5703125,-463.37890625,-41.9921875
-1000.0,-1000.0,-1000.0,-37.109375
-1000.0,-474.12109375,-208.49609375,-33.69140625
-1000.0,861.328125,999.51171875,-37.109375
-1000.0,999.51171875,965.8203125,-44.921875
-1000.0,67.3828125,-239.2578125,-45.41015625
-944.82421875,-1000.0,-1000.0,-40.52734375
-1000.0,-221.6796875,-246.58203125,-38.57421875
-789.0625,971.6796875,961.9140625,-41.015625
592.28515625,999.51171875,999.51171875,-40.52734375
999.51171875,723.14453125,66.89453125,-42.96875
904.78515625,-879.39453125,-1000.0,-40.52734375
976.07421875,-399.90234375,-427.24609375,-33.203125
965.33203125,984.375,888.671875,-39.0625
965.33203125,999.51171875,999.51171875,-41.9921875
965.33203125,467.28515625,157.2265625,-43.45703125
965.33203125,-1000.0,-1000.0,-40.0390625
965.33203125,-815.91796875,-664.0625,-39.0625
965.33203125,595.703125,698.2421875,-48.828125
965.33203125,999.51171875,999.51171875,-59.5703125
965.33203125,549.8046875,176.7578125,-59.08203125
965.8203125,-793.45703125,-1000.0,-50.29296875
967.7734375,-1000.0,-908.203125,-43.45703125
923.828125,15.625,378.41796875,-47.36328125
999.51171875,999.51171875,999.51171875,-56.640625
556.15234375,503.41796875,221.19140625,-55.17578125
-610.83984375,-831.54296875,-1000.0,-44.43359375
-1000.0,-1000.0,-1000.0,-40.52734375
-843.26171875,-260.25390625,111.81640625,-44.43359375
-855.95703125,999.51171875,999.51171875,-53.7109375
-1000.0,277.83203125,284.1796875,-64.453125
-998.53515625,-1000.0,-968.75,-53.22265625
-996.58203125,-1000.0,-1000.0,-46.875
-993.1640625,-245.60546875,-107.421875,-49.31640625
-1000.0,999.51171875,999.51171875,-43.9453125
-848.14453125,738.28125,476.07421875,-41.9921875
-703.125,-625.48828125,-858.88671875,-33.203125
-859.375,-1000.0,-1000.0,-36.62109375
-809.5703125,-205.56640625,-190.4296875,-49.31640625
-375.48828125,944.3359375,999.51171875,-48.33984375
528.3203125,999.51171875,783.203125,-50.78125
999.51171875,189.453125,-546.38671875,-48.33984375
937.98828125,-1000.0,-1000.0,-42.48046875
962.890625,-77.63671875,-183.59375,-41.50390625
966.796875,999.51171875,999.51171875,-41.9921875
965.33203125,999.51171875,909.66796875,-47.36328125
965.33203125,142.08984375,-342.28515625,-45.41015625
965.8203125,-1000.0,-1000.0,-33.203125
965.33203125,-352.05078125,-234.375,-35.15625
965.33203125,932.6171875,983.3984375,-46.38671875
965.33203125,999.51171875,999.51171875,-50.78125
965.33203125,218.75,-71.77734375,-57.12890625
965.8203125,-1000.0,-1000.0,-57.12890625
965.8203125,-587.890625,-366.69921875,-50.78125
965.33203125,784.66796875,907.2265625,-46.875
965.33203125,999.51171875,999.51171875,-46.875
965.8203125,353.02734375,147.94921875,-46.875
965.33203125,-1000.0,-1000.0,-45.41015625
967.28515625,-932.6171875,-588.8671875,-44.921875
957.03125,420.8984375,771.484375,-44.43359375
915.0390625,999.51171875,999.51171875,-56.15234375
999.51171875,191.40625,160.15625,-56.640625
87.890625,-974.609375,-1000.0,-48.828125
-1000.0,-1000.0,-841.30859375,-57.6171875
-269.04296875,-244.62890625,477.05078125,-62.01171875
995.60546875,999.51171875,999.51171875,-55.6640625
369.62890625,227.05078125,171.875,-58.10546875
-191.40625,-1000.0,-1000.0,-50.29296875
-760.25390625,-1000.0,-1000.0,-39.55078125
-1000.0,-251.46484375,204.58984375,-50.29296875
50.29296875,999.51171875,999.51171875,-63.96484375
999.51171875,716.796875,241.2109375,-59.08203125
928.22265625,-666.9921875,-996.58203125,-47.8515625
952.1484375,-1000.0,-1000.0,-49.31640625
969.23828125,-156.73828125,-7.8125,-53.22265625
965.8203125,999.51171875,999.51171875,-54.6875
902.83203125,780.2734375,365.234375,-49.31640625
999.51171875,-559.08203125,-929.6875,-45.8984375
177.734375,-1000.0,-1000.0,-36.1328125
-1000.0,-197.265625,-162.59765625,-32.71484375
-1000.0,999.51171875,999.51171875,-33.203125
-549.31640625,906.73828125,583.984375,-31.73828125
762.20703125,-382.32421875,-769.04296875,-39.0625
999.51171875,-1000.0,-1000.0,-47.8515625
916.50390625,-159.1796875,-196.77734375,-52.24609375
975.09765625,974.12109375,999.51171875,-50.78125
965.33203125,999.51171875,854.00390625,-50.78125
965.33203125,151.85546875,-441.89453125,-49.8046875
965.8203125,-1000.0,-1000.0,-46.38671875
965.33203125,-266.6015625,-191.40625,-41.50390625
965.33203125,970.703125,991.69921875,-40.52734375
965.33203125,999.51171875,999.51171875,-43.45703125
965.33203125,223.6328125,-53.22265625,-44.43359375
965.8203125,-1000.0,-1000.0,-39.0625
965.8203125,-641.11328125,-325.1953125,-35.64453125
965.33203125,750.9765625,941.89453125,-48.33984375
965.33203125,999.51171875,999.51171875,-44.921875
965.33203125,182.12890625,57.12890625,-30.2734375
965.8203125,-1000.0,-1000.0,-42.96875
965.33203125,-823.73046875,-489.74609375,-56.640625
965.33203125,529.296875,844.7265625,-56.640625
965.33203125,999.51171875,999.51171875,-64.94140625
965.33203125,191.89453125,145.99609375,-70.80078125
965.33203125,-1000.0,-1000.0,-54.19921875
965.8203125,-602.5390625,-623.53515625,-45.8984375
965.33203125,778.80859375,736.81640625,-53.7109375
965.33203125,999.51171875,999.51171875,-62.5
965.33203125,184.08203125,160.64453125,-63.4765625
965.8203125,-984.375,-1000.0,-53.22265625
965.33203125,-1000.0,-946.2890625,-45.8984375
965.8203125,-171.38671875,307.6171875,-47.8515625
965.33203125,999.51171875,999.51171875,-48.33984375
965.33203125,522.4609375,219.7265625,-42.48046875
967.7734375,-881.34765625,-1000.0,-32.71484375
957.51953125,-1000.0,-1000.0,-32.2265625
917.48046875,-3.41796875,122.55859375,-30.2734375
999.51171875,999.51171875,999.51171875,-37.59765625
51.26953125,136.71875,276.85546875,-45.8984375
-1000.0,-1000.0,-964.84375,-39.0625
-968.26171875,-1000.0,-1000.0,-32.71484375
-982.421875,-346.6796875,-151.85546875,-27.34375
-1000.0,999.51171875,999.51171875,-34.66796875
-1000.0,433.59375,490.234375,-47.8515625
-1000.0,-918.45703125,-855.95703125,-53.7109375
-1000.0,-1000.0,-1000.0,-54.6875
-1000.0,-442.87109375,-195.3125,-42.96875
-1000.0,867.67578125,999.51171875,-44.921875
-1000.0,999.51171875,833.0078125,-54.19921875
-1000.0,18.06640625,-477.05078125,-47.8515625
-1000.0,-1000.0,-1000.0,-35.64453125
-1000.0,-277.34375,-191.89453125,-28.80859375
-1000.0,983.88671875,999.51171875,-31.73828125
-1000.0,999.51171875,927.734375,-41.50390625
-1000.0,-32.71484375,-312.01171875,-48.33984375
-1000.0,-1000.0,-1000.0,-46.875
-1000.0,-653.80859375,-258.30078125,-40.0390625
-1000.0,682.12890625,970.21484375,-33.203125
-1000.0,999.51171875,999.51171875,-36.62109375
-966.796875,194.3359375,-48.828125,-39.0625
-1000.0,-1000.0,-1000.0,-35.15625
-736.81640625,-541.50390625,-374.51171875,-36.1328125
-477.5390625,845.21484375,910.64453125,-38.0859375
-991.69921875,999.51171875,999.51171875,-48.33984375
-969.23828125,203.125,110.3515625,-61.03515625
-1000.0,-1000.0,-1000.0,-51.26953125
-21.97265625,-352.5390625,-536.1328125,-46.875
261.71875,946.2890625,814.453125,-62.01171875
-1000.0,999.51171875,999.51171875,-66.40625
-1000.0,181.15234375,158.203125,-66.89453125
-967.28515625,-1000.0,-1000.0,-58.59375
-1000.0,-1000.0,-820.3125,-40.0390625
-1000.0,226.5625,509.765625,-37.59765625
-1000.0,999.51171875,999.51171875,-45.41015625
-1000.0,228.02734375,166.50390625,-46.875
-1000.0,-969.7265625,-1000.0,-45.41015625
-1000.0,-1000.0,-1000.0,-52.24609375
-1000.0,-226.07421875,164.0625,-53.7109375
-1000.0,999.51171875,999.51171875,-49.8046875
-1000.0,496.09375,258.30078125,-52.734375
-1000.0,-881.34765625,-987.3046875,-53.22265625
-1000.0,-1000.0,-1000.0,-46.38671875
-1000.0,-194.3359375,-32.2265625,-47.8515625
-1000.0,999.51171875,999.51171875,-50.78125
-1000.0,999.51171875,486.328125,-49.8046875
-1000.0,-186.03515625,-848.6328125,-49.31640625
-1000.0,-1000.0,-1000.0,-40.0390625
-1000.0,-203.61328125,-162.59765625,-36.1328125
-1000.0,999.51171875,999.51171875,-41.9921875
-1000.0,899.4140625,636.23046875,-50.78125
-1000.0,-385.7421875,-717.28515625,-50.78125
-1000.0,-1000.0,-1000.0,-44.921875
-1000.0,-234.375,-194.82421875,-32.2265625
-1000.0,958.49609375,999.51171875,-40.0390625
-1000.0,999.51171875,892.08984375,-59.5703125
-942.87109375,50.29296875,-380.859375,-56.640625
-1000.0,-1000.0,-1000.0,-49.31640625
-764.16015625,-221.19140625,-196.2890625,-46.875
586.9140625,975.5859375,999.51171875,-51.26953125
999.51171875,999.51171875,996.58203125,-48.33984375
414.0625,229.98046875,-162.109375,-41.50390625
312.01171875,-1000.0,-1000.0,-32.71484375
999.51171875,-456.54296875,-324.21875,-39.0625
966.796875,891.6015625,932.12890625,-52.24609375
948.73046875,999.51171875,999.51171875,-62.01171875
967.7734375,253.90625,65.4296875,-72.265625
965.8203125,-1000.0,-1000.0,-67.3828125
965.33203125,-650.87890625,-496.58203125,-60.05859375
965.33203125,752.9296875,842.7734375,-60.05859375
965.33203125,999.51171875,999.51171875,-59.5703125
965.33203125,165.0390625,143.06640625,-57.12890625
965.8203125,-1000.0,-1000.0,-48.33984375
965.33203125,-1000.0,-735.83984375,-38.0859375
965.33203125,207.03125,612.79296875,-49.8046875
965.33203125,999.51171875,999.51171875,-56.15234375
965.33203125,300.29296875,162.109375,-53.22265625
965.33203125,-972.16796875,-1000.0,-44.921875
965.33203125,-1000.0,-926.7578125,-38.0859375
965.33203125,64.453125,336.42578125,-48.33984375
965.33203125,999.51171875,999.51171875,-59.5703125
965.33203125,979.00390625,270.01953125,-62.5
965.8203125,-157.71484375,-989.2578125,-52.734375
965.8203125,-1000.0,-1000.0,-45.41015625
967.7734375,-214.84375,62.01171875,-45.8984375
946.77734375,999.51171875,999.51171875,-54.19921875
998.046875,712.40234375,346.19140625,-63.4765625
831.54296875,-660.64453125,-939.453125,-62.5
414.55078125,-1000.0,-1000.0,-56.640625
595.21484375,-201.171875,-121.58203125,-56.15234375
999.51171875,999.51171875,999.51171875,-59.08203125
814.94140625,892.578125,558.59375,-59.5703125
307.6171875,-407.2265625,-790.52734375,-55.17578125
85.9375,-1000.0,-1000.0,-45.8984375
559.5703125,-180.6640625,-177.734375,-49.31640625
999.51171875,999.51171875,999.51171875,-56.15234375
623.53515625,999.51171875,763.671875,-55.6640625
660.64453125,-159.66796875,-564.94140625,-59.5703125
989.2578125,-1000.0,-1000.0,-54.6875
963.37890625,-316.40625,-192.87109375,-55.17578125
958.49609375,916.50390625,999.51171875,-62.01171875
967.28515625,999.51171875,962.890625,-58.59375
965.33203125,219.7265625,-241.2109375,-46.875
965.33203125,-1000.0,-1000.0,-48.33984375
965.33203125,-419.921875,-245.1171875,-53.22265625
965.33203125,915.0390625,976.5625,-55.6640625
965.33203125,999.51171875,999.51171875,-60.546875
965.33203125,191.89453125,-27.83203125,-56.640625
965.33203125,-1000.0,-1000.0,-49.31640625
965.8203125,-806.640625,-417.48046875,-44.921875
965.33203125,549.31640625,887.6953125,-43.9453125
965.33203125,999.51171875,999.51171875,-45.41015625
965.33203125,142.08984375,126.953125,-33.69140625
965.33203125,-1000.0,-1000.0,-25.390625
965.33203125,-1000.0,-653.80859375,-39.55078125
965.33203125,70.80078125,702.63671875,-52.734375
965.33203125,999.51171875,999.51171875,-59.5703125
965.33203125,702.1484375,174.31640625,-55.6640625
965.33203125,-629.39453125,-1000.0,-46.875
965.8203125,-1000.0,-882.32421875,-41.015625
965.33203125,-91.796875,420.8984375,-44.43359375
965.33203125,999.51171875,999.51171875,-48.828125
965.33203125,580.56640625,193.84765625,-42.48046875
965.33203125,-794.43359375,-1000.0,-39.55078125
965.33203125,-1000.0,-1000.0,-41.50390625
965.33203125,-152.83203125,183.59375,-36.62109375
965.33203125,999.51171875,999.51171875,-31.73828125
965.8203125,603.02734375,283.203125,-35.64453125
965.33203125,-809.5703125,-985.83984375,-27.34375
965.33203125,-1000.0,-1000.0,-14.16015625
965.33203125,37.59765625,34.66796875,-18.5546875
965.33203125,999.51171875,999.51171875,-25.390625
965.33203125,934.5703125,487.3046875,-31.25
965.8203125,-258.30078125,-834.9609375,-39.55078125
965.33203125,-1000.0,-1000.0,-37.59765625
965.33203125,-256.8359375,-181.640625,-42.96875
965.33203125,999.0234375,999.51171875,-53.22265625
965.33203125,999.51171875,669.921875,-49.31640625
965.33203125,-214.35546875,-682.12890625,-49.31640625
965.8203125,-1000.0,-1000.0,-46.38671875
965.33203125,-286.62109375,-194.3359375,-32.2265625
965.33203125,947.75390625,999.51171875,-40.52734375
967.28515625,999.51171875,900.87890625,-51.26953125
963.8671875,39.0625,-362.3046875,-41.50390625
913.0859375,-1000.0,-1000.0,-39.0625
999.51171875,-606.4453125,-232.91015625,-46.875
241.2109375,798.33984375,990.234375,-46.875
-986.81640625,999.51171875,999.51171875,-45.41015625
-1000.0,-141.11328125,-118.1640625,-48.828125
-969.23828125,-1000.0,-1000.0,-47.8515625
-1000.0,-984.375,-345.703125,-41.9921875
-1000.0,181.640625,918.45703125,-46.38671875
-1000.0,999.51171875,999.51171875,-48.828125
-1000.0,142.08984375,112.79296875,-47.36328125
-1000.0,-1000.0,-1000.0,-49.31640625
-1000.0,-1000.0,-554.19921875,-47.8515625
-1000.0,25.390625,800.29296875,-49.31640625
-1000.0,999.51171875,999.51171875,-51.26953125
-1000.0,152.83203125,152.34375,-49.8046875
-1000.0,-1000.0,-1000.0,-44.43359375
-1000.0,-1000.0,-767.08984375,-44.43359375
-1000.0,8.30078125,578.125,-47.8515625
-1000.0,999.51171875,999.51171875,-52.24609375
-1000.0,258.7890625,164.0625,-52.734375
-1000.0,-1000.0,-1000.0,-49.8046875
-1000.0,-1000.0,-936.5234375,-47.8515625
-1000.0,63.4765625,327.63671875,-47.36328125
-1000.0,999.51171875,999.51171875,-43.9453125
-1000.0,530.76171875,209.47265625,-43.9453125
-1000.0,-796.875,-1000.0,-41.9921875
-1000.0,-1000.0,-1000.0,-47.36328125
-1000.0,-222.16796875,14.16015625,-56.640625
-1000.0,999.51171875,999.51171875,-55.6640625
-1000.0,754.39453125,362.79296875,-65.4296875
-1000.0,-610.3515625,-932.6171875,-60.05859375
-1000.0,-1000.0,-1000.0,-38.0859375
-1000.0,-164.55078125,-132.32421875,-41.50390625
-1000.0,976.07421875,999.51171875,-70.3125
-1000.0,999.51171875,646.484375,-80.56640625
-1000.0,72.75390625,-701.66015625,-84.9609375
-1000.0,-1000.0,-1000.0,-100.09765625
-1000.0,-359.86328125,-200.1953125,-104.00390625
-1000.0,955.56640625,999.51171875,-114.2578125
-1000.0,999.51171875,789.55078125,-132.32421875
-1000.0,-49.31640625,-535.64453125,-134.27734375
-1000.0,-1000.0,-1000.0,-132.8125
-1000.0,-316.40625,-193.359375,-146.97265625
-1000.0,927.734375,999.51171875,-168.9453125
-1000.0,999.51171875,968.75,-184.08203125
-1000.0,218.75,-221.6796875,-188.96484375
-1000.0,-1000.0,-1000.0,-192.87109375
-1000.0,-622.0703125,-267.08984375,-200.1953125
-1000.0,769.04296875,962.890625,-202.1484375
-1000.0,999.51171875,999.51171875,-206.0546875
-1000.0,173.828125,13.671875,-214.84375
-1000.0,-1000.0,-1000.0,-212.890625
-1000.0,-911.62109375,-450.68359375,-203.61328125
-1000.0,398.4375,870.1171875,-203.125
-1000.0,999.51171875,999.51171875,-209.47265625
-1000.0,194.82421875,140.13671875,-211.42578125
-1000.0,-1000.0,-1000.0,-202.1484375
-1000.0,-501.953125,-555.17578125,-186.03515625
-1000.0,866.2109375,801.26953125,-187.5
-1000.0,999.51171875,999.51171875,-187.5
-1000.0,189.453125,166.015625,-178.7109375
-997.55859375,-1000.0,-1000.0,-163.0859375
-1000.0,-1000.0,-882.8125,-147.94921875
-944.82421875,25.87890625,419.43359375,-146.484375
-924.8046875,999.51171875,999.51171875,-138.18359375
-992.1875,322.265625,167.48046875,-126.953125
-1000.0,-957.51953125,-1000.0,-108.88671875
-935.546875,-1000.0,-1000.0,-89.84375
-690.91796875,-87.890625,129.39453125,-87.40234375
-633.7890625,999.51171875,999.51171875,-91.796875
-797.36328125,832.03125,295.8984375,-85.44921875
-893.5546875,-466.30859375,-968.26171875,-64.94140625
-757.32421875,-1000.0,-1000.0,-53.7109375
-501.46484375,-172.8515625,-63.96484375,-45.41015625
-420.8984375,999.51171875,999.51171875,-40.0390625
-557.6171875,953.61328125,474.12109375,-35.15625
-680.17578125,-299.8046875,-860.83984375,-17.578125
-580.56640625,-1000.0,-1000.0,-8.7890625
-330.078125,-149.90234375,-164.0625,-11.71875
-249.0234375,971.19140625,999.51171875,-2.9296875
-377.9296875,999.51171875,746.58203125,10.7421875
-533.69140625,225.09765625,-583.49609375,7.8125
-500.0,-1000.0,-1000.0,9.27734375
-241.69921875,-246.58203125,-193.359375,20.01953125
-125.0,992.67578125,999.51171875,20.99609375
-247.0703125,999.51171875,908.69140625,24.4140625
-404.78515625,178.22265625,-346.19140625,30.76171875
-392.08984375,-1000.0,-1000.0,33.203125
-152.34375,-402.34375,-218.75,30.76171875
-22.4609375,916.015625,993.65234375,26.3671875
-151.3671875,999.51171875,999.51171875,15.625
-332.51953125,210.9375,-98.14453125,7.32421875
-354.4921875,-1000.0,-1000.0,19.04296875
-116.69921875,-419.921875,-320.80078125,35.64453125
52.24609375,916.50390625,940.4296875,31.25
-52.24609375,999.51171875,999.51171875,19.04296875
-236.81640625,167.96875,52.734375,14.6484375
-291.9921875,-1000.0,-1000.0,12.20703125
-100.5859375,-859.86328125,-537.59765625,12.20703125
82.51953125,466.796875,805.17578125,9.27734375
33.203125,999.51171875,999.51171875,3.90625
-145.5078125,205.078125,155.2734375,4.39453125
-263.18359375,-1000.0,-1000.0,9.765625
422.8515625,-768.5546875,-741.2109375,20.5078125
999.51171875,590.33203125,607.91015625,19.53125
941.40625,999.51171875,999.51171875,2.9296875
958.0078125,652.83203125,180.6640625,-11.23046875
967.28515625,-680.6640625,-1000.0,-3.41796875
965.8203125,-1000.0,-954.1015625,4.8828125
965.8203125,31.25,300.29296875,-1.953125
965.33203125,999.51171875,999.51171875,-11.71875
965.33203125,583.49609375,226.5625,-20.5078125
965.8203125,-776.85546875,-1000.0,-6.8359375
965.8203125,-1000.0,-1000.0,5.859375
965.8203125,-67.3828125,64.94140625,2.44140625
965.33203125,999.51171875,999.51171875,-5.859375
965.33203125,918.45703125,376.46484375,-1.953125
965.33203125,-323.2421875,-923.33984375,13.18359375
965.33203125,-1000.0,-1000.0,-2.44140625
965.33203125,-185.546875,-121.09375,-22.4609375
965.33203125,999.51171875,999.51171875,-19.04296875
965.33203125,977.05078125,583.0078125,-22.94921875
965.33203125,-260.25390625,-766.11328125,-24.4140625
965.8203125,-1000.0,-1000.0,-11.23046875
965.8203125,-173.33984375,-185.05859375,-10.7421875
965.33203125,997.55859375,999.51171875,-18.06640625
965.33203125,999.51171875,815.91796875,-14.6484375
965.33203125,-38.0859375,-497.0703125,-5.37109375
965.33203125,-1000.0,-1000.0,-9.27734375
965.33203125,-174.8046875,-186.03515625,-15.625
965.33203125,988.28125,999.51171875,-18.5546875
965.33203125,999.51171875,978.02734375,-16.6015625
965.33203125,171.875,-205.56640625,-21.484375
965.8203125,-1000.0,-1000.0,-22.94921875
965.8203125,-550.78125,-272.94921875,-15.625
965.33203125,824.21875,959.47265625,-12.20703125
965.33203125,999.51171875,999.51171875,-10.7421875
965.33203125,181.15234375,19.53125,-15.13671875
965.8203125,-1000.0,-1000.0,-17.08984375
965.8203125,-873.53515625,-438.96484375,-18.06640625
965.33203125,449.70703125,872.0703125,-23.4375
965.33203125,999.51171875,999.51171875,-32.2265625
965.33203125,205.078125,166.9921875,-31.73828125
965.8203125,-1000.0,-1000.0,-19.04296875
965.33203125,-1000.0,-676.7578125,-21.484375
965.33203125,149.4140625,687.01171875,-29.78515625
965.33203125,999.51171875,999.51171875,-30.76171875
965.8203125,186.03515625,164.55078125,-32.2265625
965.33203125,-1000.0,-1000.0,-32.71484375
965.33203125,-1000.0,-879.39453125,-26.85546875
965.33203125,23.92578125,422.36328125,-21.97265625
965.33203125,999.51171875,999.51171875,-27.83203125
965.33203125,466.796875,193.84765625,-35.64453125
965.33203125,-888.671875,-1000.0,-32.71484375
965.33203125,-1000.0,-1000.0,-21.484375
965.33203125,-40.0390625,195.3125,-22.4609375
965.33203125,999.51171875,999.51171875,-35.64453125
965.33203125,575.1953125,284.1796875,-45.41015625
965.8203125,-775.390625,-964.35546875,-43.45703125
965.8203125,-1000.0,-1000.0,-34.1796875
965.8203125,-199.70703125,-99.609375,-34.66796875
965.33203125,999.51171875,999.51171875,-42.48046875
965.33203125,940.4296875,511.23046875,-51.7578125
965.33203125,-331.0546875,-839.35546875,-48.33984375
965.33203125,-1000.0,-1000.0,-39.0625
965.33203125,-159.1796875,-143.06640625,-37.109375
965.33203125,999.51171875,999.51171875,-40.0390625
965.33203125,999.51171875,717.28515625,-47.8515625
965.33203125,-124.0234375,-619.140625,-35.15625
965.33203125,-1000.0,-1000.0,-23.4375
965.8203125,-420.8984375,-198.2421875,-27.34375
965.33203125,889.6484375,999.51171875,-33.203125
965.33203125,999.51171875,906.25,-40.52734375
965.33203125,40.0390625,-353.02734375,-35.64453125
965.8203125,-1000.0,-1000.0,-37.109375
965.33203125,-481.4453125,-224.12109375,-41.50390625
965.33203125,855.46875,979.98046875,-44.43359375
965.33203125,999.51171875,999.51171875,-49.31640625
965.33203125,198.73046875,-34.66796875,-41.9921875
965.33203125,-1000.0,-1000.0,-30.2734375
965.8203125,-723.6328125,-362.79296875,-25.390625
965.33203125,637.20703125,914.0625,-32.2265625
965.33203125,999.51171875,999.51171875,-54.19921875
965.33203125,345.703125,130.859375,-61.03515625
965.33203125,-960.44921875,-1000.0,-51.26953125
965.33203125,-1000.0,-604.98046875,-45.8984375
965.33203125,149.90234375,757.32421875,-44.43359375
965.33203125,999.51171875,999.51171875,-50.78125
965.33203125,142.578125,145.5078125,-54.6875
965.8203125,-1000.0,-1000.0,-44.43359375
965.8203125,-1000.0,-815.4296875,-29.78515625
965.8203125,-18.06640625,511.71875,-35.64453125
926.7578125,999.51171875,999.51171875,-49.8046875
999.51171875,348.6328125,165.0390625,-47.36328125
420.41015625,-944.82421875,-1000.0,-42.48046875
-12.20703125,-1000.0,-989.74609375,-43.9453125
518.5546875,-139.16015625,233.88671875,-41.015625
-572.75390625,999.51171875,999.51171875,-47.8515625
-1000.0,173.33984375,226.5625,-55.17578125
-934.5703125,-1000.0,-1000.0,-40.0390625
-1000.0,-1000.0,-1000.0,-26.85546875
-1000.0,-252.9296875,33.69140625,-26.85546875
-1000.0,999.51171875,999.51171875,-33.203125
-1000.0,252.44140625,346.19140625,-41.9921875
-1000.0,-1000.0,-936.5234375,-42.48046875
-1000.0,-1000.0,-1000.0,-30.2734375
-1000.0,-304.6875,-157.71484375,-33.69140625
-1000.0,999.51171875,999.51171875,-41.9921875
-1000.0,682.12890625,572.265625,-49.8046875
-1000.0,-687.5,-779.78515625,-58.10546875
-1000.0,-1000.0,-1000.0,-47.8515625
-1000.0,-440.4296875,-197.75390625,-45.8984375
-1000.0,839.84375,999.51171875,-55.17578125
-1000.0,999.51171875,883.30078125,-49.31640625
-1000.0,177.24609375,-397.4609375,-40.0390625
-1000.0,-1000.0,-1000.0,-38.57421875
-1000.0,-486.81640625,-206.0546875,-38.57421875
-1000.0,895.5078125,999.51171875,-41.015625
-1000.0,999.51171875,961.9140625,-47.36328125
-1000.0,35.15625,-241.69921875,-48.828125
-1000.0,-1000.0,-1000.0,-42.96875
-1000.0,-592.28515625,-285.15625,-40.52734375
-1000.0,763.18359375,948.73046875,-43.45703125
-1000.0,999.51171875,999.51171875,-51.7578125
-1000.0,178.7109375,36.62109375,-55.6640625
-1000.0,-1000.0,-1000.0,-51.26953125
-1000.0,-870.60546875,-455.078125,-34.1796875
-1000.0,461.9140625,866.2109375,-34.1796875
-1000.0,999.51171875,999.51171875,-52.24609375
-979.4921875,155.2734375,143.06640625,-53.22265625
-976.07421875,-1000.0,-1000.0,-46.875
-1000.0,-985.83984375,-684.5703125,-41.015625
91.796875,251.953125,671.875,-40.0390625
999.51171875,999.51171875,999.51171875,-48.828125
917.48046875,751.46484375,172.36328125,-53.22265625
958.0078125,-782.71484375,-1000.0,-39.0625
967.7734375,-714.35546875,-830.56640625,-28.80859375
965.33203125,812.98828125,492.67578125,-31.25
965.33203125,999.51171875,999.51171875,-37.59765625
965.8203125,754.39453125,203.125,-50.78125
965.33203125,-569.3359375,-1000.0,-51.7578125
965.8203125,-1000.0,-1000.0,-40.52734375
965.33203125,104.98046875,153.80859375,-28.3203125
965.33203125,999.51171875,999.51171875,-34.1796875
965.33203125,817.3828125,309.08203125,-52.734375
965.33203125,-448.2421875,-955.56640625,-51.26953125
965.33203125,-1000.0,-1000.0,-35.64453125
965.33203125,-149.90234375,-82.51953125,-34.66796875
965.33203125,971.6796875,999.51171875,-46.38671875
965.33203125,999.51171875,603.515625,-53.7109375
965.33203125,163.0859375,-744.62890625,-49.31640625
965.8203125,-1000.0,-1000.0,-41.9921875
965.8203125,-225.5859375,-169.43359375,-40.0390625
965.33203125,999.51171875,999.51171875,-41.9921875
965.33203125,990.234375,695.3125,-46.38671875
965.8203125,-211.42578125,-650.87890625,-48.33984375
965.8203125,-1000.0,-1000.0,-46.875
965.33203125,-187.5,-191.40625,-42.48046875
965.33203125,967.7734375,999.51171875,-46.875
965.33203125,999.51171875,939.453125,-58.59375
965.33203125,193.359375,-296.38671875,-52.734375
965.33203125,-1000.0,-1000.0,-44.921875
965.33203125,-403.3203125,-224.609375,-44.43359375
965.33203125,919.921875,988.76953125,-39.0625
965.33203125,999.51171875,999.51171875,-44.43359375
965.33203125,175.78125,-75.68359375,-38.0859375
965.8203125,-1000.0,-1000.0,-34.1796875
981.4453125,-756.8359375,-377.9296875,-41.015625
886.23046875,609.86328125,904.78515625,-38.57421875
999.51171875,999.51171875,999.51171875,-46.875
524.4140625,175.78125,113.76953125,-48.828125
-312.5,-1000.0,-1000.0,-41.9921875
794.43359375,-841.30859375,-587.890625,-38.0859375
999.51171875,504.8828125,769.53125,-27.34375
902.34375,999.51171875,999.51171875,-34.66796875
977.05078125,143.06640625,157.2265625,-43.9453125
965.33203125,-1000.0,-1000.0,-38.57421875
965.33203125,-1000.0,-808.59375,-34.66796875
965.33203125,83.0078125,523.92578125,-30.2734375
965.33203125,999.51171875,999.51171875,-39.55078125
965.33203125,256.34765625,159.66796875,-53.22265625
965.33203125,-984.86328125,-1000.0,-44.921875
965.33203125,-1000.0,-983.3984375,-23.92578125
965.33203125,-38.0859375,233.3984375,-32.2265625
965.33203125,999.51171875,999.51171875,-46.38671875
965.33203125,999.51171875,296.38671875,-45.41015625
965.33203125,-159.1796875,-974.609375,-43.45703125
965.8203125,-1000.0,-1000.0,-34.1796875
965.33203125,-72.265625,22.4609375,-29.78515625
965.33203125,999.51171875,999.51171875,-41.015625
965.33203125,875.9765625,437.5,-42.48046875
965.33203125,-393.5546875,-880.37109375,-32.2265625
965.33203125,-1000.0,-1000.0,-28.80859375
965.8203125,-188.96484375,-150.390625,-29.296875
965.33203125,999.51171875,999.51171875,-39.0625
965.33203125,969.7265625,623.53515625,-47.36328125
965.33203125,-273.92578125,-733.3984375,-39.0625
965.8203125,-1000.0,-1000.0,-31.25
965.33203125,-181.15234375,-183.59375,-33.203125
965.33203125,999.51171875,999.51171875,-40.52734375
965.33203125,999.51171875,832.03125,-45.41015625
965.33203125,-145.99609375,-474.12109375,-47.36328125
965.8203125,-1000.0,-1000.0,-38.0859375
972.16796875,-217.7734375,-193.359375,-34.1796875
928.22265625,979.00390625,999.51171875,-48.828125
986.81640625,999.51171875,968.75,-52.24609375
852.5390625,-3.90625,-220.21484375,-43.9453125
-423.828125,-1000.0,-1000.0,-45.8984375
-1000.0,-1000.0,-300.78125,-41.50390625
-943.84765625,134.27734375,939.94140625,-37.109375
-1000.0,999.51171875,999.51171875,-44.921875
-1000.0,86.9140625,60.05859375,-49.8046875
-1000.0,-1000.0,-1000.0,-37.59765625
-1000.0,-1000.0,-474.609375,-26.3671875
-969.7265625,161.1328125,855.95703125,-36.62109375
-1000.0,999.51171875,999.51171875,-33.203125
-770.99609375,196.2890625,147.94921875,-18.06640625
349.609375,-1000.0,-1000.0,-40.0390625
999.51171875,-333.984375,-598.6328125,-54.6875
936.03515625,971.6796875,758.30078125,-48.828125
957.51953125,980.46875,999.51171875,-61.5234375
968.75,914.0625,175.29296875,-71.77734375
965.33203125,-343.75,-1000.0,-63.4765625
965.33203125,-1000.0,-924.31640625,-55.17578125
965.33203125,8.7890625,354.00390625,-60.05859375
965.33203125,999.51171875,999.51171875,-71.2890625
965.33203125,413.0859375,187.5,-62.98828125
965.8203125,-909.66796875,-1000.0,-55.6640625
965.33203125,-1000.0,-1000.0,-48.33984375
965.33203125,-152.34375,113.76953125,-43.9453125
965.33203125,999.51171875,999.51171875,-58.59375
965.33203125,715.8203125,323.2421875,-57.12890625
965.8203125,-708.0078125,-966.796875,-50.78125
965.8203125,-1000.0,-1000.0,-48.828125
965.8203125,175.29296875,13.671875,-41.50390625
965.33203125,999.51171875,999.51171875,-43.45703125
965.33203125,985.83984375,518.06640625,-44.43359375
965.33203125,-106.4453125,-803.7109375,-40.0390625
965.8203125,-1000.0,-1000.0,-32.2265625
965.33203125,-197.75390625,-182.6171875,-36.62109375
965.33203125,999.51171875,999.51171875,-43.9453125
965.33203125,999.51171875,745.1171875,-45.41015625
965.8203125,-89.35546875,-592.7734375,-40.52734375
965.8203125,-1000.0,-1000.0,-33.203125
965.33203125,-196.77734375,-195.3125,-30.76171875
965.33203125,997.55859375,999.51171875,-32.2265625
965.33203125,999.51171875,908.69140625,-40.0390625
965.33203125,-0.9765625,-343.75,-41.015625
965.33203125,-1000.0,-1000.0,-35.15625
965.33203125,-530.76171875,-250.48828125,-31.25
965.33203125,815.4296875,978.02734375,-45.8984375
965.33203125,999.51171875,999.51171875,-52.24609375
965.33203125,161.1328125,-79.1015625,-43.45703125
965.8203125,-1000.0,-1000.0,-35.15625
965.8203125,-661.1328125,-381.8359375,-26.3671875
965.33203125,695.3125,897.94921875,-35.15625
965.33203125,999.51171875,999.51171875,-48.828125
965.33203125,527.83203125,151.85546875,-55.17578125
965.8203125,-831.0546875,-1000.0,-44.921875
965.33203125,-1000.0,-630.859375,-36.62109375
965.33203125,92.7734375,733.88671875,-43.9453125
965.33203125,999.51171875,999.51171875,-53.7109375
965.33203125,165.0390625,152.34375,-61.03515625
965.8203125,-1000.0,-1000.0,-57.12890625
965.8203125,-1000.0,-828.61328125,-51.26953125
965.33203125,12.20703125,494.62890625,-55.6640625
965.33203125,999.51171875,999.51171875,-64.94140625
965.33203125,303.22265625,169.43359375,-56.640625
965.8203125,-986.328125,-1000.0,-51.7578125
965.33203125,-1000.0,-977.5390625,-49.8046875
965.33203125,11.23046875,254.39453125,-46.38671875
965.33203125,999.51171875,999.51171875,-48.33984375
965.33203125,490.72265625,240.72265625,-31.73828125
965.33203125,-844.7265625,-995.1171875,-32.2265625
965.8203125,-1000.0,-1000.0,-52.24609375
965.33203125,-195.3125,-0.48828125,-47.36328125
965.33203125,999.51171875,999.51171875,-40.52734375
965.33203125,901.85546875,425.29296875,-40.52734375
965.33203125,-385.25390625,-888.671875,-35.64453125
965.8203125,-1000.0,-1000.0,-24.4140625
964.84375,-205.078125,-161.1328125,-21.484375
958.49609375,999.51171875,999.51171875,-27.83203125
985.3515625,838.37890625,598.6328125,-20.99609375
855.46875,-470.703125,-757.32421875,-4.8828125
760.7421875,-1000.0,-1000.0,-5.37109375
912.59765625,-359.375,-204.58984375,-17.08984375
965.33203125,934.08203125,999.51171875,-28.3203125
915.0390625,999.51171875,833.0078125,-35.64453125
340.33203125,-158.203125,-475.5859375,-24.90234375
-637.6953125,-1000.0,-1000.0,-13.671875
-1000.0,-716.796875,-207.51953125,-15.13671875
-977.05078125,646.484375,999.51171875,-21.484375
-997.0703125,999.51171875,987.79296875,-19.04296875
-1000.0,-129.39453125,-186.03515625,-15.625
-1000.0,-1000.0,-1000.0,-16.11328125
-997.0703125,-795.8984375,-295.41015625,-20.5078125
-1000.0,498.53515625,950.1953125,-24.90234375
-979.98046875,999.51171875,999.51171875,-23.92578125
-847.16796875,158.203125,22.94921875,-19.53125
-605.46875,-1000.0,-1000.0,-10.25390625
-7.32421875,-645.01953125,-473.6328125,-6.34765625
659.1796875,735.3515625,849.12109375,-14.6484375
749.0234375,999.51171875,999.51171875,-26.85546875
433.59375,243.65234375,157.2265625,-31.25
164.55078125,-1000.0,-1000.0,-24.4140625
485.3515625,-520.99609375,-647.4609375,-19.04296875
945.3125,869.140625,714.35546875,-21.484375
928.7109375,999.51171875,999.51171875,-25.87890625
992.1875,792.48046875,167.48046875,-36.1328125
239.2578125,-463.8671875,-1000.0,-32.2265625
-939.453125,-1000.0,-965.33203125,-24.4140625
-1000.0,-218.75,282.71484375,-34.1796875
-965.33203125,999.51171875,999.51171875,-47.36328125
-1000.0,196.77734375,188.4765625,-53.22265625
-991.69921875,-1000.0,-1000.0,-49.8046875
-993.1640625,-1000.0,-1000.0,-41.50390625
-1000.0,-238.28125,96.6796875,-36.1328125
-528.3203125,999.51171875,999.51171875,-37.59765625
-64.94140625,764.16015625,325.68359375,-48.828125
-29.78515625,-610.83984375,-950.68359375,-52.24609375
534.1796875,-1000.0,-1000.0,-51.26953125
999.51171875,-68.359375,-91.796875,-57.6171875
949.70703125,999.0234375,999.51171875,-63.4765625
958.984375,999.51171875,607.91015625,-62.5
967.7734375,74.70703125,-739.74609375,-52.24609375
965.8203125,-1000.0,-1000.0,-44.43359375
965.33203125,-183.10546875,-175.78125,-41.50390625
965.33203125,990.234375,999.51171875,-43.45703125
965.33203125,999.51171875,779.78515625,-52.734375
965.33203125,227.5390625,-542.48046875,-52.24609375
965.8203125,-1000.0,-1000.0,-42.96875
965.8203125,-330.56640625,-189.94140625,-44.921875
965.33203125,956.0546875,999.51171875,-50.29296875
965.33203125,999.51171875,958.0078125,-51.7578125
965.8203125,211.42578125,-253.41796875,-45.8984375
965.33203125,-1000.0,-1000.0,-29.78515625
965.33203125,-475.09765625,-244.140625,-27.83203125
965.33203125,882.32421875,974.12109375,-42.48046875
965.33203125,999.51171875,999.51171875,-52.24609375
965.33203125,208.0078125,-17.08984375,-59.08203125
965.8203125,-1000.0,-1000.0,-52.24609375
965.8203125,-346.6796875,-333.984375,-38.57421875
965.33203125,949.70703125,937.5,-37.109375
965.33203125,999.51171875,999.51171875,-35.64453125
965.33203125,177.24609375,86.9140625,-35.64453125
965.8203125,-1000.0,-1000.0,-34.66796875
965.8203125,-940.4296875,-610.3515625,-31.25
965.33203125,343.75,742.1875,-37.109375
965.33203125,999.51171875,999.51171875,-44.921875
965.33203125,165.52734375,152.83203125,-52.24609375
965.33203125,-1000.0,-1000.0,-53.22265625
965.8203125,-1000.0,-868.65234375,-42.96875
964.35546875,-24.4140625,436.03515625,-32.71484375
966.796875,999.51171875,999.51171875,-31.25
964.84375,600.09765625,184.5703125,-26.85546875
944.3359375,-753.90625,-1000.0,-21.97265625
958.49609375,-1000.0,-1000.0,-26.85546875
962.40234375,-168.45703125,184.08203125,-36.62109375
970.703125,999.51171875,999.51171875,-44.921875
953.61328125,589.84375,257.8125,-48.33984375
780.2734375,-789.0625,-987.79296875,-46.38671875
841.30859375,-1000.0,-1000.0,-36.62109375
974.609375,-198.73046875,-24.4140625,-31.25
966.796875,999.51171875,999.51171875,-32.2265625
927.24609375,910.64453125,425.78125,-38.0859375
606.4453125,-374.0234375,-890.13671875,-40.52734375
484.86328125,-1000.0,-1000.0,-35.64453125
822.75390625,-202.63671875,-162.109375,-49.8046875
992.1875,999.51171875,999.51171875,-58.59375
945.80078125,856.4453125,612.3046875,-50.78125
638.18359375,-464.35546875,-743.65234375,-44.921875
722.65625,-1000.0,-1000.0,-43.45703125
176.26953125,-908.69140625,-209.9609375,-39.55078125
-994.62890625,558.10546875,999.51171875,-39.0625
-997.55859375,745.60546875,787.59765625,-50.29296875
-970.21484375,-813.4765625,-541.9921875,-52.734375
-918.45703125,-1000.0,-1000.0,-43.9453125
-258.7890625,-175.78125,-193.359375,-35.64453125
389.6484375,956.54296875,999.51171875,-35.64453125
453.125,999.51171875,999.51171875,-46.38671875
126.46484375,205.078125,-152.83203125,-48.828125
-80.078125,-1000.0,-1000.0,-42.48046875
349.12109375,-534.66796875,-322.265625,-37.109375
877.9296875,845.21484375,940.4296875,-34.66796875
843.26171875,999.51171875,999.51171875,-46.38671875
437.98828125,193.84765625,21.484375,-54.6875
207.03125,-1000.0,-1000.0,-46.875
515.13671875,-759.27734375,-500.9765625,-40.0390625
923.828125,612.79296875,829.58984375,-39.0625
903.3203125,999.51171875,999.51171875,-44.43359375
-12.6953125,145.5078125,166.9921875,-46.875
-955.56640625,-1000.0,-1000.0,-42.96875
-1000.0,-1000.0,-693.359375,-28.80859375
-978.515625,-34.66796875,666.015625,-28.3203125
-1000.0,999.51171875,999.51171875,-41.015625
-980.46875,190.91796875,171.875,-42.48046875
-1000.0,-1000.0,-1000.0,-38.57421875
-574.21875,-1000.0,-894.04296875,-29.78515625
325.1953125,145.5078125,399.90234375,-29.78515625
731.93359375,999.51171875,999.51171875,-41.9921875
560.05859375,427.734375,198.2421875,-45.41015625
-372.55859375,-873.53515625,-1000.0,-38.0859375
-1000.0,-1000.0,-1000.0,-28.80859375
-973.6328125,-237.3046875,60.05859375,-30.76171875
-993.65234375,999.51171875,999.51171875,-42.96875
-993.1640625,634.27734375,340.33203125,-53.22265625
-1000.0,-754.39453125,-941.40625,-59.08203125
-982.421875,-1000.0,-1000.0,-45.41015625
-624.51171875,-200.1953125,-123.53515625,-35.15625
-711.9140625,999.51171875,999.51171875,-41.9921875
-1000.0,925.29296875,548.828125,-45.41015625
-993.65234375,-359.86328125,-800.78125,-49.31640625
-623.53515625,-1000.0,-1000.0,-45.41015625
220.21484375,-125.48828125,-175.29296875,-30.76171875
851.5625,991.2109375,999.51171875,-20.01953125
969.23828125,999.51171875,764.16015625,-45.41015625
771.97265625,78.125,-565.91796875,-79.58984375
813.4765625,-1000.0,-1000.0,-88.37890625
984.375,-189.94140625,-193.359375,-90.8203125
961.9140625,999.51171875,999.51171875,-95.703125
962.890625,999.51171875,937.01171875,-101.07421875
966.30859375,135.7421875,-298.33984375,-98.6328125
965.33203125,-1000.0,-1000.0,-86.42578125
965.8203125,-410.15625,-242.1875,-81.0546875
965.33203125,905.2734375,961.9140625,-93.26171875
965.33203125,999.51171875,999.51171875,-102.5390625
965.8203125,214.35546875,48.828125,-100.5859375
965.8203125,-1000.0,-1000.0,-77.1484375
965.8203125,-413.0859375,-362.79296875,-59.08203125
965.33203125,917.48046875,924.31640625,-57.6171875
965.33203125,999.51171875,999.51171875,-62.98828125
965.33203125,192.3828125,126.46484375,-66.89453125
965.8203125,-1000.0,-1000.0,-51.7578125
966.30859375,-874.51171875,-592.7734375,-41.50390625
959.9609375,445.3125,762.20703125,-44.921875
974.609375,999.51171875,999.51171875,-46.875
941.89453125,219.7265625,169.43359375,-48.828125
847.16796875,-995.1171875,-1000.0,-46.38671875
918.45703125,-1000.0,-838.8671875,-45.41015625
966.796875,0.9765625,480.46875,-44.43359375
975.5859375,999.51171875,999.51171875,-44.43359375
916.9921875,394.04296875,179.19921875,-53.22265625
658.203125,-940.91796875,-1000.0,-53.7109375
768.06640625,-1000.0,-984.86328125,-41.50390625
971.6796875,7.8125,233.3984375,-40.0390625
978.515625,999.51171875,999.51171875,-47.36328125
884.27734375,687.98828125,297.36328125,-50.78125
502.9296875,-651.85546875,-969.7265625,-47.8515625
532.71484375,-1000.0,-1000.0,-37.59765625
880.859375,-133.7890625,-5.37109375,-42.96875
999.51171875,999.51171875,999.51171875,-47.8515625
814.94140625,681.640625,420.8984375,-51.26953125
356.93359375,-680.6640625,-889.16015625,-57.12890625
341.796875,-1000.0,-1000.0,-49.31640625
766.6015625,-191.40625,-180.6640625,-41.50390625
999.51171875,999.51171875,999.51171875,-42.48046875
793.9453125,966.796875,666.50390625,-46.38671875
301.26953125,-273.4375,-685.05859375,-53.7109375
178.22265625,-1000.0,-1000.0,-55.6640625
615.234375,-223.6328125,-187.98828125,-49.8046875
922.8515625,969.23828125,999.51171875,-53.22265625
699.70703125,999.51171875,922.36328125,-67.3828125
233.88671875,41.50390625,-329.1015625,-63.4765625
74.70703125,-1000.0,-1000.0,-49.31640625
480.95703125,-485.3515625,-220.703125,-44.921875
837.40234375,871.58203125,999.51171875,-49.31640625
678.7109375,999.51171875,995.60546875,-56.15234375
218.26171875,44.921875,-172.8515625,-53.7109375
-21.484375,-1000.0,-1000.0,-47.36328125
325.68359375,-619.140625,-324.70703125,-36.62109375
734.86328125,739.2578125,928.7109375,-36.1328125
625.48828125,999.51171875,999.51171875,-47.8515625
158.69140625,200.68359375,82.51953125,-57.12890625
-114.74609375,-1000.0,-1000.0,-56.15234375
202.63671875,-553.22265625,-458.0078125,-40.0390625
649.4140625,835.44921875,869.140625,-35.15625
601.07421875,999.51171875,999.51171875,-49.8046875
154.78515625,151.85546875,153.3203125,-57.12890625
-142.08984375,-1000.0,-1000.0,-45.41015625
109.86328125,-1000.0,-769.04296875,-26.85546875
579.58984375,58.10546875,576.171875,-25.390625
626.953125,999.51171875,999.51171875,-46.875
194.3359375,240.234375,162.109375,-57.6171875
-153.80859375,-1000.0,-1000.0,-52.24609375
37.59765625,-1000.0,-921.875,-40.0390625
521.484375,206.0546875,355.46875,-35.15625
635.25390625,999.51171875,999.51171875,-42.96875
238.28125,420.41015625,213.8671875,-53.22265625
-156.25,-888.671875,-1000.0,-44.921875
-50.78125,-1000.0,-1000.0,-28.80859375
428.7109375,-117.67578125,96.6796875,-29.78515625
615.234375,999.51171875,999.51171875,-41.9921875
264.16015625,503.41796875,322.265625,-57.12890625
-150.390625,-856.93359375,-944.82421875,-55.17578125
-102.05078125,-1000.0,-1000.0,-34.1796875
374.0234375,-183.10546875,-143.5546875,-27.83203125
618.1640625,987.79296875,999.51171875,-35.15625
319.82421875,999.51171875,615.72265625,-49.31640625
-121.58203125,-54.6875,-740.234375,-52.24609375
-176.7578125,-1000.0,-1000.0,-41.9921875
291.50390625,-193.84765625,-192.87109375,-37.109375
598.14453125,999.51171875,999.51171875,-39.55078125
355.95703125,999.51171875,785.64453125,-48.33984375
-97.65625,14.16015625,-538.57421875,-46.38671875
-218.26171875,-1000.0,-1000.0,-32.2265625
168.45703125,-398.92578125,-202.1484375,-21.484375
484.86328125,922.36328125,999.51171875,-30.76171875
293.9453125,999.51171875,940.4296875,-45.8984375
-490.72265625,4.39453125,-290.52734375,-46.38671875
-996.58203125,-1000.0,-1000.0,-38.0859375
-541.50390625,-460.44921875,-247.55859375,-35.15625
-25.87890625,868.65234375,975.5859375,-35.15625
-54.6875,999.51171875,999.51171875,-41.50390625
-615.234375,121.58203125,-46.38671875,-51.26953125
-1000.0,-1000.0,-1000.0,-52.734375
-982.91015625,-980.95703125,-419.921875,-39.0625
-995.1171875,259.27734375,882.32421875,-38.57421875
-1000.0,999.51171875,999.51171875,-55.6640625
-1000.0,182.6171875,138.671875,-62.98828125
-1000.0,-1000.0,-1000.0,-53.22265625
-1000.0,-1000.0,-671.875,-38.57421875
-1000.0,30.2734375,688.96484375,-44.43359375
-1000.0,999.51171875,999.51171875,-64.94140625
-1000.0,151.3671875,157.71484375,-65.91796875
-1000.0,-1000.0,-1000.0,-46.38671875
-1000.0,-1000.0,-856.93359375,-40.52734375
-1000.0,-4.39453125,457.03125,-41.015625
-1000.0,999.51171875,999.51171875,-47.8515625
-1000.0,234.375,168.9453125,-49.8046875
-1000.0,-987.79296875,-1000.0,-49.31640625
-1000.0,-1000.0,-1000.0,-45.41015625
-1000.0,-167.48046875,173.828125,-47.36328125
-1000.0,999.51171875,999.51171875,-54.19921875
-1000.0,958.49609375,319.3359375,-55.6640625
-931.640625,-270.99609375,-957.03125,-52.734375
-1000.0,-1000.0,-1000.0,-41.015625
-367.1875,-218.26171875,-37.59765625,-36.62109375
696.2890625,999.51171875,999.51171875,-44.921875
-606.4453125,611.81640625,415.0390625,-58.59375
-899.90234375,-783.69140625,-898.92578125,-57.6171875
153.80859375,-1000.0,-1000.0,-37.59765625
770.99609375,-114.74609375,-167.96875,-28.80859375
975.5859375,973.14453125,999.51171875,-43.9453125
947.75390625,999.51171875,695.3125,-61.5234375
967.28515625,196.77734375,-649.4140625,-54.6875
965.8203125,-1000.0,-1000.0,-46.38671875
965.33203125,-199.70703125,-183.10546875,-45.8984375
965.33203125,999.51171875,999.51171875,-40.52734375
965.33203125,999.51171875,951.171875,-42.96875
965.33203125,230.95703125,-273.4375,-40.0390625
965.33203125,-1000.0,-1000.0,-24.90234375
965.33203125,-379.39453125,-215.8203125,-16.6015625
965.33203125,935.546875,999.51171875,-30.76171875
965.33203125,999.51171875,999.51171875,-53.22265625
965.33203125,202.63671875,-136.23046875,-56.15234375
965.8203125,-1000.0,-1000.0,-43.9453125
965.33203125,-528.3203125,-330.078125,-34.1796875
965.33203125,851.07421875,931.15234375,-40.52734375
965.33203125,999.51171875,999.51171875,-51.7578125
965.33203125,177.24609375,66.40625,-46.38671875
965.8203125,-1000.0,-1000.0,-33.69140625
965.8203125,-927.734375,-543.45703125,-33.69140625
965.33203125,373.046875,801.7578125,-37.109375
965.33203125,999.51171875,999.51171875,-49.31640625
965.8203125,152.34375,160.64453125,-57.6171875
965.8203125,-1000.0,-1000.0,-42.96875
965.8203125,-1000.0,-753.41796875,-31.73828125
965.33203125,179.6875,594.23828125,-39.55078125
965.33203125,999.51171875,999.51171875,-45.8984375
965.33203125,795.41015625,175.78125,-52.734375
965.8203125,-479.98046875,-1000.0,-49.8046875
965.8203125,-1000.0,-963.8671875,-40.0390625
965.33203125,-130.859375,284.1796875,-39.0625
970.21484375,999.51171875,999.51171875,-48.33984375
943.84765625,476.07421875,221.19140625,-58.10546875
950.1953125,-865.234375,-1000.0,-52.734375
986.328125,-1000.0,-1000.0,-42.96875
-137.6953125,-499.51171875,18.5546875,-39.55078125
-1000.0,999.51171875,999.51171875,-43.9453125
-961.42578125,509.765625,371.09375,-46.38671875
-989.74609375,-925.78125,-934.08203125,-39.0625
-1000.0,-1000.0,-1000.0,-29.296875
-1000.0,-243.1640625,-96.19140625,-35.15625
-1000.0,999.51171875,999.51171875,-47.36328125
-1000.0,383.7890625,492.1875,-57.6171875
-1000.0,-935.05859375,-844.23828125,-49.8046875
-1000.0,-1000.0,-1000.0,-29.78515625
-1000.0,-387.6953125,-205.56640625,-31.25
-1000.0,918.45703125,999.51171875,-44.43359375
-1000.0,999.51171875,822.75390625,-46.38671875
-985.83984375,-91.796875,-492.67578125,-44.921875
-983.88671875,-1000.0,-1000.0,-45.41015625
-996.58203125,-397.4609375,-186.03515625,-42.48046875
-168.9453125,885.25390625,999.51171875,-41.9921875
849.12109375,999.51171875,999.51171875,-45.8984375
969.7265625,211.9140625,-127.44140625,-48.828125
941.89453125,-1000.0,-1000.0,-41.50390625
968.75,-359.375,-262.20703125,-33.203125
965.8203125,943.359375,971.6796875,-31.25
965.33203125,999.51171875,999.51171875,-40.52734375
965.33203125,210.44921875,3.90625,-43.9453125
965.8203125,-1000.0,-1000.0,-37.109375
965.8203125,-724.609375,-429.6875,-38.57421875
965.33203125,629.8828125,880.37109375,-47.36328125
965.33203125,999.51171875,999.51171875,-50.29296875
965.33203125,527.34375,149.4140625,-44.921875
965.8203125,-863.76953125,-1000.0,-37.59765625
965.33203125,-1000.0,-658.69140625,-26.3671875
965.33203125,244.62890625,703.125,-24.4140625
965.33203125,999.51171875,999.51171875,-38.0859375
965.33203125,269.04296875,166.9921875,-46.38671875
965.33203125,-989.2578125,-1000.0,-36.62109375
965.8203125,-1000.0,-874.51171875,-33.69140625
965.33203125,38.0859375,432.12890625,-39.0625
965.33203125,999.51171875,999.51171875,-43.9453125
965.8203125,436.5234375,188.4765625,-44.43359375
965.33203125,-971.19140625,-1000.0,-38.0859375
965.8203125,-1000.0,-968.26171875,-34.66796875
965.33203125,291.50390625,274.4140625,-37.109375
965.33203125,999.51171875,999.51171875,-42.96875
965.33203125,561.5234375,286.1328125,-39.0625
965.33203125,-769.04296875,-973.14453125,-36.62109375
965.8203125,-1000.0,-1000.0,-36.1328125
965.33203125,-82.51953125,-1.46484375,-41.015625
965.33203125,999.51171875,999.51171875,-48.33984375
965.33203125,805.17578125,475.5859375,-54.19921875
965.33203125,-505.859375,-849.12109375,-58.10546875
965.33203125,-1000.0,-1000.0,-42.96875
965.33203125,-182.12890625,-178.22265625,-28.80859375
965.33203125,999.51171875,999.51171875,-29.78515625
965.33203125,999.51171875,701.171875,-36.1328125
965.33203125,-180.17578125,-644.53125,-47.36328125
965.8203125,-1000.0,-1000.0,-49.8046875
965.8203125,-301.26953125,-193.359375,-40.0390625
965.33203125,932.6171875,999.51171875,-43.45703125
965.33203125,999.51171875,923.33984375,-52.24609375
965.33203125,116.2109375,-329.1015625,-50.78125
965.33203125,-1000.0,-1000.0,-50.29296875
965.8203125,-251.46484375,-205.56640625,-56.15234375
965.33203125,971.6796875,999.0234375,-62.01171875
965.33203125,999.51171875,999.51171875,-61.5234375
965.33203125,229.98046875,-92.28515625,-62.5
965.33203125,-1000.0,-1000.0,-67.87109375
966.30859375,-843.75,-373.53515625,-62.98828125
960.44921875,505.859375,913.57421875,-55.17578125
977.05078125,999.51171875,999.51171875,-66.89453125
929.19921875,169.43359375,70.3125,-71.77734375
874.0234375,-1000.0,-1000.0,-53.7109375
953.61328125,-890.13671875,-548.33984375,-41.9921875
960.44921875,434.08203125,798.33984375,-41.9921875
982.91015625,999.51171875,999.51171875,-47.36328125
884.27734375,181.640625,162.109375,-51.26953125
651.85546875,-1000.0,-1000.0,-47.8515625
812.01171875,-754.39453125,-699.70703125,-32.2265625
971.19140625,610.83984375,656.73828125,-23.4375
986.328125,999.51171875,999.51171875,-40.52734375
837.40234375,193.84765625,160.64453125,-58.10546875
475.09765625,-977.05078125,-1000.0,-62.01171875
634.27734375,-1000.0,-988.76953125,-51.26953125
939.94140625,-195.3125,231.4453125,-40.52734375
994.62890625,999.51171875,999.51171875,-42.48046875
813.4765625,522.94921875,233.88671875,-45.41015625
411.62109375,-859.375,-1000.0,-31.25
500.0,-1000.0,-1000.0,-21.484375
864.2578125,-148.92578125,52.734375,-20.01953125
999.51171875,999.51171875,999.51171875,-31.73828125
784.1796875,829.1015625,412.109375,-53.7109375
316.89453125,-488.28125,-897.94921875,-55.17578125
316.40625,-1000.0,-1000.0,-40.0390625
753.90625,-190.91796875,-128.41796875,-35.64453125
998.046875,999.51171875,999.51171875,-37.109375
756.34765625,945.3125,596.6796875,-45.41015625
267.578125,-298.828125,-752.9296875,-50.78125
177.24609375,-1000.0,-1000.0,-43.9453125
618.65234375,-299.31640625,-197.75390625,-34.1796875
919.43359375,915.52734375,999.51171875,-36.1328125
692.87109375,999.51171875,868.65234375,-45.8984375
241.69921875,219.23828125,-418.9453125,-53.7109375
95.21484375,-1000.0,-1000.0,-42.48046875
520.99609375,-376.953125,-196.2890625,-18.5546875
870.1171875,949.21875,999.51171875,-19.04296875
667.48046875,999.51171875,976.07421875,-49.31640625
199.70703125,95.21484375,-210.44921875,-62.98828125
-3.90625,-1000.0,-1000.0,-50.78125
365.234375,-604.00390625,-294.43359375,-41.015625
769.04296875,769.53125,956.54296875,-37.59765625
650.87890625,999.51171875,999.51171875,-44.43359375
188.4765625,149.4140625,-24.4140625,-52.734375
-65.91796875,-1000.0,-1000.0,-47.36328125
263.18359375,-512.6953125,-406.73828125,-38.57421875
703.61328125,854.4921875,893.06640625,-41.50390625
631.34765625,999.51171875,999.51171875,-55.6640625
173.33984375,167.48046875,131.34765625,-63.4765625
-111.328125,-1000.0,-1000.0,-51.7578125
144.04296875,-1000.0,-664.0625,-38.57421875
598.6328125,227.05078125,692.3828125,-38.57421875
637.6953125,999.51171875,999.51171875,-46.38671875
214.35546875,279.296875,167.48046875,-51.7578125
-121.58203125,-974.12109375,-1000.0,-43.45703125
55.6640625,-1000.0,-889.16015625,-43.45703125
513.671875,-26.85546875,406.73828125,-43.45703125
625.0,999.51171875,999.51171875,-50.29296875
216.796875,379.8828125,190.91796875,-69.3359375
-168.45703125,-931.640625,-1000.0,-63.96484375
-32.71484375,-1000.0,-1000.0,-43.9453125
440.91796875,-146.97265625,125.48828125,-41.015625
605.46875,999.51171875,999.51171875,-52.734375
248.53515625,539.55078125,283.69140625,-57.12890625
-167.96875,-828.125,-969.7265625,-46.875
-118.65234375,-1000.0,-1000.0,-36.62109375
354.98046875,-204.58984375,-88.8671875,-36.1328125
584.9609375,999.51171875,999.51171875,-48.828125
289.0625,917.48046875,471.6796875,-49.31640625
-147.94921875,-363.76953125,-862.3046875,-49.8046875
-182.6171875,-1000.0,-1000.0,-50.78125
292.48046875,-195.3125,-181.15234375,-31.25
579.58984375,999.51171875,999.51171875,-32.71484375
297.36328125,921.875,680.17578125,-64.453125
-161.62109375,-343.75,-668.45703125,-70.3125
-247.55859375,-1000.0,-1000.0,-54.6875
204.58984375,-250.9765625,-197.265625,-46.875
541.50390625,951.66015625,999.51171875,-46.38671875
326.66015625,999.51171875,922.36328125,-52.24609375
-147.94921875,60.546875,-331.0546875,-51.7578125
-326.66015625,-1000.0,-1000.0,-50.29296875
107.421875,-183.10546875,-201.171875,-46.875
501.953125,990.234375,999.51171875,-45.41015625
323.2421875,999.51171875,999.51171875,-53.22265625
-144.04296875,231.4453125,-99.609375,-52.734375
-350.5859375,-1000.0,-1000.0,-44.43359375
39.55078125,-409.1796875,-330.078125,-36.1328125
477.5390625,919.921875,933.10546875,-45.41015625
383.7890625,999.51171875,999.51171875,-65.4296875
-56.15234375,174.8046875,77.63671875,-65.91796875
-311.03515625,-1000.0,-1000.0,-58.10546875
-11.23046875,-962.890625,-586.9140625,-41.9921875
441.40625,299.8046875,758.7890625,-31.25
431.15234375,999.51171875,999.51171875,-38.57421875
-17.08984375,223.6328125,170.8984375,-50.29296875
-320.80078125,-1000.0,-1000.0,-51.26953125
-160.64453125,-1000.0,-806.640625,-40.0390625
131.8359375,19.53125,526.3671875,-34.66796875
205.56640625,999.51171875,999.51171875,-43.9453125
-89.84375,580.56640625,176.7578125,-54.6875
-404.78515625,-784.66796875,-1000.0,-50.29296875
-221.19140625,-1000.0,-983.3984375,-39.55078125
222.16796875,-57.6171875,248.53515625,-31.25
333.49609375,999.51171875,999.51171875,-38.57421875
-7.8125,412.109375,222.16796875,-55.6640625
-367.1875,-909.1796875,-1000.0,-55.6640625
-258.30078125,-1000.0,-1000.0,-38.57421875
291.50390625,-228.02734375,-11.23046875,-25.87890625
351.5625,999.51171875,999.51171875,-32.71484375
-430.6640625,739.2578125,402.83203125,-41.50390625
-742.1875,-629.8828125,-909.1796875,-47.36328125
-654.78515625,-1000.0,-1000.0,-50.78125
-925.29296875,-191.89453125,-134.765625,-47.8515625
-1000.0,999.51171875,999.51171875,-51.7578125
-985.3515625,956.54296875,648.4375,-60.05859375
-1000.0,-300.29296875,-700.1953125,-52.24609375
-1000.0,-1000.0,-1000.0,-39.0625
-1000.0,-179.6875,-189.94140625,-37.59765625
-1000.0,999.51171875,999.51171875,-49.8046875
-984.375,999.51171875,829.58984375,-56.15234375
-1000.0,-129.39453125,-478.02734375,-53.22265625
-903.3203125,-1000.0,-1000.0,-50.78125
-248.53515625,-250.48828125,-201.66015625,-45.41015625
470.703125,945.80078125,999.51171875,-49.31640625
662.109375,999.51171875,998.046875,-59.08203125
474.12109375,223.6328125,-168.45703125,-54.6875
522.4609375,-1000.0,-1000.0,-47.8515625
889.6484375,-354.98046875,-288.57421875,-45.8984375
979.4921875,928.22265625,947.265625,-39.55078125
953.61328125,999.51171875,999.51171875,-42.96875
966.796875,483.88671875,70.80078125,-51.26953125
964.35546875,-1000.0,-1000.0,-45.41015625
965.33203125,-734.375,-469.23828125,-35.64453125
965.8203125,721.6796875,861.81640625,-37.59765625
965.33203125,999.51171875,999.51171875,-51.26953125
965.33203125,181.640625,149.90234375,-57.6171875
965.33203125,-1000.0,-1000.0,-42.96875
965.8203125,-958.984375,-685.546875,-31.25
964.84375,297.8515625,671.38671875,-43.45703125
966.30859375,999.51171875,999.51171875,-45.41015625
964.84375,393.5546875,166.50390625,-47.8515625
954.58984375,-919.43359375,-1000.0,-55.6640625
963.37890625,-1000.0,-899.4140625,-37.59765625
961.9140625,16.6015625,392.578125,-22.94921875
968.75,999.51171875,999.51171875,-35.15625
961.42578125,292.48046875,182.12890625,-49.8046875
785.64453125,-970.21484375,-1000.0,-44.921875
824.70703125,-1000.0,-1000.0,-28.80859375
973.6328125,-143.06640625,138.18359375,-24.4140625
970.703125,999.51171875,999.51171875,-38.57421875
939.453125,598.6328125,316.89453125,-47.36328125
666.015625,-811.03515625,-962.40234375,-34.66796875
708.49609375,-1000.0,-1000.0,-20.99609375
958.0078125,26.85546875,-25.87890625,-23.92578125
978.515625,999.51171875,999.51171875,-32.71484375
909.1796875,697.75390625,479.00390625,-33.69140625
552.734375,-622.0703125,-846.6796875,-33.203125
507.32421875,-1000.0,-1000.0,-25.87890625
848.6328125,-221.6796875,-191.89453125,-19.04296875
993.65234375,999.51171875,999.51171875,-26.85546875
875.9765625,872.55859375,697.75390625,-36.1328125
456.54296875,-435.546875,-651.3671875,-36.62109375
332.51953125,-1000.0,-1000.0,-27.83203125
729.98046875,-237.79296875,-187.01171875,-25.87890625
997.55859375,937.98828125,999.51171875,-39.55078125
853.515625,999.51171875,990.234375,-55.6640625
398.92578125,197.265625,-188.4765625,-44.43359375
176.26953125,-1000.0,-1000.0,-26.85546875
552.24609375,-644.53125,-260.7421875,-22.4609375
927.734375,742.67578125,974.609375,-31.73828125
789.0625,999.51171875,999.51171875,-42.48046875
328.125,167.96875,-40.0390625,-46.875
78.125,-1000.0,-1000.0,-40.52734375
394.53125,-879.8828125,-405.2734375,-41.9921875
812.5,445.80078125,896.484375,-45.41015625
736.328125,999.51171875,999.51171875,-52.24609375
267.08984375,157.71484375,98.6328125,-55.6640625
-13.18359375,-1000.0,-1000.0,-39.0625
257.32421875,-978.02734375,-598.6328125,-34.66796875
694.3359375,287.109375,753.90625,-43.9453125
