TP9,AF7,AF8,TP10
-141.11328125,-31.73828125,-33.69140625,-125.9765625
-62.5,-36.1328125,-33.203125,-62.5
36.62109375,-55.6640625,-44.921875,26.3671875
16.6015625,-69.3359375,-54.19921875,13.18359375
-102.5390625,-67.3828125,-46.875,-89.84375
-148.92578125,-42.96875,-25.87890625,-132.32421875
-74.70703125,-34.1796875,-32.71484375,-65.91796875
26.3671875,-55.17578125,-48.33984375,39.0625
29.78515625,-76.171875,-60.546875,38.57421875
-89.84375,-78.125,-57.6171875,-86.9140625
-172.8515625,-51.26953125,-31.25,-144.53125
-102.05078125,-41.015625,-27.83203125,-76.66015625
19.04296875,-56.640625,-50.29296875,22.94921875
23.4375,-66.40625,-61.03515625,46.38671875
-86.9140625,-64.94140625,-55.17578125,-52.734375
-169.921875,-48.33984375,-47.36328125,-156.25
-109.375,-36.62109375,-42.96875,-100.5859375
12.6953125,-46.875,-47.8515625,19.53125
27.34375,-62.01171875,-61.5234375,31.25
-79.58984375,-68.84765625,-63.96484375,-51.26953125
-164.0625,-53.22265625,-41.50390625,-123.53515625
-111.328125,-35.64453125,-26.85546875,-94.23828125
8.7890625,-44.43359375,-38.57421875,14.6484375
34.1796875,-62.98828125,-50.78125,61.5234375
-46.875,-68.84765625,-54.19921875,-26.85546875
-138.18359375,-50.29296875,-44.43359375,-130.859375
-123.046875,-33.69140625,-33.203125,-117.67578125
3.90625,-37.59765625,-37.109375,-9.27734375
58.10546875,-57.12890625,-53.7109375,42.96875
-28.3203125,-63.96484375,-62.01171875,-30.76171875
-133.30078125,-45.8984375,-41.50390625,-114.2578125
-144.04296875,-38.57421875,-24.4140625,-114.2578125
-13.671875,-45.8984375,-43.45703125,-21.97265625
72.265625,-58.59375,-64.453125,49.31640625
-34.66796875,-76.171875,-70.3125,-14.6484375
-144.53125,-65.91796875,-52.734375,-117.1875
-137.6953125,-38.57421875,-32.2265625,-126.953125
-27.83203125,-39.55078125,-42.48046875,-33.69140625
57.12890625,-57.6171875,-58.59375,56.640625
0.0,-67.87109375,-66.40625,15.13671875
-109.86328125,-55.6640625,-53.22265625,-101.07421875
-151.85546875,-34.1796875,-28.3203125,-132.32421875
-65.4296875,-31.25,-26.85546875,-42.48046875
48.33984375,-41.015625,-38.0859375,48.828125
16.11328125,-55.6640625,-48.828125,25.390625
-110.83984375,-54.6875,-48.828125,-87.40234375
-158.203125,-36.62109375,-32.2265625,-129.8828125
-62.98828125,-37.59765625,-32.2265625,-48.828125
44.921875,-46.38671875,-50.78125,38.57421875
23.92578125,-53.7109375,-65.4296875,25.390625
-100.5859375,-50.29296875,-58.59375,-79.58984375
-158.203125,-28.3203125,-38.0859375,-156.25
-73.73046875,-23.4375,-39.0625,-94.23828125
38.0859375,-38.0859375,-61.03515625,13.18359375
46.875,-54.6875,-74.70703125,36.62109375
-79.58984375,-61.03515625,-65.91796875,-60.05859375
-155.76171875,-42.96875,-47.36328125,-155.2734375
-83.49609375,-27.83203125,-41.015625,-97.65625
36.1328125,-33.203125,-45.41015625,12.20703125
45.8984375,-48.828125,-59.5703125,28.80859375
-59.08203125,-46.875,-69.82421875,-56.640625
-138.671875,-24.4140625,-44.921875,-128.41796875
-96.19140625,-15.13671875,-36.1328125,-89.35546875
31.73828125,-26.85546875,-50.29296875,26.3671875
60.546875,-48.828125,-55.6640625,60.05859375
-36.62109375,-53.22265625,-62.98828125,-47.8515625
-118.65234375,-37.59765625,-50.29296875,-136.71875
-92.7734375,-29.78515625,-31.73828125,-103.02734375
18.5546875,-35.64453125,-42.48046875,2.9296875
60.546875,-57.12890625,-67.87109375,53.22265625
-23.4375,-59.5703125,-71.2890625,-20.99609375
-126.46484375,-40.0390625,-53.22265625,-127.44140625
-131.8359375,-30.2734375,-44.921875,-133.30078125
-15.625,-31.25,-52.734375,-24.90234375
63.96484375,-46.38671875,-67.87109375,61.5234375
-14.6484375,-58.59375,-69.3359375,-15.625
-123.53515625,-40.52734375,-50.78125,-122.55859375
-134.765625,-22.4609375,-30.2734375,-128.41796875
-38.57421875,-35.64453125,-37.59765625,-32.71484375
43.45703125,-49.8046875,-56.640625,37.59765625
-5.859375,-57.6171875,-68.84765625,-9.765625
-124.0234375,-54.19921875,-58.59375,-110.83984375
-163.57421875,-32.71484375,-35.15625,-141.11328125
-51.7578125,-25.87890625,-42.96875,-58.59375
53.7109375,-40.0390625,-61.03515625,31.25
6.34765625,-55.17578125,-65.91796875,-0.9765625
-117.1875,-50.78125,-55.6640625,-100.5859375
-155.2734375,-27.34375,-40.52734375,-144.53125
-57.6171875,-22.4609375,-35.64453125,-69.82421875
40.0390625,-35.64453125,-45.8984375,32.71484375
-5.37109375,-54.19921875,-62.5,9.765625
-129.8828125,-58.59375,-55.6640625,-89.84375
-165.0390625,-39.0625,-41.015625,-149.4140625
-87.40234375,-30.2734375,-37.59765625,-74.21875
8.7890625,-40.52734375,-45.8984375,54.19921875
2.44140625,-59.08203125,-64.94140625,33.203125
-109.86328125,-57.6171875,-57.12890625,-96.6796875
-181.640625,-38.57421875,-42.48046875,-163.0859375
-109.375,-30.2734375,-42.48046875,-88.37890625
14.16015625,-41.9921875,-46.875,15.625
21.97265625,-65.91796875,-65.91796875,29.78515625
-83.49609375,-65.91796875,-67.3828125,-74.21875
-160.64453125,-40.0390625,-42.96875,-161.1328125
-115.72265625,-31.25,-32.71484375,-95.21484375
13.671875,-41.50390625,-48.828125,18.5546875
39.55078125,-56.640625,-70.3125,27.83203125
-69.82421875,-56.640625,-70.3125,-79.58984375
-155.76171875,-31.25,-50.29296875,-161.62109375
-105.95703125,-15.625,-41.9921875,-123.046875
15.13671875,-25.87890625,-49.8046875,-12.20703125
52.24609375,-43.9453125,-65.4296875,40.0390625
-39.0625,-49.8046875,-72.75390625,-45.41015625
-137.6953125,-26.85546875,-54.6875,-144.04296875
-127.9296875,-11.71875,-40.52734375,-120.60546875
-19.04296875,-21.97265625,-51.26953125,-33.203125
50.78125,-43.9453125,-68.84765625,22.4609375
-26.85546875,-60.05859375,-79.1015625,-32.71484375
-125.9765625,-40.0390625,-58.10546875,-125.0
-115.234375,-13.18359375,-44.43359375,-130.37109375
-12.20703125,-22.4609375,-51.7578125,-16.11328125
60.546875,-42.48046875,-62.01171875,58.10546875
-2.44140625,-49.8046875,-69.3359375,-15.13671875
-118.1640625,-38.57421875,-56.15234375,-105.95703125
-139.16015625,-20.5078125,-43.45703125,-128.41796875
-27.34375,-21.484375,-52.24609375,-49.31640625
77.63671875,-37.109375,-65.4296875,48.828125
16.6015625,-50.78125,-73.2421875,17.08984375
-119.140625,-45.41015625,-61.03515625,-86.9140625
-163.0859375,-27.34375,-40.52734375,-129.39453125
-67.87109375,-31.73828125,-37.59765625,-66.89453125
31.25,-51.26953125,-49.8046875,14.6484375
-2.44140625,-62.01171875,-70.3125,7.8125
-119.140625,-54.19921875,-61.5234375,-99.12109375
-159.1796875,-30.76171875,-38.0859375,-155.76171875
-66.89453125,-22.4609375,-29.296875,-78.125
41.9921875,-39.55078125,-42.48046875,37.109375
22.94921875,-63.4765625,-64.94140625,34.66796875
-87.40234375,-53.22265625,-54.19921875,-70.80078125
-142.08984375,-33.203125,-36.1328125,-135.7421875
-89.84375,-36.62109375,-42.96875,-93.26171875
30.2734375,-47.8515625,-51.26953125,20.01953125
33.203125,-63.4765625,-61.03515625,28.80859375
-88.8671875,-59.5703125,-65.91796875,-69.3359375
-155.76171875,-32.2265625,-41.015625,-127.44140625
-103.515625,-28.80859375,-33.203125,-73.73046875
22.94921875,-43.9453125,-52.734375,20.01953125
50.29296875,-61.03515625,-69.82421875,28.80859375
-70.80078125,-66.89453125,-66.40625,-54.19921875
-151.3671875,-34.66796875,-44.43359375,-138.18359375
-106.93359375,-16.6015625,-37.109375,-114.2578125
6.8359375,-38.0859375,-51.7578125,0.48828125
40.0390625,-58.10546875,-64.94140625,46.875
-65.91796875,-63.96484375,-60.05859375,-39.55078125
-148.92578125,-46.38671875,-44.43359375,-127.9296875
-122.0703125,-28.3203125,-37.109375,-103.515625
1.953125,-35.64453125,-47.36328125,-1.46484375
62.98828125,-49.31640625,-62.98828125,50.78125
-41.015625,-58.59375,-64.94140625,-34.1796875
-138.671875,-40.0390625,-41.50390625,-137.6953125
-114.74609375,-14.6484375,-23.4375,-123.53515625
-15.625,-27.34375,-38.57421875,-31.73828125
58.10546875,-42.96875,-57.6171875,37.109375
-10.25390625,-59.5703125,-67.3828125,-26.85546875
-119.62890625,-50.29296875,-60.05859375,-132.8125
-123.046875,-26.3671875,-44.43359375,-140.13671875
-15.625,-30.76171875,-51.26953125,-38.57421875
59.5703125,-44.921875,-62.98828125,40.52734375
-3.41796875,-55.17578125,-64.94140625,-7.32421875
-123.53515625,-40.0390625,-41.9921875,-98.14453125
-153.80859375,-19.53125,-27.34375,-131.8359375
-56.640625,-22.94921875,-36.1328125,-49.8046875
35.15625,-45.41015625,-52.24609375,33.69140625
-8.30078125,-60.05859375,-62.98828125,-1.46484375
-119.62890625,-48.33984375,-47.8515625,-87.40234375
-162.59765625,-30.2734375,-27.83203125,-119.140625
-85.9375,-33.203125,-35.15625,-59.5703125
32.71484375,-52.734375,-52.734375,40.0390625
18.5546875,-71.77734375,-64.94140625,33.203125
-105.46875,-61.03515625,-56.640625,-78.61328125
-153.3203125,-35.64453125,-32.2265625,-143.5546875
-75.68359375,-35.64453125,-35.15625,-74.70703125
31.25,-42.96875,-46.38671875,30.2734375
31.73828125,-59.5703125,-61.03515625,22.4609375
-83.0078125,-65.91796875,-59.08203125,-59.08203125
-154.78515625,-43.9453125,-36.1328125,-129.39453125
-85.44921875,-22.94921875,-39.55078125,-76.171875
37.109375,-38.57421875,-45.8984375,29.296875
46.38671875,-67.87109375,-55.17578125,42.48046875
-72.265625,-68.359375,-59.08203125,-60.546875
-154.296875,-49.31640625,-34.66796875,-144.53125
-99.609375,-38.0859375,-20.01953125,-91.796875
20.5078125,-48.828125,-37.59765625,-0.9765625
55.17578125,-60.05859375,-54.19921875,36.1328125
-53.7109375,-57.12890625,-54.19921875,-32.71484375
-145.5078125,-39.0625,-43.9453125,-124.0234375
-118.65234375,-29.78515625,-34.1796875,-88.8671875
-15.13671875,-44.43359375,-42.48046875,16.11328125
41.015625,-62.98828125,-55.17578125,71.2890625
-41.50390625,-72.75390625,-66.89453125,-21.97265625
-141.11328125,-55.6640625,-49.31640625,-127.44140625
-118.1640625,-36.1328125,-27.83203125,-87.890625
-7.32421875,-42.96875,-33.69140625,-13.18359375
63.4765625,-59.5703125,-48.33984375,41.9921875
-5.859375,-63.4765625,-57.6171875,-13.671875
-144.53125,-48.33984375,-50.29296875,-141.11328125
-137.6953125,-36.62109375,-39.55078125,-127.9296875
-16.11328125,-32.2265625,-42.96875,-33.69140625
41.015625,-48.33984375,-58.10546875,11.23046875
-10.7421875,-72.265625,-64.94140625,-13.671875
-95.703125,-54.6875,-47.36328125,-110.3515625
-119.62890625,-28.3203125,-25.390625,-143.5546875
-47.8515625,-37.109375,-32.2265625,-55.17578125
55.17578125,-58.10546875,-55.17578125,40.52734375
27.34375,-68.359375,-61.5234375,9.765625
-98.6328125,-52.734375,-54.19921875,-128.90625
-133.30078125,-25.87890625,-35.15625,-164.0625
-33.69140625,-31.25,-35.15625,-57.12890625
52.24609375,-51.26953125,-58.10546875,46.875
9.27734375,-65.91796875,-65.91796875,34.1796875
-117.1875,-59.5703125,-62.5,-88.8671875
-179.19921875,-37.59765625,-47.8515625,-150.390625
-85.9375,-35.15625,-42.96875,-78.61328125
34.66796875,-48.828125,-58.10546875,8.30078125
17.578125,-67.3828125,-72.265625,1.953125
-100.09765625,-60.05859375,-66.40625,-89.35546875
-161.62109375,-35.64453125,-42.96875,-145.5078125
-90.8203125,-30.76171875,-39.0625,-87.40234375
33.69140625,-43.9453125,-49.31640625,0.9765625
41.50390625,-54.6875,-66.89453125,12.20703125
-69.82421875,-53.7109375,-70.80078125,-48.828125
-143.5546875,-41.50390625,-40.0390625,-129.8828125
-92.7734375,-31.73828125,-26.85546875,-91.796875
29.296875,-44.43359375,-37.59765625,21.484375
46.875,-66.40625,-52.24609375,36.62109375
-77.63671875,-62.98828125,-62.98828125,-61.03515625
-175.29296875,-55.17578125,-35.64453125,-151.85546875
-125.9765625,-44.921875,-25.390625,-101.07421875
-2.9296875,-40.52734375,-45.41015625,29.78515625
24.90234375,-61.5234375,-54.6875,41.9921875
-59.08203125,-70.80078125,-66.89453125,-44.43359375
-142.08984375,-53.22265625,-52.24609375,-103.515625
-118.1640625,-36.62109375,-28.80859375,-90.8203125
0.48828125,-40.52734375,-46.38671875,4.39453125
62.98828125,-59.5703125,-62.01171875,80.56640625
-19.04296875,-66.89453125,-66.89453125,-10.7421875
-107.91015625,-40.52734375,-47.8515625,-142.578125
-94.7265625,-29.78515625,-30.76171875,-129.8828125
0.9765625,-41.50390625,-44.921875,-12.20703125
64.94140625,-50.78125,-56.15234375,59.5703125
-14.16015625,-66.40625,-67.87109375,-4.39453125
-127.9296875,-60.05859375,-58.59375,-116.69921875
-136.71875,-30.76171875,-35.15625,-125.48828125
-27.83203125,-31.25,-36.1328125,-22.4609375
61.5234375,-51.26953125,-57.12890625,52.734375
-1.953125,-65.91796875,-65.91796875,1.46484375
-106.93359375,-58.10546875,-51.26953125,-98.14453125
-127.44140625,-29.296875,-32.71484375,-118.1640625
-45.41015625,-26.85546875,-27.83203125,-31.73828125
39.0625,-45.8984375,-42.48046875,50.78125
4.39453125,-58.10546875,-55.17578125,26.85546875
-115.72265625,-49.31640625,-50.78125,-83.984375
-149.4140625,-22.94921875,-36.62109375,-134.765625
-73.2421875,-19.53125,-41.015625,-74.21875
23.4375,-38.0859375,-54.19921875,25.87890625
20.99609375,-60.05859375,-62.98828125,28.80859375
-99.12109375,-57.12890625,-57.12890625,-66.89453125
-150.390625,-26.3671875,-38.0859375,-130.37109375
-70.80078125,-20.5078125,-36.62109375,-82.03125
32.71484375,-41.9921875,-52.24609375,25.87890625
32.71484375,-60.546875,-64.94140625,38.57421875
-88.8671875,-63.4765625,-63.4765625,-68.359375
-159.1796875,-42.48046875,-42.48046875,-148.4375
-89.35546875,-26.3671875,-37.59765625,-106.93359375
29.296875,-39.55078125,-57.6171875,1.953125
55.17578125,-50.29296875,-65.4296875,42.96875
-38.57421875,-49.8046875,-58.59375,-46.38671875
-118.65234375,-29.78515625,-50.29296875,-138.18359375
-85.44921875,-26.85546875,-40.52734375,-105.46875
20.01953125,-39.0625,-42.48046875,-15.13671875
30.2734375,-54.6875,-58.59375,39.0625
-89.84375,-76.171875,-58.10546875,-28.80859375
-172.36328125,-50.29296875,-41.015625,-128.90625
-123.046875,-27.83203125,-38.0859375,-107.421875
-5.37109375,-40.52734375,-47.36328125,-13.18359375
30.76171875,-58.10546875,-60.05859375,38.57421875
-46.38671875,-66.40625,-66.89453125,-9.765625
-136.71875,-42.48046875,-52.24609375,-126.46484375
-130.859375,-26.3671875,-38.0859375,-140.625
-14.16015625,-39.0625,-43.9453125,-4.8828125
50.29296875,-53.22265625,-59.08203125,60.546875
-26.85546875,-64.453125,-62.98828125,-16.11328125
-117.1875,-52.734375,-46.875,-137.6953125
-112.3046875,-26.85546875,-41.015625,-136.71875
-23.4375,-28.80859375,-52.734375,-16.6015625
50.29296875,-48.33984375,-64.453125,68.359375
-7.32421875,-64.453125,-72.265625,2.9296875
-123.53515625,-58.59375,-51.26953125,-105.46875
-147.94921875,-36.1328125,-36.1328125,-122.55859375
-32.71484375,-32.2265625,-45.41015625,-40.52734375
64.94140625,-53.7109375,-55.6640625,38.57421875
5.859375,-70.3125,-62.5,-3.90625
-83.0078125,-56.640625,-52.734375,-108.88671875
-102.05078125,-35.64453125,-32.71484375,-139.6484375
-40.0390625,-40.0390625,-33.69140625,-24.90234375
41.9921875,-51.7578125,-43.45703125,78.61328125
8.30078125,-57.6171875,-59.5703125,24.90234375
-119.140625,-51.26953125,-55.6640625,-100.5859375
-165.52734375,-31.25,-38.57421875,-149.4140625
-75.68359375,-19.53125,-52.734375,-74.21875
35.64453125,-27.34375,-71.2890625,24.90234375
26.3671875,-42.96875,-76.171875,34.66796875
-90.8203125,-38.0859375,-76.66015625,-67.87109375
-143.5546875,-15.13671875,-58.59375,-156.73828125
-76.171875,-11.71875,-50.29296875,-91.796875
19.04296875,-30.2734375,-66.40625,19.53125
27.83203125,-54.6875,-75.68359375,28.80859375
-60.05859375,-55.17578125,-67.87109375,-62.5
-130.859375,-22.4609375,-47.36328125,-126.953125
-91.30859375,-13.18359375,-42.48046875,-82.03125
19.53125,-31.25,-58.59375,27.34375
49.8046875,-47.36328125,-71.2890625,38.57421875
-44.43359375,-47.8515625,-70.3125,-55.17578125
-127.44140625,-26.85546875,-50.78125,-145.01953125
-95.703125,-13.671875,-40.0390625,-124.0234375
16.11328125,-27.34375,-58.10546875,-4.39453125
58.59375,-46.38671875,-67.3828125,55.6640625
-37.59765625,-53.22265625,-65.4296875,-41.50390625
-129.39453125,-34.66796875,-53.22265625,-142.578125
-123.53515625,-18.06640625,-39.0625,-101.5625
-13.18359375,-25.87890625,-45.41015625,9.27734375
55.17578125,-43.9453125,-64.453125,54.6875
-34.1796875,-62.5,-70.3125,-29.296875
-135.25390625,-46.38671875,-44.43359375,-127.9296875
-118.1640625,-23.4375,-25.390625,-121.58203125
-21.97265625,-28.80859375,-47.36328125,-25.87890625
43.45703125,-45.8984375,-64.94140625,48.828125
-12.6953125,-60.05859375,-67.87109375,6.8359375
-119.140625,-45.8984375,-54.19921875,-103.02734375
-129.8828125,-14.6484375,-35.15625,-122.55859375
-25.87890625,-20.01953125,-38.0859375,-26.85546875
59.08203125,-43.9453125,-50.29296875,40.52734375
7.32421875,-48.828125,-61.5234375,1.46484375
-105.95703125,-45.8984375,-52.734375,-101.5625
-118.1640625,-35.64453125,-33.203125,-136.71875
-25.87890625,-32.71484375,-35.15625,-56.640625
41.9921875,-41.9921875,-50.78125,33.69140625
12.20703125,-58.59375,-60.546875,16.11328125
-91.796875,-63.4765625,-51.7578125,-95.703125
-140.625,-38.0859375,-34.1796875,-139.16015625
-54.6875,-31.25,-34.1796875,-79.1015625
57.12890625,-45.41015625,-48.33984375,34.1796875
49.31640625,-61.03515625,-55.17578125,38.0859375
-64.94140625,-57.12890625,-50.78125,-85.44921875
-134.27734375,-34.1796875,-33.203125,-140.625
-64.453125,-28.3203125,-30.76171875,-78.125
34.1796875,-41.9921875,-46.38671875,29.296875
31.25,-60.546875,-50.78125,44.921875
-76.66015625,-62.5,-50.29296875,-49.31640625
-160.64453125,-42.48046875,-33.69140625,-131.8359375
-109.375,-27.34375,-23.4375,-95.703125
24.90234375,-38.57421875,-39.0625,4.39453125
41.9921875,-62.01171875,-61.5234375,51.7578125
-65.91796875,-64.453125,-60.546875,-42.48046875
-141.6015625,-40.52734375,-40.0390625,-150.390625
-105.95703125,-32.71484375,-30.76171875,-93.75
17.578125,-41.9921875,-42.48046875,21.97265625
62.5,-59.5703125,-61.5234375,43.9453125
-44.43359375,-68.359375,-64.94140625,-22.94921875
-145.99609375,-43.45703125,-47.8515625,-122.0703125
-109.86328125,-30.2734375,-44.43359375,-111.81640625
4.8828125,-37.59765625,-56.15234375,20.99609375
48.828125,-53.22265625,-63.4765625,62.01171875
-34.1796875,-61.5234375,-67.3828125,-20.01953125
-136.71875,-45.41015625,-52.24609375,-122.55859375
-136.71875,-35.15625,-35.15625,-133.7890625
-14.6484375,-41.9921875,-46.38671875,-15.625
71.2890625,-55.6640625,-56.15234375,51.7578125
-8.30078125,-62.01171875,-60.546875,-23.4375
-126.953125,-47.36328125,-51.7578125,-113.28125
-136.71875,-30.76171875,-29.296875,-118.65234375
-36.1328125,-39.0625,-41.015625,-20.99609375
55.6640625,-54.19921875,-65.91796875,49.31640625
11.23046875,-63.96484375,-76.171875,-3.41796875
-105.46875,-52.24609375,-57.12890625,-111.328125
-137.20703125,-33.203125,-38.0859375,-133.30078125
-30.76171875,-33.203125,-44.43359375,-42.48046875
77.63671875,-41.50390625,-45.8984375,45.8984375
37.109375,-54.6875,-55.6640625,10.25390625
-79.58984375,-53.22265625,-47.8515625,-98.6328125
-119.140625,-28.3203125,-22.94921875,-115.72265625
-45.41015625,-22.94921875,-31.73828125,-47.36328125
45.41015625,-42.48046875,-40.0390625,20.01953125
4.8828125,-62.01171875,-56.640625,8.30078125
-115.72265625,-58.59375,-63.96484375,-85.9375
-163.0859375,-30.2734375,-38.57421875,-132.32421875
-98.14453125,-26.3671875,-29.296875,-54.19921875
20.99609375,-38.0859375,-46.38671875,39.0625
25.390625,-48.828125,-68.84765625,39.0625
-91.796875,-43.45703125,-55.6640625,-63.96484375
-157.2265625,-25.390625,-31.73828125,-153.3203125
-88.8671875,-30.2734375,-36.1328125,-81.0546875
43.45703125,-31.25,-54.6875,37.109375
21.97265625,-42.96875,-71.77734375,9.765625
-130.859375,-52.24609375,-71.77734375,-131.8359375
-216.30859375,-31.25,-49.8046875,-230.95703125
-184.08203125,-21.97265625,-51.26953125,-198.73046875
-93.26171875,-39.55078125,-71.2890625,-108.88671875
-71.77734375,-58.59375,-83.49609375,-117.67578125
-194.3359375,-63.96484375,-90.8203125,-216.796875
-333.984375,-45.8984375,-73.73046875,-322.265625
-310.546875,-27.34375,-56.640625,-342.28515625
-186.03515625,-36.62109375,-66.40625,-238.76953125
-116.2109375,-51.26953125,-88.8671875,-176.7578125
-221.19140625,-53.7109375,-96.19140625,-268.5546875
-363.76953125,-42.48046875,-83.49609375,-375.48828125
-333.984375,-38.0859375,-79.58984375,-353.515625
-208.0078125,-43.45703125,-91.30859375,-245.60546875
-140.13671875,-52.734375,-105.46875,-181.15234375
-202.1484375,-62.5,-111.328125,-247.0703125
-299.8046875,-49.31640625,-95.21484375,-315.91796875
-301.26953125,-29.296875,-70.80078125,-304.6875
-175.29296875,-25.390625,-70.80078125,-195.3125
-65.4296875,-45.41015625,-87.40234375,-82.51953125
-120.60546875,-66.40625,-95.21484375,-135.25390625
-243.65234375,-56.640625,-83.984375,-250.0
-250.0,-37.59765625,-64.453125,-255.859375
-124.51171875,-36.62109375,-63.96484375,-141.11328125
9.765625,-67.3828125,-75.68359375,-37.59765625
5.37109375,-86.42578125,-69.82421875,-55.17578125
-122.0703125,-63.4765625,-56.15234375,-148.4375
-198.2421875,-41.9921875,-38.57421875,-183.59375
-112.79296875,-44.921875,-45.8984375,-104.98046875
30.76171875,-53.22265625,-61.5234375,41.50390625
21.484375,-67.3828125,-66.89453125,38.0859375
-104.98046875,-64.453125,-59.5703125,-119.140625
-145.99609375,-46.38671875,-35.64453125,-153.3203125
-31.25,-45.8984375,-33.203125,-35.15625
110.3515625,-52.734375,-42.48046875,68.84765625
113.76953125,-62.01171875,-52.24609375,67.3828125
-21.484375,-60.05859375,-51.7578125,-16.11328125
-110.3515625,-39.55078125,-31.25,-91.30859375
-25.87890625,-29.78515625,-23.4375,-17.578125
140.13671875,-30.76171875,-38.57421875,124.51171875
163.57421875,-43.9453125,-42.48046875,138.671875
2.9296875,-53.22265625,-53.7109375,-2.9296875
-119.62890625,-45.41015625,-58.10546875,-83.984375
-51.26953125,-40.0390625,-46.38671875,-5.859375
104.00390625,-48.828125,-49.31640625,88.8671875
148.4375,-65.91796875,-62.01171875,104.98046875
41.9921875,-62.98828125,-66.89453125,11.23046875
-87.890625,-48.828125,-46.38671875,-86.9140625
-55.6640625,-45.8984375,-25.87890625,-38.57421875
101.5625,-46.38671875,-33.203125,95.703125
162.59765625,-51.7578125,-52.24609375,129.8828125
52.24609375,-59.5703125,-56.15234375,26.85546875
-96.19140625,-50.78125,-46.38671875,-89.84375
-82.51953125,-34.66796875,-35.64453125,-54.19921875
63.96484375,-36.1328125,-37.109375,67.87109375
133.30078125,-46.38671875,-48.33984375,116.69921875
46.875,-50.29296875,-53.7109375,33.203125
-96.19140625,-41.50390625,-36.1328125,-96.6796875
-123.53515625,-31.73828125,-26.3671875,-103.02734375
31.73828125,-38.57421875,-43.9453125,29.296875
152.34375,-48.828125,-44.921875,131.34765625
80.56640625,-51.7578125,-37.109375,64.453125
-82.51953125,-44.921875,-34.66796875,-70.80078125
-139.6484375,-32.71484375,-34.1796875,-104.4921875
-9.27734375,-28.3203125,-35.64453125,-3.41796875
130.859375,-45.8984375,-45.41015625,131.34765625
92.7734375,-70.3125,-54.19921875,88.37890625
-78.125,-57.12890625,-49.31640625,-85.44921875
-148.4375,-36.1328125,-39.55078125,-121.58203125
-46.38671875,-44.921875,-38.57421875,-22.4609375
84.9609375,-51.7578125,-40.0390625,92.7734375
76.171875,-55.17578125,-38.57421875,87.40234375
-98.14453125,-66.89453125,-32.71484375,-60.546875
-194.82421875,-66.40625,-25.87890625,-151.3671875
-99.609375,-69.3359375,-27.34375,-62.5
45.41015625,-80.078125,-29.296875,85.44921875
63.96484375,-90.33203125,-33.203125,103.515625
-116.2109375,-94.7265625,-30.76171875,-66.40625
-247.55859375,-83.49609375,-14.6484375,-184.5703125
-130.37109375,-80.078125,-10.7421875,-79.1015625
55.6640625,-80.078125,-20.01953125,95.703125
97.65625,-77.63671875,-28.3203125,121.58203125
-48.33984375,-80.56640625,-29.78515625,-44.43359375
-193.84765625,-76.66015625,-29.78515625,-157.71484375
-120.1171875,-62.5,-23.92578125,-71.2890625
62.01171875,-62.98828125,-30.76171875,73.2421875
127.9296875,-83.0078125,-43.9453125,123.046875
-13.671875,-86.9140625,-34.66796875,5.37109375
-183.10546875,-64.94140625,-26.85546875,-141.11328125
-143.5546875,-51.7578125,-28.80859375,-95.703125
45.8984375,-56.15234375,-29.78515625,74.70703125
145.99609375,-57.6171875,-29.78515625,161.1328125
18.5546875,-56.640625,-33.69140625,47.36328125
-170.8984375,-50.78125,-29.78515625,-132.8125
-166.50390625,-42.48046875,-30.2734375,-139.6484375
20.5078125,-48.828125,-35.64453125,43.9453125
132.32421875,-60.546875,-41.9921875,130.859375
28.3203125,-70.3125,-45.8984375,42.48046875
-163.57421875,-63.4765625,-37.109375,-107.421875
-174.8046875,-43.9453125,-33.203125,-145.5078125
15.625,-49.31640625,-39.55078125,28.3203125
150.390625,-62.01171875,-39.55078125,148.4375
55.17578125,-63.4765625,-39.55078125,58.59375
-145.99609375,-55.17578125,-41.9921875,-90.33203125
-196.77734375,-56.15234375,-46.38671875,-135.25390625
-24.4140625,-60.546875,-48.828125,-19.04296875
145.5078125,-48.33984375,-42.96875,138.671875
94.7265625,-43.9453125,-41.9921875,94.7265625
-134.765625,-51.7578125,-52.24609375,-119.140625
-233.3984375,-47.8515625,-52.24609375,-195.3125
-59.5703125,-41.50390625,-46.875,-44.43359375
121.09375,-41.50390625,-40.52734375,105.95703125
102.5390625,-46.38671875,-43.45703125,85.44921875
-110.83984375,-56.15234375,-54.19921875,-96.19140625
-232.91015625,-53.22265625,-52.24609375,-191.40625
-91.30859375,-43.9453125,-49.8046875,-50.78125
102.05078125,-42.96875,-41.015625,123.53515625
112.79296875,-55.17578125,-38.0859375,145.5078125
-70.80078125,-53.22265625,-50.29296875,-51.26953125
-227.05078125,-44.921875,-54.6875,-210.9375
-123.046875,-47.36328125,-49.8046875,-78.125
104.4921875,-40.52734375,-45.41015625,100.09765625
152.34375,-41.9921875,-47.8515625,115.234375
-41.9921875,-53.7109375,-55.6640625,-40.52734375
-223.6328125,-52.734375,-55.17578125,-187.98828125
-133.30078125,-44.43359375,-50.78125,-98.6328125
89.35546875,-44.43359375,-52.24609375,95.703125
161.1328125,-53.22265625,-47.8515625,148.4375
-7.32421875,-59.5703125,-41.50390625,-28.80859375
-223.6328125,-53.22265625,-43.9453125,-204.1015625
-178.22265625,-35.64453125,-48.828125,-124.51171875
61.03515625,-32.71484375,-45.8984375,68.359375
170.41015625,-34.66796875,-40.0390625,143.06640625
33.203125,-39.55078125,-41.015625,18.5546875
-183.59375,-49.31640625,-44.43359375,-159.1796875
-189.453125,-48.33984375,-48.33984375,-149.4140625
17.08984375,-47.8515625,-55.6640625,11.71875
186.03515625,-43.45703125,-51.26953125,128.41796875
76.171875,-41.50390625,-47.36328125,43.45703125
-188.4765625,-48.33984375,-53.7109375,-176.26953125
-244.140625,-46.38671875,-52.24609375,-220.703125
-24.4140625,-32.71484375,-49.31640625,-14.16015625
258.7890625,-16.11328125,-38.0859375,220.21484375
317.3828125,-8.7890625,-29.78515625,197.75390625
-79.58984375,-33.69140625,-52.24609375,-146.484375
-518.06640625,-74.70703125,-85.44921875,-397.94921875
-312.5,-76.171875,-82.51953125,-167.96875
330.56640625,-26.3671875,-36.1328125,307.12890625
641.11328125,20.99609375,0.9765625,431.640625
32.71484375,-15.625,-34.1796875,-92.7734375
-763.18359375,-102.05078125,-98.14453125,-574.70703125
-552.24609375,-103.02734375,-91.796875,-313.96484375
313.4765625,-21.484375,-29.296875,283.203125
744.62890625,37.59765625,16.6015625,496.58203125
174.31640625,1.46484375,-11.23046875,18.5546875
-601.5625,-80.56640625,-84.47265625,-486.81640625
-504.8828125,-96.19140625,-93.26171875,-305.6640625
100.5859375,-51.26953125,-45.41015625,179.6875
459.9609375,-10.7421875,-11.71875,362.79296875
162.59765625,-17.578125,-21.97265625,36.62109375
-423.828125,-62.98828125,-68.84765625,-359.86328125
-431.640625,-81.0546875,-81.54296875,-282.71484375
39.55078125,-56.640625,-51.7578125,78.125
358.88671875,-28.80859375,-27.83203125,270.99609375
146.97265625,-28.80859375,-39.0625,51.26953125
-309.08203125,-53.7109375,-64.94140625,-270.99609375
-324.70703125,-62.01171875,-74.70703125,-229.00390625
34.1796875,-45.41015625,-58.59375,51.7578125
289.0625,-27.34375,-37.59765625,232.421875
118.1640625,-32.2265625,-45.41015625,32.71484375
-301.26953125,-62.01171875,-71.77734375,-292.48046875
-340.8203125,-69.3359375,-77.1484375,-251.953125
5.37109375,-48.828125,-54.6875,31.25
257.32421875,-38.0859375,-33.69140625,195.80078125
137.6953125,-39.0625,-33.69140625,62.98828125
-259.27734375,-53.7109375,-56.640625,-251.46484375
-421.38671875,-75.68359375,-77.63671875,-319.3359375
-115.234375,-72.265625,-69.3359375,-43.45703125
411.62109375,-23.92578125,-30.76171875,315.91796875
518.06640625,3.41796875,-7.8125,287.109375
-232.91015625,-54.19921875,-59.08203125,-292.48046875
-849.609375,-129.8828125,-120.60546875,-615.72265625
-329.58984375,-103.515625,-83.984375,-144.04296875
679.19921875,7.32421875,10.25390625,541.50390625
833.49609375,49.8046875,40.52734375,530.2734375
-277.83203125,-62.01171875,-46.38671875,-380.37109375
-1000.0,-181.640625,-127.9296875,-901.3671875
-467.28515625,-134.765625,-76.171875,-192.3828125
749.51171875,3.90625,39.55078125,740.72265625
872.0703125,40.52734375,80.078125,687.01171875
-269.04296875,-88.37890625,-34.1796875,-394.53125
-1000.0,-212.40234375,-150.87890625,-1000.0
-491.69921875,-162.59765625,-81.0546875,-280.76171875
750.48828125,-8.7890625,61.5234375,771.484375
941.89453125,57.6171875,103.02734375,802.734375
-168.45703125,-61.03515625,-10.25390625,-277.34375
-1000.0,-205.078125,-138.671875,-1000.0
-582.03125,-161.62109375,-104.98046875,-370.60546875
642.578125,0.0,23.4375,667.96875
999.51171875,75.68359375,81.54296875,871.09375
-4.39453125,-29.296875,-17.08984375,-118.1640625
-1000.0,-187.01171875,-146.97265625,-995.1171875
-699.21875,-168.45703125,-119.62890625,-498.046875
481.93359375,-16.6015625,5.859375,512.6953125
999.51171875,72.75390625,75.1953125,843.75
252.44140625,-0.48828125,7.8125,84.47265625
-932.12890625,-154.78515625,-115.234375,-848.6328125
-864.2578125,-176.7578125,-126.953125,-620.1171875
225.09765625,-48.828125,-26.3671875,283.69140625
999.51171875,60.546875,62.5,773.92578125
483.3984375,23.92578125,29.296875,256.34765625
-746.09375,-116.69921875,-100.09765625,-694.3359375
-966.30859375,-168.45703125,-140.13671875,-707.03125
14.6484375,-58.59375,-54.19921875,125.48828125
974.12109375,63.96484375,36.1328125,746.09375
633.30078125,51.26953125,27.34375,369.140625
-595.703125,-90.33203125,-88.37890625,-629.8828125
-1000.0,-162.109375,-143.5546875,-770.99609375
-115.234375,-70.80078125,-62.98828125,40.0390625
920.8984375,52.734375,43.45703125,721.19140625
702.63671875,60.546875,41.50390625,450.68359375
-493.65234375,-82.03125,-81.54296875,-535.15625
-1000.0,-175.29296875,-145.99609375,-810.05859375
-283.203125,-99.12109375,-77.1484375,-73.2421875
812.5,34.1796875,27.34375,656.25
823.2421875,67.87109375,43.45703125,537.109375
-311.5234375,-47.8515625,-55.17578125,-393.06640625
-1000.0,-160.64453125,-138.671875,-841.796875
-474.12109375,-117.1875,-99.12109375,-224.609375
652.83203125,7.8125,-6.8359375,525.390625
923.828125,57.12890625,33.203125,548.33984375
-45.41015625,-24.4140625,-36.62109375,-205.56640625
-993.1640625,-126.953125,-123.53515625,-723.6328125
-623.046875,-117.67578125,-105.46875,-344.7265625
284.1796875,-33.69140625,-31.73828125,284.1796875
604.00390625,18.06640625,10.7421875,421.875
107.421875,-13.671875,-14.6484375,-19.04296875
-444.3359375,-73.2421875,-59.5703125,-392.08984375
-336.42578125,-79.58984375,-62.98828125,-209.9609375
76.171875,-59.5703125,-44.43359375,109.375
146.97265625,-55.6640625,-41.50390625,119.140625
-146.97265625,-61.03515625,-54.6875,-145.01953125
-309.08203125,-64.453125,-60.546875,-289.55078125
-121.58203125,-57.6171875,-48.828125,-98.6328125
131.8359375,-43.9453125,-37.109375,127.44140625
139.6484375,-38.0859375,-38.57421875,120.60546875
-112.3046875,-47.36328125,-52.734375,-99.609375
-306.640625,-55.17578125,-56.640625,-250.9765625
-179.19921875,-48.828125,-52.734375,-98.14453125
81.54296875,-36.62109375,-38.0859375,125.48828125
131.8359375,-34.1796875,-30.76171875,145.01953125
-78.61328125,-43.9453125,-46.38671875,-62.01171875
-297.36328125,-59.08203125,-53.7109375,-261.71875
-208.984375,-56.15234375,-47.8515625,-127.44140625
62.98828125,-41.9921875,-41.015625,102.05078125
146.484375,-41.50390625,-39.0625,132.8125
-40.0390625,-45.41015625,-46.875,-51.26953125
-267.08984375,-54.6875,-55.6640625,-253.90625
-213.37890625,-48.828125,-50.78125,-166.50390625
37.109375,-35.64453125,-40.52734375,72.75390625
149.90234375,-39.55078125,-39.55078125,161.1328125
-16.11328125,-48.33984375,-49.31640625,-13.18359375
-238.28125,-46.875,-57.12890625,-237.79296875
-223.14453125,-50.78125,-50.78125,-176.7578125
5.37109375,-54.6875,-40.0390625,43.45703125
166.50390625,-45.8984375,-38.0859375,155.2734375
37.109375,-55.17578125,-47.36328125,29.78515625
-230.95703125,-61.5234375,-54.6875,-211.9140625
-266.11328125,-54.19921875,-52.24609375,-208.49609375
-28.3203125,-47.36328125,-45.8984375,21.97265625
145.99609375,-39.0625,-41.50390625,166.50390625
40.0390625,-43.45703125,-46.875,48.828125
-215.33203125,-55.17578125,-59.08203125,-187.5
-288.57421875,-60.05859375,-65.91796875,-229.4921875
-72.265625,-46.38671875,-55.6640625,-20.01953125
137.20703125,-35.64453125,-41.9921875,159.1796875
64.94140625,-47.36328125,-43.9453125,66.89453125
-197.265625,-61.5234375,-57.6171875,-187.01171875
-290.0390625,-62.98828125,-64.453125,-257.32421875
-83.984375,-49.8046875,-52.734375,-52.24609375
121.58203125,-43.9453125,-40.0390625,133.7890625
72.75390625,-58.10546875,-43.45703125,85.44921875
-161.62109375,-64.94140625,-60.05859375,-150.87890625
-282.71484375,-59.08203125,-66.40625,-268.5546875
-114.2578125,-53.22265625,-53.7109375,-87.890625
95.703125,-46.875,-41.9921875,106.4453125
89.35546875,-41.50390625,-38.57421875,98.6328125
-128.41796875,-50.78125,-41.9921875,-121.58203125
-290.0390625,-62.01171875,-50.29296875,-269.04296875
-159.1796875,-55.6640625,-44.43359375,-111.81640625
75.1953125,-41.9921875,-31.73828125,114.74609375
112.3046875,-36.1328125,-39.55078125,128.41796875
-94.7265625,-44.43359375,-60.05859375,-95.703125
-274.90234375,-53.7109375,-72.265625,-268.06640625
-182.12890625,-48.33984375,-65.91796875,-142.08984375
49.8046875,-30.76171875,-56.640625,76.171875
109.375,-34.66796875,-51.7578125,124.0234375
-83.984375,-50.29296875,-55.17578125,-72.265625
-274.4140625,-44.921875,-60.546875,-256.34765625
-200.1953125,-42.48046875,-53.22265625,-158.203125
28.80859375,-47.8515625,-41.9921875,53.22265625
122.0703125,-49.31640625,-37.59765625,131.34765625
-31.25,-51.26953125,-46.38671875,-19.53125
-242.1875,-53.22265625,-54.6875,-218.75
-204.58984375,-47.36328125,-53.7109375,-176.7578125
20.5078125,-38.0859375,-44.43359375,31.73828125
141.6015625,-30.76171875,-38.57421875,142.08984375
22.4609375,-29.296875,-45.41015625,17.578125
-201.66015625,-43.9453125,-50.29296875,-210.44921875
-216.30859375,-48.828125,-51.7578125,-199.21875
1.46484375,-37.109375,-46.38671875,30.2734375
131.8359375,-37.109375,-39.0625,137.6953125
3.41796875,-51.7578125,-48.33984375,11.23046875
-215.33203125,-56.640625,-53.7109375,-203.61328125
-254.39453125,-50.78125,-55.6640625,-223.6328125
-49.31640625,-39.0625,-53.7109375,-18.06640625
125.48828125,-29.78515625,-45.8984375,129.39453125
41.015625,-38.57421875,-46.875,48.33984375
-174.31640625,-41.9921875,-52.24609375,-173.33984375
-240.234375,-41.9921875,-58.10546875,-235.3515625
-46.875,-37.59765625,-53.22265625,-38.57421875
138.18359375,-33.69140625,-43.45703125,128.41796875
89.84375,-36.1328125,-38.0859375,57.6171875
-147.94921875,-47.8515625,-52.734375,-177.734375
-279.78515625,-60.546875,-62.01171875,-258.7890625
-100.09765625,-48.33984375,-57.12890625,-78.125
116.2109375,-35.15625,-48.33984375,121.09375
82.51953125,-45.41015625,-43.9453125,78.61328125
-136.23046875,-60.05859375,-56.15234375,-167.48046875
-265.13671875,-58.59375,-60.546875,-255.859375
-127.9296875,-56.640625,-56.15234375,-93.26171875
93.26171875,-50.78125,-47.8515625,86.9140625
119.140625,-44.43359375,-39.55078125,91.796875
-96.6796875,-50.29296875,-42.96875,-104.98046875
-268.5546875,-46.38671875,-46.875,-252.44140625
-156.25,-42.48046875,-44.43359375,-128.90625
81.54296875,-39.55078125,-39.55078125,84.47265625
158.69140625,-37.59765625,-35.64453125,136.71875
-37.109375,-49.8046875,-43.9453125,-50.78125
-237.3046875,-59.08203125,-55.17578125,-242.1875
-163.0859375,-52.24609375,-53.7109375,-145.5078125
67.3828125,-45.41015625,-45.8984375,78.61328125
154.296875,-45.8984375,-37.109375,150.390625
-20.99609375,-47.36328125,-43.9453125,-20.5078125
-248.53515625,-54.6875,-53.7109375,-239.74609375
-221.6796875,-55.6640625,-50.29296875,-188.96484375
22.4609375,-39.0625,-47.8515625,33.69140625
154.78515625,-31.25,-42.48046875,136.71875
4.8828125,-47.36328125,-48.828125,0.9765625
-231.93359375,-61.03515625,-58.59375,-217.7734375
-246.09375,-61.03515625,-51.26953125,-201.66015625
-20.99609375,-47.8515625,-33.69140625,19.04296875
157.71484375,-40.0390625,-22.94921875,144.53125
43.9453125,-49.31640625,-31.25,10.25390625
-226.5625,-61.03515625,-47.8515625,-215.8203125
-251.46484375,-53.7109375,-55.17578125,-230.95703125
-20.99609375,-47.36328125,-50.78125,-30.76171875
147.4609375,-46.38671875,-41.50390625,132.8125
65.4296875,-46.38671875,-40.0390625,51.26953125
-188.4765625,-55.17578125,-52.734375,-192.87109375
-281.73828125,-59.5703125,-56.640625,-247.0703125
-94.7265625,-58.59375,-45.8984375,-31.25
113.28125,-51.26953125,-41.9921875,139.16015625
58.59375,-46.38671875,-46.875,68.359375
-197.75390625,-52.24609375,-55.6640625,-164.55078125
-294.921875,-55.17578125,-59.5703125,-256.8359375
-110.3515625,-50.78125,-52.734375,-72.265625
118.1640625,-41.50390625,-45.41015625,127.44140625
103.515625,-39.55078125,-46.875,97.65625
-136.71875,-41.9921875,-53.7109375,-126.953125
-269.53125,-44.921875,-61.5234375,-241.69921875
-101.07421875,-42.48046875,-56.15234375,-89.35546875
116.69921875,-40.52734375,-43.9453125,102.5390625
143.5546875,-43.45703125,-41.015625,114.2578125
-86.42578125,-47.36328125,-52.734375,-108.88671875
-291.015625,-50.29296875,-59.5703125,-253.41796875
-155.2734375,-46.38671875,-50.78125,-114.2578125
90.33203125,-40.52734375,-41.9921875,82.51953125
137.6953125,-43.45703125,-31.73828125,116.69921875
-76.66015625,-49.31640625,-36.62109375,-80.078125
-273.4375,-56.15234375,-57.6171875,-263.18359375
-175.29296875,-58.10546875,-57.6171875,-150.390625
71.2890625,-45.8984375,-45.41015625,69.82421875
158.69140625,-42.96875,-41.9921875,125.48828125
-26.3671875,-45.41015625,-50.29296875,-45.41015625
-270.99609375,-59.5703125,-66.40625,-256.8359375
-212.890625,-64.94140625,-64.453125,-185.05859375
41.015625,-49.31640625,-55.17578125,40.52734375
153.3203125,-45.8984375,-47.8515625,124.0234375
6.8359375,-55.6640625,-48.33984375,-19.04296875
-234.375,-59.08203125,-54.6875,-228.515625
-231.4453125,-60.546875,-55.17578125,-195.80078125
13.671875,-57.6171875,-51.26953125,33.69140625
175.29296875,-50.29296875,-43.9453125,171.875
44.921875,-51.7578125,-50.78125,24.4140625
-225.09765625,-51.26953125,-58.59375,-220.703125
-255.37109375,-50.29296875,-57.12890625,-214.35546875
6.34765625,-48.33984375,-47.8515625,1.46484375
194.3359375,-30.76171875,-35.64453125,149.4140625
83.984375,-31.25,-42.96875,45.8984375
-207.03125,-48.33984375,-57.6171875,-205.56640625
-292.48046875,-62.98828125,-64.453125,-253.90625
-61.5234375,-57.6171875,-56.640625,-42.96875
151.85546875,-37.109375,-46.38671875,128.90625
84.47265625,-38.0859375,-56.15234375,51.26953125
-168.9453125,-49.31640625,-66.40625,-182.6171875
-281.25,-47.8515625,-68.359375,-258.30078125
-96.19140625,-49.31640625,-58.59375,-54.6875
159.1796875,-51.7578125,-49.8046875,123.53515625
125.9765625,-47.36328125,-56.15234375,64.453125
-165.0390625,-51.26953125,-56.640625,-164.0625
-305.6640625,-52.734375,-57.6171875,-273.92578125
-122.55859375,-48.828125,-49.8046875,-101.5625
133.30078125,-37.59765625,-37.109375,115.234375
152.83203125,-35.15625,-42.48046875,120.60546875
-94.23828125,-42.96875,-59.08203125,-117.67578125
-289.55078125,-48.33984375,-64.94140625,-273.92578125
-142.08984375,-44.43359375,-60.05859375,-114.74609375
128.41796875,-31.25,-45.41015625,112.3046875
181.640625,-28.80859375,-38.57421875,138.18359375
-49.8046875,-45.41015625,-51.7578125,-75.68359375
-276.85546875,-63.4765625,-60.546875,-255.37109375
-171.875,-61.5234375,-58.10546875,-138.671875
104.00390625,-46.38671875,-56.15234375,81.0546875
190.4296875,-36.1328125,-43.9453125,140.625
-20.5078125,-42.48046875,-42.96875,-47.36328125
-258.7890625,-52.734375,-60.05859375,-256.8359375
-202.1484375,-44.921875,-61.03515625,-163.0859375
50.29296875,-33.69140625,-46.38671875,81.0546875
172.36328125,-32.2265625,-40.52734375,160.15625
10.25390625,-38.0859375,-42.96875,-15.13671875
-249.51171875,-43.9453125,-53.7109375,-233.3984375
-238.76953125,-52.734375,-55.6640625,-185.546875
28.3203125,-53.22265625,-44.43359375,46.875
189.94140625,-41.9921875,-40.0390625,156.73828125
37.59765625,-41.9921875,-45.41015625,2.44140625
-237.79296875,-47.36328125,-52.734375,-236.81640625
-250.0,-47.36328125,-53.7109375,-218.75
14.6484375,-34.1796875,-45.8984375,17.578125
200.68359375,-27.34375,-29.78515625,164.0625
92.7734375,-39.0625,-32.2265625,40.52734375
-193.359375,-54.6875,-44.43359375,-206.0546875
-264.6484375,-57.12890625,-49.8046875,-236.81640625
-20.01953125,-47.8515625,-48.828125,-23.4375
195.3125,-42.48046875,-39.0625,145.99609375
108.88671875,-41.015625,-39.55078125,78.125
-204.1015625,-58.10546875,-51.7578125,-169.921875
-310.546875,-67.87109375,-58.59375,-262.20703125
-68.84765625,-52.734375,-45.41015625,-51.7578125
166.50390625,-41.9921875,-30.76171875,148.92578125
113.76953125,-41.50390625,-38.0859375,78.61328125
-167.48046875,-51.26953125,-57.6171875,-168.45703125
-314.453125,-59.08203125,-62.98828125,-266.6015625
-99.609375,-48.828125,-49.8046875,-72.75390625
182.6171875,-27.83203125,-33.203125,153.3203125
167.48046875,-32.2265625,-33.69140625,131.34765625
-122.0703125,-52.734375,-51.26953125,-127.9296875
-312.98828125,-61.03515625,-66.40625,-272.4609375
-136.23046875,-51.26953125,-60.05859375,-110.3515625
159.66796875,-30.76171875,-41.9921875,116.69921875
199.21875,-23.4375,-38.57421875,135.25390625
-76.171875,-41.015625,-47.36328125,-99.609375
-298.33984375,-57.12890625,-51.26953125,-264.6484375
-166.9921875,-55.17578125,-45.8984375,-121.58203125
110.3515625,-38.57421875,-37.109375,97.65625
179.6875,-31.73828125,-40.0390625,145.01953125
-59.08203125,-37.59765625,-55.17578125,-58.10546875
-301.7578125,-48.33984375,-62.01171875,-266.6015625
-213.37890625,-46.875,-54.6875,-166.50390625
67.87109375,-34.66796875,-43.9453125,64.453125
195.3125,-36.1328125,-47.36328125,133.30078125
-0.9765625,-42.96875,-52.24609375,-42.96875
-274.90234375,-52.24609375,-60.546875,-249.51171875
-231.4453125,-60.05859375,-62.01171875,-172.8515625
39.55078125,-52.24609375,-48.33984375,45.8984375
191.89453125,-29.296875,-36.1328125,142.578125
23.92578125,-37.109375,-41.50390625,-8.30078125
-261.71875,-61.5234375,-57.6171875,-246.58203125
-256.34765625,-51.7578125,-62.01171875,-212.40234375
21.484375,-34.66796875,-47.36328125,33.69140625
201.66015625,-40.52734375,-40.0390625,148.92578125
61.03515625,-53.22265625,-52.734375,5.37109375
-250.9765625,-56.640625,-62.01171875,-225.09765625
-309.08203125,-59.5703125,-62.98828125,-237.3046875
-33.69140625,-51.7578125,-50.78125,-14.16015625
176.26953125,-37.59765625,-38.0859375,149.90234375
78.61328125,-38.0859375,-39.0625,52.24609375
-211.9140625,-53.22265625,-48.828125,-194.82421875
-312.5,-59.08203125,-57.12890625,-250.0
-65.4296875,-46.38671875,-53.22265625,-34.66796875
191.40625,-32.2265625,-41.9921875,153.80859375
120.60546875,-37.59765625,-42.48046875,76.171875
-187.98828125,-60.546875,-58.10546875,-187.01171875
-322.265625,-69.3359375,-66.40625,-273.92578125
-107.421875,-51.26953125,-51.26953125,-71.2890625
165.52734375,-35.64453125,-37.59765625,128.90625
147.4609375,-37.59765625,-40.52734375,92.7734375
-153.80859375,-54.19921875,-48.828125,-148.4375
-324.21875,-62.5,-55.17578125,-270.99609375
-138.18359375,-52.24609375,-53.22265625,-82.51953125
128.41796875,-41.50390625,-42.48046875,137.20703125
158.69140625,-40.52734375,-43.9453125,129.39453125
-91.30859375,-47.36328125,-51.7578125,-89.35546875
-309.08203125,-50.29296875,-58.59375,-252.44140625
-180.17578125,-51.7578125,-65.91796875,-141.11328125
108.88671875,-33.203125,-60.546875,77.1484375
181.640625,-26.3671875,-59.08203125,123.046875
-60.05859375,-40.52734375,-67.87109375,-87.40234375
-312.01171875,-43.9453125,-79.1015625,-284.1796875
-206.0546875,-41.50390625,-83.49609375,-161.1328125
87.40234375,-29.296875,-69.3359375,98.14453125
210.9375,-19.04296875,-62.98828125,167.48046875
15.625,-24.90234375,-73.2421875,-35.15625
-245.60546875,-36.62109375,-74.70703125,-234.375
-160.64453125,-24.90234375,-68.359375,-140.13671875
122.0703125,-11.23046875,-64.453125,92.28515625
241.2109375,-15.625,-62.5,187.01171875
55.17578125,-25.87890625,-63.96484375,30.76171875
-225.09765625,-37.59765625,-63.96484375,-194.3359375
-202.1484375,-29.78515625,-60.546875,-170.41015625
71.77734375,-23.92578125,-58.10546875,47.36328125
248.046875,-19.53125,-50.78125,171.38671875
86.9140625,-27.83203125,-57.12890625,28.3203125
-222.16796875,-45.41015625,-70.3125,-209.47265625
-251.46484375,-45.8984375,-69.3359375,-209.9609375
28.80859375,-31.25,-54.19921875,21.97265625
247.0703125,-17.578125,-39.0625,184.5703125
124.51171875,-28.80859375,-45.41015625,69.82421875
-192.87109375,-47.8515625,-57.6171875,-175.29296875
-276.3671875,-47.8515625,-59.5703125,-215.8203125
-15.13671875,-27.34375,-54.19921875,-12.6953125
219.7265625,-13.671875,-44.43359375,161.1328125
141.6015625,-23.92578125,-48.33984375,76.66015625
-164.0625,-41.015625,-57.6171875,-170.41015625
-285.15625,-44.43359375,-60.546875,-242.1875
-56.15234375,-37.59765625,-58.10546875,-41.9921875
180.17578125,-32.71484375,-46.875,157.2265625
139.6484375,-34.1796875,-41.50390625,99.12109375
-155.2734375,-43.9453125,-52.734375,-155.76171875
-322.75390625,-58.59375,-61.03515625,-268.06640625
-116.69921875,-53.22265625,-57.12890625,-89.35546875
160.64453125,-35.15625,-48.33984375,144.04296875
181.15234375,-28.80859375,-38.0859375,143.5546875
-91.30859375,-38.57421875,-43.45703125,-115.234375
-300.78125,-53.7109375,-55.17578125,-267.08984375
-141.11328125,-47.8515625,-51.7578125,-105.95703125
145.99609375,-29.296875,-37.109375,120.60546875
203.61328125,-23.92578125,-28.3203125,139.16015625
-56.640625,-41.50390625,-40.52734375,-95.21484375
-291.50390625,-57.12890625,-51.7578125,-262.20703125
-166.9921875,-43.9453125,-47.36328125,-114.2578125
113.76953125,-24.90234375,-37.59765625,108.88671875
190.91796875,-27.83203125,-39.0625,134.27734375
-33.69140625,-47.8515625,-49.8046875,-73.73046875
-291.50390625,-60.546875,-60.05859375,-264.16015625
-213.37890625,-55.17578125,-54.6875,-170.41015625
78.125,-37.59765625,-39.0625,63.96484375
208.49609375,-33.69140625,-39.0625,152.34375
9.27734375,-48.828125,-47.36328125,-22.94921875
-277.34375,-60.546875,-54.6875,-234.375
-233.88671875,-58.59375,-47.8515625,-181.15234375
49.31640625,-43.9453125,-37.59765625,41.9921875
208.49609375,-28.80859375,-34.66796875,159.1796875
44.43359375,-37.59765625,-37.59765625,11.23046875
-267.578125,-58.10546875,-47.36328125,-224.609375
-285.15625,-60.546875,-59.08203125,-217.28515625
7.8125,-53.7109375,-51.7578125,9.765625
201.66015625,-41.015625,-35.15625,151.85546875
76.66015625,-37.59765625,-38.57421875,29.78515625
-216.796875,-47.8515625,-46.875,-196.77734375
-286.62109375,-49.31640625,-48.33984375,-220.21484375
-16.6015625,-41.50390625,-42.96875,-13.671875
218.26171875,-30.76171875,-35.15625,149.90234375
126.46484375,-32.2265625,-41.9921875,53.22265625
-187.5,-44.921875,-54.6875,-201.66015625
-308.59375,-49.31640625,-58.59375,-260.25390625
-81.0546875,-43.9453125,-53.7109375,-45.41015625
158.69140625,-43.45703125,-44.43359375,135.25390625
120.1171875,-43.9453125,-44.921875,70.80078125
-173.828125,-52.734375,-56.640625,-162.59765625
-339.84375,-63.96484375,-58.59375,-253.41796875
-119.140625,-58.10546875,-48.828125,-65.4296875
158.203125,-43.9453125,-41.015625,132.32421875
155.2734375,-40.0390625,-42.48046875,101.5625
-138.671875,-50.78125,-50.29296875,-130.37109375
-335.44921875,-58.59375,-57.6171875,-267.08984375
-147.4609375,-47.36328125,-56.15234375,-104.4921875
129.39453125,-37.109375,-44.43359375,103.02734375
161.1328125,-44.921875,-41.9921875,104.4921875
-103.02734375,-62.5,-56.640625,-118.65234375
-317.3828125,-65.4296875,-59.08203125,-280.2734375
-170.8984375,-58.59375,-52.734375,-135.7421875
109.375,-41.015625,-41.9921875,85.44921875
180.6640625,-34.1796875,-42.96875,130.859375
-58.59375,-47.8515625,-53.7109375,-57.12890625
-298.828125,-51.7578125,-61.5234375,-250.0
-192.3828125,-49.8046875,-60.546875,-155.76171875
106.93359375,-44.921875,-46.875,66.40625
221.19140625,-36.1328125,-41.015625,124.51171875
-11.71875,-49.31640625,-55.6640625,-54.19921875
-278.3203125,-68.84765625,-62.01171875,-254.39453125
-222.16796875,-60.05859375,-57.12890625,-182.6171875
38.0859375,-47.36328125,-47.8515625,41.50390625
189.94140625,-41.9921875,-40.0390625,141.11328125
13.18359375,-49.8046875,-45.41015625,-12.6953125
-273.4375,-59.08203125,-54.19921875,-236.328125
-264.16015625,-56.15234375,-55.17578125,-202.63671875
-4.8828125,-48.828125,-48.33984375,26.85546875
170.41015625,-39.0625,-43.45703125,157.71484375
39.0625,-42.96875,-42.48046875,8.7890625
-244.62890625,-52.734375,-51.26953125,-233.3984375
-272.94921875,-48.33984375,-59.08203125,-225.09765625
-24.4140625,-47.36328125,-53.7109375,4.39453125
179.19921875,-42.96875,-44.43359375,143.5546875
83.0078125,-42.96875,-45.8984375,41.50390625
-206.54296875,-52.24609375,-55.17578125,-189.453125
-294.43359375,-57.6171875,-61.03515625,-233.88671875
-55.17578125,-52.24609375,-59.5703125,-14.6484375
177.24609375,-40.52734375,-50.78125,152.34375
103.02734375,-39.55078125,-50.78125,58.59375
-184.5703125,-50.78125,-58.10546875,-180.6640625
-306.15234375,-55.17578125,-57.12890625,-248.046875
-86.42578125,-41.9921875,-49.31640625,-54.6875
161.1328125,-34.1796875,-41.015625,124.0234375
123.046875,-40.52734375,-42.96875,87.40234375
-155.2734375,-45.8984375,-55.6640625,-132.32421875
-328.61328125,-51.7578125,-60.546875,-249.0234375
-161.62109375,-45.8984375,-58.10546875,-96.19140625
123.53515625,-33.69140625,-53.22265625,104.00390625
149.90234375,-37.59765625,-54.6875,87.40234375
-143.06640625,-42.48046875,-63.4765625,-141.6015625
-324.21875,-40.0390625,-61.5234375,-270.01953125
-141.11328125,-32.2265625,-55.17578125,-128.90625
101.5625,-24.4140625,-47.36328125,87.40234375
137.20703125,-23.92578125,-47.36328125,113.28125
-96.19140625,-35.64453125,-60.546875,-103.515625
-326.66015625,-47.36328125,-68.84765625,-264.16015625
-204.1015625,-45.8984375,-63.4765625,-132.8125
83.0078125,-38.0859375,-52.734375,87.40234375
179.6875,-32.71484375,-43.9453125,127.9296875
-30.76171875,-39.0625,-52.734375,-71.2890625
-301.7578125,-53.22265625,-64.453125,-262.20703125
-229.00390625,-54.19921875,-64.453125,-174.8046875
57.6171875,-33.69140625,-57.6171875,49.31640625
180.17578125,-26.3671875,-52.24609375,133.7890625
5.859375,-40.0390625,-56.640625,-28.3203125
-273.4375,-46.38671875,-63.96484375,-248.046875
-252.44140625,-48.828125,-69.3359375,-207.51953125
35.64453125,-44.921875,-61.03515625,23.4375
189.94140625,-41.50390625,-48.33984375,156.73828125
31.73828125,-48.828125,-54.19921875,13.18359375
-259.27734375,-48.828125,-59.08203125,-228.02734375
-281.25,-48.828125,-61.5234375,-216.30859375
-4.39453125,-44.43359375,-59.08203125,12.20703125
200.68359375,-35.64453125,-45.41015625,154.78515625
70.3125,-41.9921875,-47.36328125,29.78515625
-227.5390625,-54.6875,-59.08203125,-215.8203125
-286.62109375,-50.78125,-58.10546875,-244.62890625
-36.62109375,-36.1328125,-45.8984375,-25.87890625
180.6640625,-30.76171875,-41.015625,139.6484375
90.8203125,-33.69140625,-42.96875,57.12890625
-195.3125,-46.38671875,-51.7578125,-186.5234375
-305.6640625,-51.26953125,-63.4765625,-256.34765625
-73.73046875,-41.50390625,-57.12890625,-34.66796875
190.4296875,-34.66796875,-52.734375,166.9921875
145.5078125,-36.62109375,-50.78125,91.30859375
-166.9921875,-49.31640625,-46.875,-158.69140625
-320.80078125,-57.12890625,-47.8515625,-247.0703125
-102.5390625,-49.8046875,-40.0390625,-53.7109375
165.52734375,-42.48046875,-34.1796875,156.25
155.76171875,-44.921875,-34.66796875,126.953125
-113.76953125,-54.6875,-34.66796875,-103.515625
-284.66796875,-64.453125,-36.1328125,-223.6328125
-128.90625,-69.82421875,-36.1328125,-72.265625
128.90625,-55.17578125,-25.390625,141.6015625
175.78125,-45.8984375,-25.390625,141.11328125
-70.80078125,-58.59375,-34.1796875,-89.84375
-282.71484375,-62.5,-33.69140625,-223.6328125
-152.83203125,-56.15234375,-31.73828125,-70.3125
104.00390625,-49.8046875,-35.15625,129.39453125
176.7578125,-49.31640625,-35.64453125,148.4375
-31.73828125,-47.8515625,-34.1796875,-49.8046875
-250.0,-46.38671875,-40.0390625,-217.7734375
-157.71484375,-48.828125,-47.36328125,-114.2578125
74.21875,-54.19921875,-44.43359375,103.02734375
168.45703125,-51.7578125,-42.48046875,163.0859375
-16.11328125,-56.640625,-47.8515625,-37.59765625
-269.04296875,-63.4765625,-53.7109375,-227.5390625
-236.81640625,-59.08203125,-56.15234375,-143.5546875
16.6015625,-47.36328125,-45.8984375,54.6875
157.2265625,-41.015625,-39.55078125,137.6953125
-5.37109375,-51.26953125,-39.0625,-13.671875
-240.234375,-60.05859375,-42.96875,-217.7734375
-224.12109375,-55.6640625,-48.33984375,-179.19921875
10.7421875,-41.015625,-41.50390625,30.76171875
166.015625,-41.9921875,-40.52734375,139.6484375
34.1796875,-55.6640625,-48.33984375,6.34765625
-228.02734375,-60.546875,-47.8515625,-204.1015625
-273.92578125,-59.08203125,-48.828125,-211.9140625
-37.109375,-47.8515625,-42.96875,-2.44140625
157.71484375,-34.66796875,-30.2734375,146.484375
57.6171875,-39.55078125,-32.2265625,45.41015625
-201.171875,-46.875,-40.52734375,-174.8046875
-274.90234375,-47.36328125,-48.33984375,-237.3046875
-68.359375,-44.43359375,-48.828125,-49.8046875
144.53125,-39.55078125,-39.55078125,127.9296875
97.65625,-35.15625,-33.69140625,68.84765625
-169.921875,-47.8515625,-45.8984375,-155.2734375
-278.3203125,-59.5703125,-53.22265625,-234.86328125
-84.9609375,-51.7578125,-42.48046875,-56.640625
145.01953125,-37.59765625,-36.1328125,132.8125
113.28125,-37.59765625,-40.52734375,78.125
-139.6484375,-45.8984375,-50.29296875,-152.83203125
-269.04296875,-46.875,-55.6640625,-237.3046875
-118.1640625,-43.45703125,-53.22265625,-79.1015625
113.76953125,-34.1796875,-48.828125,94.23828125
122.55859375,-40.52734375,-49.8046875,82.03125
-115.72265625,-49.8046875,-52.24609375,-116.2109375
-281.25,-45.41015625,-55.17578125,-241.2109375
-145.99609375,-43.45703125,-54.19921875,-111.328125
89.35546875,-41.9921875,-43.45703125,83.984375
127.44140625,-39.55078125,-41.50390625,98.14453125
-78.125,-46.875,-47.8515625,-92.28515625
-266.11328125,-49.31640625,-50.78125,-233.88671875
-168.45703125,-48.33984375,-53.22265625,-135.25390625
66.89453125,-40.0390625,-45.8984375,65.91796875
137.6953125,-39.55078125,-39.0625,104.00390625
-45.8984375,-48.828125,-43.45703125,-64.94140625
-247.0703125,-47.36328125,-46.875,-216.30859375
-173.828125,-44.43359375,-46.875,-130.37109375
59.08203125,-37.59765625,-46.38671875,63.4765625
148.4375,-38.57421875,-48.33984375,122.55859375
-17.08984375,-50.29296875,-48.828125,-31.73828125
-232.421875,-56.15234375,-46.875,-220.703125
-207.51953125,-55.17578125,-43.45703125,-161.62109375
14.6484375,-45.8984375,-36.1328125,51.7578125
142.08984375,-41.9921875,-39.55078125,136.23046875
-4.8828125,-55.17578125,-45.8984375,-11.71875
-233.88671875,-60.546875,-49.8046875,-205.078125
-229.00390625,-56.640625,-52.734375,-165.0390625
-2.44140625,-46.38671875,-48.828125,22.94921875
143.5546875,-48.33984375,-44.43359375,102.5390625
26.3671875,-55.17578125,-44.43359375,0.0
-207.03125,-58.10546875,-43.9453125,-197.75390625
-246.09375,-61.5234375,-39.0625,-211.42578125
-25.87890625,-55.17578125,-31.73828125,-6.8359375
154.296875,-57.6171875,-28.3203125,134.27734375
68.359375,-64.453125,-32.71484375,37.59765625
-160.64453125,-60.05859375,-40.0390625,-164.55078125
-250.9765625,-55.6640625,-44.43359375,-209.9609375
-57.6171875,-48.33984375,-36.62109375,-37.59765625
150.390625,-46.38671875,-31.25,122.0703125
95.703125,-53.7109375,-37.109375,65.91796875
-136.71875,-52.24609375,-36.1328125,-132.8125
-229.4921875,-45.41015625,-35.64453125,-224.609375
-72.265625,-45.8984375,-42.48046875,-80.56640625
127.44140625,-45.41015625,-40.52734375,92.7734375
104.4921875,-51.26953125,-36.62109375,68.359375
-125.48828125,-58.59375,-43.45703125,-120.1171875
-248.53515625,-54.6875,-48.828125,-222.65625
-104.4921875,-48.828125,-48.33984375,-89.35546875
107.91015625,-49.8046875,-44.921875,98.6328125
129.39453125,-50.78125,-42.48046875,124.0234375
-77.63671875,-52.24609375,-43.45703125,-66.89453125
-258.30078125,-56.640625,-51.7578125,-234.375
-140.13671875,-50.29296875,-50.78125,-118.1640625
98.14453125,-39.0625,-48.828125,86.9140625
157.71484375,-41.50390625,-52.24609375,111.81640625
-45.8984375,-58.10546875,-50.29296875,-61.03515625
-239.74609375,-62.98828125,-49.8046875,-206.54296875
-146.97265625,-51.7578125,-45.8984375,-125.9765625
72.265625,-45.41015625,-38.57421875,58.59375
138.671875,-46.38671875,-38.0859375,124.0234375
-32.2265625,-51.26953125,-44.43359375,-30.76171875
-242.1875,-49.8046875,-49.8046875,-200.1953125
-205.078125,-41.015625,-50.29296875,-127.44140625
28.3203125,-43.9453125,-51.26953125,54.6875
139.6484375,-45.8984375,-51.7578125,128.90625
-10.25390625,-41.50390625,-48.33984375,-13.18359375
-232.421875,-46.38671875,-46.875,-219.23828125
-227.5390625,-52.734375,-51.26953125,-181.640625
-8.7890625,-46.38671875,-47.8515625,20.99609375
131.8359375,-42.96875,-41.015625,122.55859375
19.53125,-50.29296875,-48.828125,15.13671875
-213.8671875,-49.8046875,-56.15234375,-196.2890625
-246.09375,-42.48046875,-58.59375,-213.37890625
-38.0859375,-38.57421875,-56.15234375,0.0
121.58203125,-34.66796875,-49.8046875,134.765625
38.0859375,-42.48046875,-52.734375,23.4375
-183.59375,-50.78125,-61.03515625,-201.66015625
-239.2578125,-41.9921875,-62.5,-241.69921875
-45.41015625,-34.66796875,-52.734375,-40.52734375
119.140625,-43.9453125,-55.17578125,110.3515625
58.10546875,-49.31640625,-60.546875,33.69140625
-168.45703125,-49.8046875,-61.5234375,-188.96484375
-264.6484375,-50.29296875,-62.98828125,-275.390625
-97.16796875,-47.36328125,-54.19921875,-75.1953125
93.26171875,-44.43359375,-48.828125,108.88671875
70.80078125,-45.8984375,-55.17578125,50.78125
-157.71484375,-52.734375,-59.5703125,-170.8984375
-278.80859375,-55.6640625,-58.59375,-259.765625
-117.67578125,-48.828125,-52.734375,-93.75
86.42578125,-40.52734375,-49.8046875,74.21875
63.96484375,-47.8515625,-54.19921875,68.359375
-144.04296875,-57.6171875,-60.546875,-141.11328125
-277.34375,-54.19921875,-63.96484375,-280.2734375
-164.55078125,-50.78125,-60.546875,-120.1171875
52.734375,-47.36328125,-53.22265625,73.2421875
93.26171875,-45.41015625,-49.31640625,77.1484375
-104.00390625,-51.7578125,-51.26953125,-111.81640625
-260.25390625,-52.24609375,-59.08203125,-255.37109375
-160.64453125,-49.8046875,-59.08203125,-141.6015625
52.734375,-43.9453125,-46.38671875,59.08203125
104.4921875,-43.45703125,-42.48046875,119.140625
-62.01171875,-46.38671875,-49.31640625,-60.05859375
-230.46875,-47.36328125,-58.59375,-250.9765625
-158.203125,-50.78125,-59.5703125,-163.57421875
69.82421875,-41.50390625,-47.8515625,44.921875
138.671875,-39.0625,-47.36328125,128.90625
-24.90234375,-49.31640625,-61.5234375,-24.90234375
-196.2890625,-43.9453125,-72.265625,-224.12109375
-165.52734375,-33.69140625,-72.75390625,-194.3359375
39.0625,-33.69140625,-68.84765625,7.8125
148.92578125,-35.64453125,-53.7109375,136.23046875
6.34765625,-39.0625,-54.6875,-0.48828125
-172.36328125,-39.55078125,-68.359375,-231.93359375
-161.1328125,-28.80859375,-71.2890625,-230.46875
26.3671875,-22.94921875,-62.98828125,-4.8828125
139.16015625,-30.2734375,-53.7109375,126.953125
23.92578125,-35.15625,-58.59375,17.578125
-156.73828125,-40.0390625,-66.89453125,-199.70703125
-161.1328125,-40.0390625,-73.2421875,-232.421875
6.34765625,-30.2734375,-66.89453125,-15.625
116.2109375,-30.2734375,-58.10546875,130.859375
31.73828125,-38.57421875,-61.03515625,20.5078125
-122.55859375,-34.66796875,-63.96484375,-183.10546875
-156.73828125,-33.69140625,-63.96484375,-230.46875
-24.4140625,-36.62109375,-66.89453125,-68.359375
94.23828125,-34.1796875,-67.3828125,98.14453125
18.5546875,-40.0390625,-61.03515625,65.91796875
-140.13671875,-45.8984375,-61.5234375,-144.04296875
-188.96484375,-41.015625,-66.89453125,-239.74609375
-62.01171875,-42.96875,-66.89453125,-80.078125
85.9375,-40.52734375,-58.59375,104.98046875
49.8046875,-44.921875,-57.12890625,72.265625
-117.1875,-50.78125,-66.40625,-151.3671875
-188.96484375,-42.96875,-62.98828125,-243.1640625
-68.84765625,-30.2734375,-56.15234375,-83.984375
65.91796875,-25.87890625,-50.78125,92.7734375
46.875,-35.15625,-47.36328125,101.5625
-95.703125,-39.0625,-56.15234375,-92.28515625
-182.6171875,-25.87890625,-65.4296875,-237.79296875
-96.6796875,-29.296875,-64.453125,-141.6015625
44.921875,-41.50390625,-57.6171875,56.640625
46.875,-44.921875,-57.12890625,111.328125
-72.75390625,-41.50390625,-63.96484375,-65.4296875
-158.69140625,-31.73828125,-67.87109375,-247.0703125
-92.7734375,-26.85546875,-65.4296875,-160.64453125
34.66796875,-30.2734375,-59.08203125,40.52734375
44.43359375,-37.59765625,-59.08203125,94.23828125
-73.2421875,-41.015625,-67.87109375,-51.26953125
-169.43359375,-37.59765625,-71.77734375,-222.16796875
-104.4921875,-27.83203125,-66.89453125,-177.24609375
8.7890625,-24.90234375,-58.59375,16.6015625
34.66796875,-36.1328125,-61.03515625,126.46484375
-42.48046875,-40.0390625,-68.359375,-6.34765625
-141.6015625,-36.1328125,-76.171875,-231.4453125
-105.46875,-30.76171875,-77.1484375,-208.49609375
12.20703125,-26.85546875,-68.84765625,1.46484375
16.11328125,-38.57421875,-64.94140625,114.74609375
-76.66015625,-48.33984375,-68.359375,2.9296875
-142.08984375,-41.50390625,-70.3125,-216.796875
-132.8125,-30.76171875,-70.3125,-235.83984375
-39.55078125,-26.3671875,-65.4296875,-15.13671875
-6.34765625,-31.73828125,-55.17578125,149.4140625
-81.0546875,-41.50390625,-58.10546875,28.80859375
-144.53125,-44.43359375,-71.2890625,-220.21484375
-141.6015625,-33.69140625,-72.265625,-257.8125
-69.82421875,-30.76171875,-66.40625,-71.77734375
-17.578125,-41.50390625,-62.5,113.28125
-67.87109375,-45.41015625,-61.03515625,49.8046875
-138.18359375,-35.15625,-64.94140625,-195.80078125
-147.4609375,-26.85546875,-66.89453125,-278.80859375
-81.0546875,-34.66796875,-60.05859375,-80.078125
-31.73828125,-42.96875,-52.734375,125.48828125
-70.3125,-44.921875,-53.7109375,70.80078125
-124.51171875,-32.2265625,-58.59375,-159.1796875
-133.7890625,-20.01953125,-62.01171875,-274.90234375
-75.1953125,-29.78515625,-61.5234375,-116.69921875
-5.859375,-29.78515625,-56.15234375,74.70703125
-59.5703125,-36.62109375,-58.59375,64.94140625
-146.97265625,-36.1328125,-71.2890625,-124.0234375
-141.11328125,-16.11328125,-73.2421875,-255.859375
-93.75,-16.11328125,-71.2890625,-152.34375
-30.76171875,-27.34375,-67.3828125,50.29296875
-40.52734375,-36.1328125,-58.59375,102.5390625
-139.6484375,-41.50390625,-65.91796875,-80.56640625
-153.80859375,-29.296875,-77.1484375,-268.06640625
-69.82421875,-13.671875,-75.68359375,-171.38671875
-14.6484375,-24.4140625,-67.87109375,70.80078125
-53.7109375,-45.41015625,-64.94140625,122.55859375
-109.86328125,-41.015625,-73.2421875,-59.5703125
-118.1640625,-24.90234375,-82.03125,-263.18359375
-84.9609375,-24.4140625,-69.82421875,-176.26953125
-9.765625,-30.76171875,-53.7109375,55.17578125
-26.85546875,-37.109375,-50.29296875,127.44140625
-106.93359375,-40.52734375,-54.6875,-25.87890625
-124.51171875,-31.25,-65.91796875,-231.93359375
-89.84375,-23.4375,-68.359375,-188.4765625
-32.2265625,-33.69140625,-55.6640625,58.59375
-27.34375,-44.43359375,-47.36328125,196.77734375
-98.6328125,-41.50390625,-52.734375,20.5078125
-136.71875,-35.15625,-66.40625,-215.8203125
-86.9140625,-28.80859375,-70.80078125,-169.921875
-20.5078125,-31.25,-56.15234375,38.57421875
-34.1796875,-46.875,-49.8046875,145.01953125
-106.93359375,-52.734375,-54.6875,41.015625
-123.046875,-43.45703125,-57.6171875,-176.7578125
-90.33203125,-32.2265625,-62.01171875,-211.42578125
-31.73828125,-32.2265625,-55.6640625,-2.44140625
-10.7421875,-41.50390625,-51.26953125,150.87890625
-83.984375,-47.36328125,-57.6171875,48.828125
-109.86328125,-37.109375,-66.40625,-175.29296875
-64.453125,-21.97265625,-66.89453125,-234.86328125
-49.8046875,-31.25,-57.12890625,-44.921875
-64.453125,-49.31640625,-50.78125,144.53125
-129.39453125,-66.89453125,-63.4765625,30.76171875
-176.26953125,-67.87109375,-81.0546875,-225.5859375
-154.78515625,-50.78125,-83.0078125,-300.29296875
-113.28125,-48.33984375,-83.49609375,-124.0234375
-89.84375,-63.96484375,-81.54296875,47.8515625
-131.8359375,-80.56640625,-79.58984375,6.8359375
-198.73046875,-73.2421875,-87.890625,-239.74609375
-171.875,-57.6171875,-90.33203125,-351.07421875
-109.86328125,-50.29296875,-79.58984375,-162.59765625
-100.5859375,-49.8046875,-65.91796875,29.78515625
-119.140625,-62.98828125,-61.03515625,57.6171875
-162.59765625,-61.03515625,-69.82421875,-137.20703125
-164.0625,-46.875,-73.73046875,-315.4296875
-100.5859375,-51.7578125,-66.89453125,-181.15234375
-54.6875,-58.59375,-61.5234375,54.6875
-76.66015625,-68.84765625,-59.5703125,114.2578125
-128.41796875,-67.3828125,-62.5,-72.265625
-116.2109375,-41.50390625,-67.87109375,-265.13671875
-63.96484375,-37.59765625,-62.98828125,-156.25
-32.2265625,-53.22265625,-46.875,90.33203125
-46.875,-59.08203125,-41.50390625,142.08984375
-107.421875,-59.08203125,-58.59375,-29.78515625
-110.83984375,-45.41015625,-65.91796875,-219.7265625
-38.57421875,-31.25,-53.22265625,-165.0390625
12.6953125,-43.9453125,-45.8984375,54.19921875
-39.0625,-63.96484375,-47.8515625,129.8828125
-115.234375,-64.94140625,-52.734375,-17.578125
-108.3984375,-44.921875,-52.734375,-213.8671875
-71.2890625,-36.1328125,-45.8984375,-182.12890625
-17.08984375,-41.50390625,-35.64453125,34.66796875
-25.87890625,-57.6171875,-33.69140625,144.53125
-94.7265625,-67.3828125,-43.9453125,29.78515625
-105.46875,-48.33984375,-53.7109375,-186.03515625
-71.77734375,-33.203125,-54.6875,-195.80078125
-26.85546875,-44.43359375,-44.43359375,17.578125
-33.203125,-62.5,-41.9921875,169.43359375
-90.33203125,-66.40625,-50.78125,60.546875
-105.46875,-52.24609375,-55.6640625,-168.9453125
-70.3125,-36.62109375,-52.24609375,-214.84375
-18.5546875,-36.62109375,-42.96875,-15.625
-24.90234375,-52.734375,-33.203125,161.62109375
-90.8203125,-70.3125,-34.1796875,73.73046875
-92.7734375,-55.17578125,-50.78125,-162.109375
-65.91796875,-40.0390625,-61.03515625,-241.69921875
-40.0390625,-40.52734375,-53.22265625,-43.45703125
-23.92578125,-46.38671875,-49.8046875,134.765625
-101.5625,-72.75390625,-57.6171875,81.0546875
-123.53515625,-63.96484375,-58.10546875,-146.484375
-81.54296875,-37.109375,-60.546875,-270.01953125
-61.03515625,-45.41015625,-63.4765625,-105.46875
-44.921875,-57.6171875,-53.22265625,91.796875
-79.58984375,-66.40625,-48.33984375,90.33203125
-129.8828125,-58.59375,-58.59375,-133.7890625
-118.65234375,-42.48046875,-60.546875,-289.0625
-61.5234375,-37.59765625,-42.48046875,-112.79296875
-27.34375,-52.734375,-41.50390625,112.79296875
-54.19921875,-58.10546875,-53.7109375,126.953125
-104.98046875,-50.29296875,-65.91796875,-82.51953125
-98.6328125,-41.9921875,-67.3828125,-262.20703125
-54.19921875,-31.25,-53.7109375,-149.4140625
-23.4375,-42.96875,-49.31640625,69.82421875
-56.640625,-62.01171875,-54.19921875,128.90625
-104.4921875,-57.12890625,-57.12890625,-36.1328125
-83.984375,-33.203125,-55.6640625,-220.21484375
-55.17578125,-29.78515625,-54.19921875,-163.57421875
-13.671875,-41.015625,-49.8046875,41.50390625
-32.2265625,-54.19921875,-42.48046875,143.06640625
-103.515625,-59.5703125,-45.8984375,-2.9296875
-109.86328125,-42.96875,-43.45703125,-232.421875
-40.52734375,-24.4140625,-35.64453125,-195.80078125
-1.46484375,-40.52734375,-36.62109375,40.52734375
-17.578125,-60.546875,-33.69140625,172.8515625
-49.8046875,-59.08203125,-35.64453125,31.73828125
-80.56640625,-46.38671875,-50.29296875,-200.1953125
-66.40625,-37.109375,-47.36328125,-177.734375
-19.53125,-46.38671875,-41.9921875,7.8125
-9.765625,-60.546875,-51.26953125,135.7421875
-80.078125,-70.3125,-61.5234375,43.9453125
-98.6328125,-52.24609375,-60.546875,-184.08203125
-67.87109375,-32.2265625,-53.7109375,-236.328125
-20.99609375,-37.59765625,-53.22265625,-23.4375
-0.48828125,-63.96484375,-56.640625,161.1328125
-69.82421875,-77.1484375,-53.22265625,71.2890625
-106.4453125,-51.7578125,-57.12890625,-189.453125
-55.6640625,-31.73828125,-60.05859375,-262.6953125
-13.671875,-41.50390625,-54.19921875,-61.03515625
-20.01953125,-61.03515625,-51.26953125,138.18359375
-65.91796875,-62.5,-50.29296875,79.1015625
-113.76953125,-50.29296875,-55.17578125,-140.13671875
-88.37890625,-28.3203125,-53.22265625,-234.86328125
-22.4609375,-22.4609375,-40.0390625,-63.96484375
7.8125,-33.203125,-28.80859375,143.06640625
-56.15234375,-45.8984375,-37.109375,95.21484375
-111.328125,-50.29296875,-58.59375,-101.5625
-75.68359375,-37.59765625,-62.98828125,-207.51953125
-32.71484375,-36.62109375,-56.640625,-99.609375
-6.34765625,-51.26953125,-52.24609375,134.27734375
-48.33984375,-59.5703125,-46.875,160.15625
-110.3515625,-59.5703125,-37.109375,-94.7265625
-86.9140625,-47.36328125,-40.0390625,-248.046875
-54.19921875,-40.52734375,-48.828125,-131.34765625
-35.15625,-56.640625,-40.52734375,53.7109375
-38.0859375,-70.3125,-34.1796875,140.625
-75.1953125,-66.40625,-45.41015625,2.9296875
-96.6796875,-47.8515625,-51.26953125,-241.69921875
-62.98828125,-44.43359375,-48.828125,-184.5703125
-22.94921875,-59.08203125,-43.9453125,53.22265625
-62.98828125,-72.75390625,-44.921875,122.55859375
-122.0703125,-74.70703125,-54.19921875,-39.0625
-122.0703125,-48.828125,-53.22265625,-229.00390625
-69.3359375,-37.109375,-46.38671875,-185.05859375
-20.01953125,-44.921875,-42.48046875,30.2734375
-17.08984375,-51.26953125,-40.52734375,149.4140625
-68.359375,-60.05859375,-42.96875,6.8359375
-86.9140625,-46.38671875,-46.875,-203.61328125
-58.10546875,-37.59765625,-48.33984375,-183.59375
-14.6484375,-44.921875,-39.55078125,27.34375
-1.46484375,-51.26953125,-29.296875,164.55078125
-48.828125,-55.17578125,-35.64453125,48.33984375
-103.02734375,-47.36328125,-52.24609375,-178.22265625
-89.84375,-42.48046875,-54.6875,-195.80078125
-16.6015625,-46.38671875,-47.36328125,-4.8828125
-13.18359375,-48.828125,-45.41015625,168.45703125
-77.63671875,-53.7109375,-51.26953125,72.75390625
-98.14453125,-47.8515625,-52.734375,-183.10546875
-71.2890625,-32.2265625,-47.8515625,-236.328125
-20.99609375,-43.9453125,-42.96875,-34.66796875
17.08984375,-59.08203125,-44.921875,157.2265625
-29.296875,-58.59375,-48.33984375,105.95703125
-91.30859375,-47.36328125,-58.10546875,-140.13671875
-81.54296875,-33.203125,-58.10546875,-253.41796875
-30.2734375,-37.59765625,-47.36328125,-48.33984375
-16.11328125,-59.5703125,-39.55078125,128.90625
-63.4765625,-68.359375,-34.66796875,70.3125
-101.07421875,-46.875,-49.8046875,-119.140625
-88.8671875,-26.3671875,-54.19921875,-221.6796875
-45.41015625,-33.203125,-43.45703125,-75.68359375
-17.578125,-45.41015625,-42.48046875,121.58203125
-45.8984375,-67.3828125,-40.52734375,115.72265625
-97.16796875,-67.87109375,-45.8984375,-62.98828125
-100.5859375,-27.83203125,-49.8046875,-216.30859375
-37.109375,-22.4609375,-47.36328125,-103.02734375
39.55078125,-50.29296875,-44.43359375,115.234375
-27.34375,-62.5,-47.8515625,118.65234375
-114.2578125,-60.546875,-55.6640625,-78.125
-122.0703125,-36.62109375,-56.15234375,-262.20703125
-64.453125,-23.4375,-43.45703125,-160.15625
26.3671875,-37.109375,-40.52734375,107.91015625
-2.44140625,-55.6640625,-46.875,159.1796875
-101.07421875,-61.5234375,-54.6875,-57.6171875
-124.51171875,-44.43359375,-56.640625,-242.1875
-75.68359375,-34.1796875,-50.78125,-173.33984375
-4.8828125,-37.109375,-41.9921875,40.0390625
-13.18359375,-58.59375,-41.9921875,125.9765625
-99.12109375,-71.77734375,-58.10546875,-33.203125
-120.60546875,-50.29296875,-66.89453125,-240.72265625
-78.61328125,-41.015625,-69.82421875,-195.3125
-22.94921875,-45.8984375,-59.08203125,25.390625
-11.71875,-54.19921875,-47.8515625,136.71875
-78.61328125,-59.5703125,-52.734375,17.578125
-115.234375,-44.43359375,-54.6875,-182.6171875
-66.89453125,-31.25,-52.734375,-186.03515625
-0.9765625,-45.8984375,-46.875,35.15625
-2.9296875,-68.84765625,-39.55078125,188.96484375
-82.03125,-67.87109375,-43.45703125,65.4296875
-111.81640625,-47.36328125,-50.29296875,-181.640625
-65.4296875,-40.52734375,-52.734375,-238.76953125
-25.87890625,-46.875,-46.38671875,-50.29296875
-8.30078125,-58.10546875,-39.55078125,113.76953125
-61.03515625,-62.5,-51.26953125,61.5234375
-92.7734375,-49.8046875,-60.546875,-181.640625
-67.87109375,-31.25,-53.22265625,-260.25390625
-24.90234375,-27.34375,-41.50390625,-54.19921875
-9.27734375,-47.36328125,-45.8984375,112.79296875
-70.3125,-64.453125,-54.6875,69.3359375
-97.65625,-46.875,-55.17578125,-153.80859375
-70.3125,-25.390625,-49.8046875,-246.58203125
-21.484375,-30.76171875,-50.29296875,-78.125
0.9765625,-45.8984375,-50.78125,113.28125
-40.0390625,-53.7109375,-43.9453125,106.4453125
-89.84375,-48.33984375,-49.8046875,-118.1640625
-74.21875,-30.76171875,-52.734375,-257.8125
-22.4609375,-28.3203125,-42.96875,-109.86328125
10.25390625,-37.109375,-42.48046875,93.26171875
-30.76171875,-42.96875,-46.38671875,122.55859375
-93.26171875,-44.921875,-54.19921875,-89.84375
-81.54296875,-29.296875,-58.10546875,-261.71875
-28.80859375,-20.99609375,-59.5703125,-139.6484375
10.25390625,-31.25,-60.546875,55.17578125
-36.1328125,-54.6875,-62.5,115.72265625
-104.98046875,-59.08203125,-66.89453125,-71.2890625
-90.33203125,-37.109375,-63.96484375,-270.99609375
-54.19921875,-27.83203125,-60.546875,-170.8984375
-30.76171875,-39.0625,-54.19921875,65.91796875
-58.10546875,-53.22265625,-52.734375,128.90625
-105.46875,-48.828125,-61.5234375,-32.2265625
-103.02734375,-30.2734375,-71.77734375,-247.55859375
-59.5703125,-18.5546875,-71.77734375,-231.93359375
-16.11328125,-33.69140625,-56.15234375,26.85546875
-41.9921875,-55.6640625,-45.41015625,147.94921875
-108.88671875,-49.31640625,-47.36328125,-7.32421875
-105.46875,-35.15625,-56.15234375,-239.2578125
-46.875,-31.73828125,-60.05859375,-246.09375
-3.41796875,-44.43359375,-52.24609375,-6.34765625
-20.5078125,-62.5,-43.45703125,149.90234375
-89.35546875,-59.5703125,-44.43359375,20.5078125
-98.6328125,-42.48046875,-60.546875,-217.7734375
-57.6171875,-31.73828125,-66.89453125,-239.2578125
-24.4140625,-39.55078125,-60.05859375,-21.97265625
-39.0625,-52.734375,-52.24609375,136.71875
-98.14453125,-57.12890625,-58.59375,34.66796875
-102.5390625,-41.015625,-66.89453125,-192.3828125
-70.3125,-24.90234375,-62.98828125,-264.16015625
-35.64453125,-34.1796875,-52.24609375,-79.58984375
-23.4375,-51.26953125,-42.48046875,128.90625
-77.63671875,-66.40625,-49.8046875,77.1484375
-102.05078125,-60.546875,-65.91796875,-168.9453125
-67.87109375,-34.1796875,-66.89453125,-260.25390625
-40.0390625,-35.64453125,-49.8046875,-86.9140625
-43.45703125,-58.10546875,-41.9921875,93.75
-104.00390625,-68.84765625,-42.48046875,72.75390625
-125.0,-64.94140625,-44.921875,-136.71875
-82.51953125,-46.875,-47.8515625,-271.97265625
-57.6171875,-49.8046875,-37.59765625,-106.93359375
-42.96875,-59.5703125,-26.85546875,100.09765625
-84.47265625,-68.84765625,-34.66796875,97.65625
-123.53515625,-73.73046875,-53.7109375,-117.67578125
-97.65625,-67.87109375,-60.05859375,-279.296875
-57.12890625,-60.05859375,-47.36328125,-139.16015625
-30.2734375,-57.6171875,-29.296875,87.890625
-86.42578125,-61.03515625,-35.15625,118.65234375
-125.48828125,-60.05859375,-59.08203125,-76.171875
-75.68359375,-43.9453125,-68.359375,-256.34765625
-41.015625,-29.296875,-57.6171875,-161.62109375
-34.66796875,-38.0859375,-49.31640625,61.03515625
-82.03125,-62.5,-49.31640625,146.484375
-110.3515625,-55.17578125,-55.17578125,-15.13671875
-54.19921875,-27.83203125,-61.5234375,-237.3046875
-18.06640625,-34.1796875,-59.5703125,-194.82421875
-18.5546875,-48.828125,-46.875,50.78125
-63.96484375,-57.6171875,-43.45703125,159.1796875
-100.5859375,-57.6171875,-53.7109375,0.9765625
-42.96875,-31.73828125,-56.640625,-218.26171875
5.859375,-18.06640625,-53.7109375,-208.0078125
-8.30078125,-38.57421875,-44.921875,35.64453125
-41.50390625,-49.8046875,-40.52734375,174.31640625
-84.9609375,-47.36328125,-44.43359375,45.8984375
-65.4296875,-38.57421875,-54.19921875,-195.3125
-10.25390625,-23.4375,-58.59375,-230.95703125
-5.37109375,-33.203125,-54.6875,-17.578125
-43.9453125,-56.640625,-51.7578125,146.97265625
-103.515625,-63.4765625,-53.22265625,68.359375
-78.125,-50.29296875,-61.5234375,-174.31640625
-13.18359375,-33.203125,-66.89453125,-228.02734375
-14.16015625,-39.0625,-56.640625,-34.66796875
-58.10546875,-51.7578125,-46.38671875,129.39453125
-104.4921875,-58.10546875,-48.828125,91.796875
-71.2890625,-51.26953125,-59.08203125,-152.83203125
-9.27734375,-33.69140625,-62.98828125,-272.94921875
-15.625,-35.15625,-53.7109375,-78.61328125
-52.24609375,-44.921875,-43.9453125,138.671875
-105.46875,-62.01171875,-44.921875,87.890625
-89.84375,-60.546875,-63.96484375,-154.296875
-20.5078125,-33.69140625,-69.3359375,-264.16015625
-8.30078125,-23.92578125,-51.26953125,-102.05078125
-44.921875,-42.96875,-45.8984375,113.28125
-99.609375,-66.89453125,-46.38671875,126.953125
-89.35546875,-57.6171875,-52.24609375,-120.60546875
-10.25390625,-36.1328125,-59.5703125,-306.15234375
8.7890625,-34.66796875,-54.19921875,-135.25390625
-21.484375,-47.36328125,-41.50390625,117.1875
-78.125,-57.12890625,-35.15625,141.11328125
-92.7734375,-41.015625,-50.78125,-80.56640625
-38.0859375,-25.87890625,-68.359375,-284.66796875
-41.9921875,-33.203125,-60.05859375,-176.7578125
-69.82421875,-37.109375,-43.9453125,62.98828125
-119.62890625,-49.31640625,-33.69140625,136.71875
-149.90234375,-51.26953125,-46.875,-79.58984375
-108.88671875,-32.2265625,-62.5,-341.30859375
-61.5234375,-19.04296875,-62.01171875,-257.8125
-56.640625,-26.3671875,-58.10546875,-17.08984375
-135.25390625,-45.8984375,-54.6875,84.9609375
-167.48046875,-46.875,-58.59375,-83.0078125
-101.5625,-26.85546875,-70.3125,-348.14453125
-59.5703125,-18.06640625,-84.47265625,-317.87109375
-63.96484375,-24.4140625,-75.68359375,-48.33984375
-112.79296875,-36.1328125,-63.96484375,82.51953125
-142.578125,-38.57421875,-70.3125,-77.1484375
-98.6328125,-31.25,-88.37890625,-319.82421875
-37.59765625,-25.87890625,-94.7265625,-320.3125
-33.203125,-29.78515625,-78.61328125,-82.03125
-86.9140625,-41.50390625,-62.5,84.9609375
-120.60546875,-42.96875,-66.89453125,-30.76171875
-63.96484375,-42.48046875,-77.1484375,-256.8359375
6.8359375,-35.15625,-73.73046875,-281.25
-8.30078125,-29.78515625,-67.3828125,-80.078125
-41.50390625,-44.921875,-54.19921875,102.5390625
-81.0546875,-51.7578125,-53.22265625,41.9921875
-82.03125,-41.015625,-67.3828125,-209.9609375
-18.5546875,-32.71484375,-68.359375,-282.2265625
6.8359375,-33.69140625,-53.7109375,-68.84765625
-2.9296875,-41.015625,-36.62109375,138.18359375
-50.29296875,-54.6875,-40.52734375,111.81640625
-44.43359375,-48.33984375,-52.24609375,-125.48828125
14.6484375,-31.73828125,-48.828125,-237.79296875
20.01953125,-36.1328125,-33.203125,-38.57421875
3.41796875,-52.734375,-16.6015625,181.15234375
-44.921875,-65.4296875,-12.20703125,149.4140625
-63.96484375,-50.78125,-22.94921875,-85.9375
-18.5546875,-39.0625,-31.73828125,-218.26171875
10.7421875,-49.8046875,-28.80859375,-46.875
31.25,-57.6171875,-27.34375,164.55078125
-4.39453125,-67.87109375,-34.1796875,156.73828125
-45.8984375,-63.96484375,-41.50390625,-45.8984375
-21.484375,-44.43359375,-47.36328125,-204.1015625
6.34765625,-43.45703125,-41.50390625,-86.9140625
29.78515625,-49.8046875,-27.83203125,125.9765625
0.48828125,-66.89453125,-23.4375,187.98828125
-51.7578125,-78.125,-25.390625,-9.27734375
-40.52734375,-63.4765625,-39.55078125,-230.95703125
-15.13671875,-50.78125,-41.9921875,-143.06640625
20.99609375,-57.12890625,-33.203125,94.23828125
5.859375,-77.1484375,-33.203125,183.10546875
-52.734375,-79.58984375,-39.55078125,-1.46484375
-81.0546875,-62.5,-46.38671875,-219.7265625
-57.6171875,-49.31640625,-42.48046875,-157.71484375
-0.48828125,-50.78125,-28.80859375,72.265625
1.46484375,-57.12890625,-22.94921875,201.66015625
-54.6875,-61.5234375,-27.34375,51.7578125
-76.171875,-55.6640625,-41.9921875,-195.3125
-57.12890625,-61.03515625,-53.7109375,-195.3125
-15.625,-69.3359375,-41.50390625,36.62109375
14.16015625,-60.546875,-21.484375,191.40625
-38.57421875,-64.453125,-29.296875,62.01171875
-90.8203125,-63.4765625,-43.45703125,-169.921875
-64.453125,-54.19921875,-40.52734375,-193.359375
-6.34765625,-62.5,-32.71484375,5.37109375
13.671875,-65.91796875,-23.92578125,178.7109375
-49.31640625,-62.5,-23.4375,74.70703125
-109.86328125,-56.640625,-38.0859375,-190.4296875
-93.75,-47.36328125,-43.45703125,-243.65234375
-16.6015625,-46.38671875,-29.296875,-31.73828125
22.94921875,-50.29296875,-23.92578125,157.2265625
-42.48046875,-62.5,-31.25,84.47265625
-125.48828125,-60.05859375,-38.0859375,-145.99609375
-131.8359375,-40.52734375,-42.48046875,-233.3984375
-55.6640625,-60.05859375,-42.96875,-76.66015625
-11.71875,-71.77734375,-40.0390625,115.234375
-68.359375,-57.12890625,-35.64453125,75.68359375
-160.15625,-52.24609375,-42.48046875,-167.96875
-174.8046875,-40.52734375,-47.36328125,-287.109375
-118.1640625,-37.59765625,-44.921875,-138.671875
-68.359375,-53.7109375,-36.62109375,30.76171875
-94.7265625,-66.40625,-30.76171875,21.484375
-187.98828125,-66.40625,-38.57421875,-199.70703125
-238.28125,-57.12890625,-40.52734375,-348.14453125
-198.2421875,-46.875,-41.9921875,-230.46875
-104.00390625,-45.41015625,-45.8984375,-41.015625
-108.88671875,-53.7109375,-43.9453125,0.9765625
-209.47265625,-58.59375,-45.41015625,-201.171875
-262.20703125,-45.41015625,-45.41015625,-373.046875
-212.890625,-40.52734375,-47.8515625,-240.72265625
-83.984375,-52.24609375,-59.08203125,-25.390625
-50.29296875,-65.4296875,-58.59375,25.390625
-134.765625,-55.6640625,-45.8984375,-117.1875
-199.21875,-39.55078125,-40.52734375,-285.64453125
-163.57421875,-39.0625,-35.64453125,-209.47265625
-46.38671875,-45.41015625,-30.2734375,8.30078125
3.41796875,-49.8046875,-29.296875,122.0703125
-58.10546875,-67.87109375,-41.015625,-6.8359375
-139.16015625,-76.171875,-41.9921875,-209.9609375
-108.3984375,-59.5703125,-32.2265625,-167.48046875
17.578125,-52.24609375,-31.25,43.45703125
69.82421875,-59.5703125,-26.3671875,156.73828125
0.9765625,-68.359375,-25.87890625,41.015625
-109.86328125,-67.87109375,-33.69140625,-162.109375
-89.84375,-62.01171875,-35.15625,-150.87890625
35.15625,-65.4296875,-34.1796875,60.05859375
104.00390625,-69.3359375,-34.66796875,188.96484375
53.7109375,-66.89453125,-36.1328125,89.84375
-99.12109375,-67.87109375,-35.64453125,-133.30078125
-138.671875,-62.98828125,-30.2734375,-170.41015625
3.90625,-62.5,-23.92578125,34.66796875
116.69921875,-70.3125,-21.97265625,213.37890625
67.3828125,-75.1953125,-25.390625,147.4609375
-78.61328125,-63.96484375,-27.83203125,-101.5625
-119.140625,-47.8515625,-24.90234375,-182.12890625
-0.9765625,-54.6875,-25.390625,10.25390625
133.7890625,-55.6640625,-23.92578125,199.70703125
98.6328125,-52.24609375,-20.01953125,179.19921875
-72.75390625,-60.05859375,-27.83203125,-50.29296875
-138.18359375,-60.05859375,-36.1328125,-177.734375
-22.4609375,-55.17578125,-31.73828125,-12.20703125
98.6328125,-60.546875,-23.92578125,193.84765625
93.75,-69.82421875,-20.5078125,181.640625
-43.9453125,-68.359375,-29.296875,-41.50390625
-146.484375,-61.03515625,-42.96875,-182.12890625
-66.40625,-54.19921875,-40.52734375,-49.8046875
74.70703125,-59.08203125,-29.78515625,156.73828125
98.6328125,-71.2890625,-25.390625,181.640625
-44.43359375,-74.21875,-31.25,-7.8125
-166.50390625,-66.89453125,-38.0859375,-171.38671875
-84.47265625,-55.17578125,-35.15625,-78.61328125
85.9375,-55.17578125,-31.73828125,131.34765625
117.1875,-62.5,-35.15625,196.2890625
-17.08984375,-64.453125,-43.9453125,5.859375
-149.4140625,-65.91796875,-53.7109375,-191.40625
-112.79296875,-70.3125,-58.10546875,-122.55859375
47.8515625,-77.63671875,-52.734375,77.63671875
118.65234375,-72.265625,-44.921875,166.9921875
6.8359375,-65.4296875,-51.26953125,18.06640625
-145.5078125,-63.4765625,-52.24609375,-187.98828125
-131.8359375,-57.12890625,-46.38671875,-142.578125
43.45703125,-53.22265625,-39.55078125,68.359375
149.4140625,-57.12890625,-36.1328125,160.15625
46.875,-61.03515625,-47.8515625,43.9453125
-115.72265625,-44.43359375,-57.12890625,-151.3671875
-136.23046875,-39.0625,-53.22265625,-173.828125
7.32421875,-51.26953125,-46.38671875,3.41796875
122.0703125,-60.546875,-47.8515625,146.484375
46.875,-66.40625,-49.8046875,44.43359375
-154.78515625,-57.6171875,-45.8984375,-170.41015625
-217.28515625,-57.12890625,-49.31640625,-207.03125
-41.015625,-62.01171875,-42.96875,-23.92578125
133.7890625,-50.29296875,-29.78515625,145.99609375
78.61328125,-49.31640625,-34.1796875,83.49609375
-126.953125,-54.19921875,-49.31640625,-144.04296875
-203.125,-54.6875,-51.7578125,-212.40234375
-44.921875,-51.7578125,-40.52734375,-34.1796875
133.7890625,-40.52734375,-39.0625,145.01953125
99.12109375,-50.78125,-54.19921875,111.81640625
-110.83984375,-57.12890625,-63.4765625,-130.37109375
-208.49609375,-41.50390625,-58.59375,-245.1171875
-67.87109375,-34.66796875,-48.828125,-74.21875
103.02734375,-37.59765625,-41.015625,126.953125
102.05078125,-47.8515625,-38.57421875,104.00390625
-92.28515625,-56.15234375,-39.0625,-104.98046875
-223.6328125,-52.734375,-41.9921875,-216.30859375
-112.3046875,-45.41015625,-44.921875,-87.40234375
84.9609375,-36.62109375,-45.8984375,106.4453125
118.65234375,-32.71484375,-46.38671875,117.67578125
-79.1015625,-44.921875,-49.31640625,-85.44921875
-239.2578125,-58.59375,-45.8984375,-243.65234375
-136.23046875,-51.26953125,-39.55078125,-115.234375
68.359375,-38.0859375,-34.1796875,96.19140625
135.25390625,-33.69140625,-36.1328125,128.41796875
-29.78515625,-40.0390625,-45.8984375,-31.73828125
-224.609375,-48.828125,-52.734375,-199.70703125
-162.109375,-39.0625,-45.41015625,-126.953125
47.8515625,-28.80859375,-30.2734375,84.9609375
128.41796875,-39.55078125,-28.80859375,152.34375
-11.71875,-52.24609375,-35.15625,-16.11328125
-202.1484375,-40.0390625,-39.55078125,-221.19140625
-195.3125,-38.0859375,-41.9921875,-172.36328125
16.11328125,-51.26953125,-35.64453125,45.8984375
146.484375,-52.734375,-30.2734375,143.5546875
29.78515625,-56.640625,-37.109375,24.90234375
-181.15234375,-61.03515625,-46.875,-192.87109375
-202.1484375,-53.22265625,-51.7578125,-208.49609375
-10.25390625,-50.78125,-42.96875,21.484375
130.37109375,-53.22265625,-34.66796875,175.78125
43.45703125,-52.24609375,-38.0859375,43.9453125
-185.05859375,-56.640625,-42.48046875,-200.68359375
-235.3515625,-59.5703125,-44.921875,-211.9140625
-35.64453125,-48.33984375,-41.9921875,-7.8125
136.23046875,-41.015625,-36.62109375,134.765625
60.546875,-53.7109375,-42.48046875,46.38671875
-165.0390625,-57.6171875,-47.8515625,-167.96875
-256.8359375,-57.12890625,-48.828125,-229.00390625
-84.47265625,-59.5703125,-47.36328125,-44.43359375
127.44140625,-58.59375,-37.59765625,133.7890625
91.796875,-58.10546875,-32.71484375,81.0546875
-156.73828125,-59.08203125,-42.48046875,-136.23046875
-282.71484375,-57.12890625,-47.36328125,-226.5625
-126.953125,-53.7109375,-46.38671875,-58.10546875
84.9609375,-42.48046875,-43.9453125,114.74609375
89.35546875,-37.109375,-48.33984375,82.03125
-127.9296875,-42.48046875,-61.5234375,-115.234375
-269.53125,-48.33984375,-64.94140625,-245.1171875
-139.16015625,-52.734375,-64.453125,-124.51171875
70.80078125,-51.7578125,-62.5,89.84375
113.76953125,-49.31640625,-61.03515625,100.5859375
-83.49609375,-49.8046875,-60.546875,-102.5390625
-253.41796875,-46.38671875,-57.6171875,-239.74609375
-149.90234375,-43.45703125,-55.17578125,-124.51171875
69.82421875,-44.43359375,-47.8515625,89.35546875
138.671875,-43.45703125,-45.8984375,118.1640625
-52.24609375,-38.0859375,-53.7109375,-81.0546875
-237.3046875,-36.62109375,-53.22265625,-230.46875
-163.0859375,-50.29296875,-47.8515625,-129.39453125
70.3125,-48.828125,-42.96875,62.01171875
156.73828125,-38.57421875,-37.109375,131.34765625
-35.15625,-50.29296875,-50.78125,-36.62109375
-242.1875,-52.24609375,-57.12890625,-217.28515625
-189.453125,-35.15625,-49.31640625,-149.4140625
36.62109375,-29.296875,-41.015625,46.875
171.38671875,-30.76171875,-32.71484375,148.92578125
33.69140625,-33.203125,-37.109375,6.8359375
-216.796875,-41.9921875,-48.828125,-222.65625
-214.84375,-44.43359375,-49.8046875,-195.3125
34.1796875,-34.66796875,-40.0390625,19.04296875
178.7109375,-38.0859375,-39.55078125,138.671875
28.3203125,-54.19921875,-48.33984375,29.78515625
-227.5390625,-56.15234375,-52.734375,-179.6875
-256.8359375,-50.29296875,-48.33984375,-193.359375
-25.87890625,-46.875,-36.62109375,22.4609375
152.83203125,-47.8515625,-34.66796875,152.34375
48.828125,-54.6875,-39.55078125,37.109375
-204.1015625,-61.5234375,-50.29296875,-179.6875
-266.6015625,-65.4296875,-62.01171875,-234.86328125
-70.80078125,-56.640625,-60.546875,-55.17578125
130.859375,-43.45703125,-52.734375,117.67578125
92.7734375,-41.015625,-52.24609375,66.89453125
-164.0625,-58.10546875,-53.7109375,-169.921875
-271.484375,-71.2890625,-52.734375,-254.39453125
-75.1953125,-64.453125,-45.41015625,-67.3828125
143.06640625,-40.52734375,-37.109375,118.1640625
120.1171875,-30.76171875,-42.96875,78.61328125
-113.76953125,-42.96875,-52.24609375,-142.08984375
-263.671875,-44.43359375,-51.7578125,-241.2109375
-111.81640625,-37.59765625,-47.8515625,-85.9375
121.09375,-36.62109375,-41.015625,102.5390625
143.06640625,-41.015625,-38.0859375,95.703125
-75.1953125,-49.31640625,-47.36328125,-112.3046875
-264.16015625,-48.828125,-51.26953125,-249.0234375
-150.87890625,-42.96875,-48.828125,-125.9765625
91.796875,-41.9921875,-46.875,86.42578125
148.4375,-44.43359375,-40.0390625,118.65234375
-43.9453125,-49.8046875,-44.43359375,-71.2890625
-240.234375,-51.26953125,-54.19921875,-237.79296875
-157.2265625,-40.0390625,-51.26953125,-151.3671875
87.890625,-28.3203125,-41.9921875,56.640625
175.78125,-31.73828125,-41.015625,112.3046875
-23.4375,-43.45703125,-43.9453125,-57.6171875
-241.69921875,-42.96875,-51.26953125,-233.3984375
-182.12890625,-41.9921875,-58.10546875,-173.33984375
49.31640625,-38.0859375,-50.78125,50.29296875
167.96875,-39.55078125,-42.48046875,156.73828125
3.90625,-53.7109375,-45.41015625,-24.4140625
-238.28125,-50.78125,-52.24609375,-240.72265625
-213.8671875,-50.78125,-61.5234375,-191.89453125
13.671875,-56.15234375,-62.01171875,24.4140625
141.6015625,-51.7578125,-50.78125,122.55859375
26.85546875,-47.8515625,-42.48046875,5.37109375
-207.51953125,-52.24609375,-47.36328125,-192.87109375
-237.79296875,-55.17578125,-52.24609375,-192.87109375
-19.53125,-51.26953125,-51.26953125,1.953125
151.85546875,-48.33984375,-50.29296875,132.8125
62.98828125,-51.7578125,-49.31640625,25.87890625
-187.5,-58.59375,-52.734375,-195.80078125
-247.55859375,-60.546875,-54.19921875,-219.7265625
-40.0390625,-50.29296875,-44.921875,-34.1796875
162.59765625,-38.0859375,-36.62109375,126.953125
91.30859375,-41.015625,-39.0625,68.84765625
-178.22265625,-49.8046875,-50.29296875,-172.8515625
-270.5078125,-49.8046875,-52.734375,-241.69921875
-71.2890625,-49.31640625,-42.48046875,-49.31640625
150.87890625,-41.50390625,-37.109375,121.09375
136.71875,-43.45703125,-43.45703125,77.63671875
-124.51171875,-53.22265625,-51.26953125,-145.5078125
-289.0625,-49.8046875,-45.41015625,-246.09375
-103.02734375,-38.57421875,-37.59765625,-69.3359375
137.20703125,-41.50390625,-37.109375,125.0
126.953125,-50.78125,-41.015625,94.23828125
-116.2109375,-48.33984375,-48.828125,-109.375
-269.04296875,-43.45703125,-52.24609375,-225.5859375
-123.53515625,-40.52734375,-47.36328125,-93.26171875
119.62890625,-38.0859375,-42.96875,102.5390625
162.109375,-37.109375,-39.0625,135.25390625
-56.640625,-40.52734375,-41.50390625,-63.96484375
-249.51171875,-47.36328125,-48.33984375,-227.5390625
-138.18359375,-41.50390625,-47.36328125,-131.8359375
102.05078125,-28.80859375,-50.29296875,66.89453125
183.59375,-41.50390625,-52.24609375,123.53515625
-28.80859375,-58.10546875,-51.7578125,-51.26953125
-270.01953125,-54.6875,-57.12890625,-249.51171875
-192.87109375,-47.36328125,-52.734375,-173.828125
70.80078125,-41.015625,-39.55078125,48.33984375
195.3125,-41.50390625,-35.64453125,129.8828125
3.41796875,-48.33984375,-38.0859375,-20.99609375
-249.51171875,-50.29296875,-45.41015625,-221.19140625
-205.078125,-50.78125,-42.48046875,-158.69140625
54.19921875,-46.38671875,-30.2734375,72.75390625
199.21875,-42.96875,-30.2734375,157.71484375
43.45703125,-44.921875,-38.0859375,-5.859375
-234.86328125,-49.31640625,-45.41015625,-210.44921875
-246.09375,-58.59375,-54.6875,-198.73046875
15.13671875,-53.22265625,-52.734375,11.23046875
194.3359375,-40.52734375,-41.015625,161.1328125
82.51953125,-42.48046875,-40.52734375,49.8046875
-197.75390625,-49.8046875,-52.24609375,-191.89453125
-257.32421875,-50.29296875,-58.59375,-207.51953125
-3.41796875,-51.7578125,-51.7578125,4.8828125
196.77734375,-49.31640625,-38.0859375,157.71484375
96.6796875,-50.29296875,-37.109375,67.3828125
-187.01171875,-58.10546875,-41.50390625,-160.64453125
-277.83203125,-48.33984375,-45.41015625,-212.890625
-48.828125,-34.1796875,-42.48046875,-21.484375
184.08203125,-33.69140625,-32.2265625,166.9921875
127.9296875,-39.55078125,-40.0390625,90.33203125
-153.3203125,-56.640625,-54.19921875,-169.921875
-281.25,-62.5,-52.734375,-251.953125
-84.47265625,-47.36328125,-46.38671875,-62.98828125
172.8515625,-38.57421875,-41.50390625,135.25390625
161.1328125,-43.45703125,-41.50390625,114.2578125
-133.30078125,-59.5703125,-51.26953125,-127.9296875
-314.94140625,-67.3828125,-61.03515625,-253.90625
-127.44140625,-56.640625,-58.59375,-93.26171875
134.27734375,-41.50390625,-46.875,113.76953125
142.578125,-39.55078125,-40.52734375,118.65234375
-103.02734375,-53.7109375,-47.36328125,-95.21484375
-304.19921875,-61.5234375,-55.17578125,-231.4453125
-173.828125,-65.4296875,-51.26953125,-100.09765625
104.00390625,-49.8046875,-38.57421875,98.6328125
176.7578125,-34.66796875,-34.66796875,128.41796875
-67.3828125,-51.26953125,-45.41015625,-69.82421875
-318.84765625,-67.3828125,-59.08203125,-252.9296875
-215.33203125,-60.546875,-57.6171875,-160.64453125
66.40625,-44.43359375,-41.50390625,64.94140625
175.78125,-39.55078125,-33.69140625,137.6953125
-22.94921875,-45.41015625,-38.57421875,-32.2265625
-287.109375,-58.10546875,-48.33984375,-207.03125
-240.72265625,-62.98828125,-51.7578125,-152.83203125
43.45703125,-48.33984375,-38.57421875,46.875
191.40625,-37.59765625,-27.34375,152.34375
12.6953125,-47.8515625,-38.0859375,-4.8828125
-277.83203125,-67.3828125,-46.875,-229.98046875
-288.0859375,-71.77734375,-47.8515625,-207.51953125
-22.4609375,-53.22265625,-44.921875,4.39453125
171.38671875,-33.203125,-39.55078125,123.53515625
38.0859375,-41.9921875,-49.31640625,6.34765625
-256.34765625,-58.59375,-61.5234375,-215.33203125
-288.0859375,-48.828125,-59.08203125,-217.7734375
-13.18359375,-42.96875,-48.828125,-8.30078125
191.40625,-53.7109375,-45.8984375,123.046875
81.0546875,-60.546875,-47.8515625,24.4140625
-209.47265625,-58.59375,-47.36328125,-180.17578125
-295.41015625,-53.7109375,-49.8046875,-211.9140625
-44.921875,-45.8984375,-47.36328125,-27.83203125
180.6640625,-42.48046875,-38.0859375,127.44140625
99.609375,-43.45703125,-42.48046875,51.26953125
-189.453125,-56.15234375,-56.15234375,-177.24609375
-321.2890625,-64.94140625,-57.12890625,-240.234375
-97.16796875,-52.24609375,-46.38671875,-64.453125
162.59765625,-38.0859375,-40.0390625,108.88671875
128.90625,-41.015625,-42.48046875,73.73046875
-161.1328125,-61.03515625,-49.31640625,-126.46484375
-340.8203125,-69.3359375,-47.8515625,-233.3984375
-151.3671875,-59.08203125,-45.41015625,-110.3515625
135.7421875,-45.8984375,-41.50390625,83.984375
144.53125,-43.9453125,-39.55078125,84.47265625
-132.32421875,-54.19921875,-50.78125,-125.9765625
-325.68359375,-61.5234375,-50.78125,-250.0
-169.921875,-56.15234375,-44.43359375,-115.234375
100.5859375,-41.50390625,-41.015625,80.078125
155.76171875,-43.9453125,-42.48046875,104.4921875
-83.0078125,-57.12890625,-48.33984375,-93.26171875
-317.87109375,-66.40625,-53.22265625,-241.2109375
-206.54296875,-64.453125,-52.24609375,-123.046875
79.58984375,-47.8515625,-45.41015625,70.3125
181.640625,-42.48046875,-44.921875,109.86328125
-33.203125,-54.6875,-48.33984375,-50.29296875
-295.8984375,-66.89453125,-45.8984375,-230.95703125
-231.4453125,-69.82421875,-44.43359375,-161.62109375
40.0390625,-53.22265625,-38.57421875,49.8046875
173.828125,-40.52734375,-38.0859375,125.0
2.9296875,-55.17578125,-46.38671875,-21.484375
-264.16015625,-65.91796875,-46.875,-198.73046875
-238.28125,-60.05859375,-45.8984375,-142.578125
31.73828125,-45.41015625,-43.45703125,47.8515625
193.84765625,-45.41015625,-41.9921875,117.67578125
32.71484375,-55.6640625,-47.8515625,-15.13671875
-252.9296875,-61.03515625,-53.22265625,-207.51953125
-266.11328125,-57.6171875,-51.26953125,-190.91796875
-0.48828125,-43.9453125,-46.875,3.90625
202.1484375,-40.52734375,-47.8515625,118.1640625
65.91796875,-57.12890625,-51.7578125,7.8125
-233.88671875,-57.6171875,-50.29296875,-199.70703125
-281.25,-48.828125,-46.38671875,-208.49609375
-29.296875,-47.36328125,-47.36328125,-10.7421875
198.2421875,-36.1328125,-40.52734375,131.8359375
112.79296875,-41.015625,-38.57421875,36.1328125
-201.171875,-57.6171875,-49.31640625,-186.5234375
-322.265625,-60.05859375,-51.26953125,-226.07421875
-77.1484375,-54.19921875,-53.7109375,-43.45703125
185.546875,-43.9453125,-51.26953125,122.55859375
136.23046875,-39.0625,-46.875,62.01171875
-152.34375,-51.7578125,-50.29296875,-142.578125
-305.6640625,-57.6171875,-50.29296875,-236.81640625
-98.14453125,-41.9921875,-48.33984375,-94.7265625
162.59765625,-39.55078125,-49.31640625,86.42578125
138.671875,-52.734375,-45.41015625,61.5234375
-138.18359375,-59.5703125,-46.38671875,-145.01953125
-321.2890625,-56.640625,-45.41015625,-256.8359375
-154.296875,-53.7109375,-41.015625,-110.83984375
118.1640625,-50.78125,-44.43359375,64.453125
154.296875,-48.33984375,-50.29296875,64.94140625
-107.421875,-52.734375,-53.22265625,-116.2109375
-335.9375,-60.05859375,-51.26953125,-248.046875
-192.3828125,-55.17578125,-51.26953125,-123.53515625
85.9375,-46.875,-54.19921875,50.78125
161.62109375,-47.36328125,-53.7109375,76.66015625
-53.7109375,-50.78125,-55.6640625,-96.6796875
-297.8515625,-54.19921875,-56.15234375,-254.8828125
-208.0078125,-53.22265625,-51.7578125,-141.6015625
84.9609375,-40.52734375,-40.52734375,67.87109375
199.21875,-36.62109375,-40.0390625,122.0703125
-1.953125,-52.24609375,-54.19921875,-47.8515625
-286.62109375,-67.87109375,-55.6640625,-236.328125
-236.328125,-59.08203125,-53.7109375,-160.64453125
69.82421875,-43.45703125,-45.8984375,50.78125
212.40234375,-44.43359375,-41.9921875,126.46484375
46.875,-47.8515625,-54.6875,-4.8828125
-224.609375,-47.8515625,-59.08203125,-178.7109375
-225.5859375,-48.828125,-47.8515625,-160.15625
45.41015625,-41.9921875,-38.0859375,40.0390625
242.67578125,-28.80859375,-37.109375,183.59375
121.58203125,-29.78515625,-47.36328125,59.08203125
-181.15234375,-46.875,-52.734375,-158.203125
-250.48828125,-53.7109375,-49.8046875,-154.78515625
13.18359375,-39.55078125,-45.41015625,42.48046875
241.69921875,-23.92578125,-41.9921875,179.19921875
141.11328125,-31.73828125,-45.41015625,91.30859375
-159.1796875,-41.015625,-47.36328125,-127.44140625
-254.39453125,-37.109375,-50.29296875,-173.33984375
-14.6484375,-30.2734375,-41.015625,19.53125
224.12109375,-30.2734375,-31.73828125,173.828125
148.4375,-37.59765625,-36.62109375,99.12109375
-137.6953125,-33.69140625,-42.96875,-116.2109375
-262.20703125,-34.66796875,-47.36328125,-184.08203125
-67.87109375,-38.0859375,-45.41015625,-17.08984375
192.87109375,-23.92578125,-37.109375,165.52734375
183.59375,-19.04296875,-40.0390625,135.7421875
-96.19140625,-28.3203125,-46.875,-96.19140625
-264.16015625,-30.2734375,-41.50390625,-210.9375
-93.75,-27.34375,-36.62109375,-47.8515625
173.33984375,-26.3671875,-34.66796875,142.08984375
195.80078125,-27.34375,-35.64453125,122.55859375
-75.68359375,-35.64453125,-38.0859375,-78.125
-271.97265625,-43.9453125,-43.45703125,-201.171875
-111.328125,-34.66796875,-40.0390625,-73.2421875
159.66796875,-29.296875,-38.57421875,126.953125
198.73046875,-39.55078125,-44.921875,119.140625
-32.2265625,-41.9921875,-48.33984375,-90.33203125
-245.60546875,-44.921875,-51.26953125,-227.5390625
-149.4140625,-43.9453125,-52.734375,-115.72265625
119.140625,-39.55078125,-49.31640625,70.80078125
231.4453125,-37.59765625,-38.0859375,123.046875
18.5546875,-43.45703125,-37.109375,-23.92578125
-252.44140625,-47.36328125,-47.36328125,-208.0078125
-195.80078125,-43.45703125,-47.8515625,-136.71875
83.984375,-38.0859375,-38.0859375,69.3359375
225.09765625,-30.76171875,-36.1328125,143.06640625
38.0859375,-41.50390625,-46.38671875,-20.5078125
-250.9765625,-55.17578125,-53.22265625,-221.6796875
-243.1640625,-55.6640625,-51.26953125,-164.55078125
31.73828125,-48.828125,-45.8984375,31.73828125
197.265625,-40.52734375,-44.921875,121.58203125
48.33984375,-48.33984375,-50.29296875,-4.39453125
-232.421875,-53.7109375,-57.12890625,-195.3125
-250.48828125,-49.31640625,-59.5703125,-184.08203125
7.8125,-39.0625,-48.828125,-2.44140625
187.01171875,-32.2265625,-44.921875,118.65234375
73.2421875,-39.55078125,-50.78125,20.5078125
-219.23828125,-51.26953125,-53.22265625,-193.84765625
-294.43359375,-54.19921875,-49.31640625,-223.6328125
-48.33984375,-53.22265625,-44.43359375,-30.76171875
193.84765625,-43.9453125,-43.9453125,126.953125
128.41796875,-47.8515625,-49.31640625,57.6171875
-180.6640625,-60.05859375,-52.734375,-156.73828125
-312.01171875,-53.7109375,-51.7578125,-229.00390625
-80.078125,-41.50390625,-47.8515625,-43.9453125
183.10546875,-30.76171875,-48.33984375,143.5546875
145.01953125,-34.66796875,-55.17578125,102.5390625
-142.578125,-42.48046875,-58.59375,-138.18359375
-300.29296875,-42.96875,-61.5234375,-251.953125
-90.33203125,-29.296875,-57.12890625,-82.51953125
187.5,-23.4375,-54.19921875,96.19140625
171.38671875,-33.203125,-52.734375,75.1953125
-113.76953125,-37.109375,-60.05859375,-137.6953125
-271.97265625,-39.0625,-65.91796875,-246.58203125
-103.02734375,-38.57421875,-61.5234375,-95.21484375
139.6484375,-34.66796875,-53.22265625,89.84375
178.7109375,-38.57421875,-58.10546875,95.21484375
-71.2890625,-45.8984375,-68.84765625,-87.40234375
-300.29296875,-48.828125,-65.4296875,-223.6328125
-184.5703125,-48.828125,-58.10546875,-110.3515625
97.16796875,-42.96875,-51.26953125,77.1484375
186.03515625,-38.0859375,-51.7578125,97.65625
-25.390625,-42.96875,-61.5234375,-73.73046875
-258.7890625,-47.8515625,-58.10546875,-220.703125
-190.91796875,-51.26953125,-48.33984375,-120.1171875
54.19921875,-42.48046875,-46.38671875,55.6640625
166.015625,-37.109375,-46.38671875,107.91015625
-13.671875,-42.96875,-53.7109375,-23.4375
-262.20703125,-44.921875,-59.08203125,-197.265625
-215.8203125,-46.875,-54.19921875,-150.87890625
42.96875,-43.9453125,-47.36328125,43.45703125
180.6640625,-40.0390625,-42.96875,130.859375
22.94921875,-43.9453125,-45.8984375,-4.8828125
-224.12109375,-45.41015625,-50.29296875,-187.01171875
-235.3515625,-47.36328125,-50.29296875,-151.85546875
2.44140625,-51.26953125,-45.8984375,21.97265625
166.015625,-47.36328125,-47.8515625,109.375
40.52734375,-49.31640625,-52.24609375,-2.44140625
-213.8671875,-49.31640625,-52.24609375,-197.265625
-262.20703125,-50.29296875,-57.12890625,-215.8203125
-33.203125,-53.22265625,-56.15234375,-35.15625
173.33984375,-39.55078125,-50.78125,110.3515625
85.9375,-35.15625,-53.7109375,31.25
-188.96484375,-47.8515625,-56.640625,-173.33984375
-277.34375,-53.22265625,-52.734375,-210.9375
-59.5703125,-43.45703125,-50.78125,-38.0859375
166.50390625,-36.62109375,-55.17578125,94.23828125
105.95703125,-44.43359375,-54.6875,29.78515625
-171.38671875,-45.41015625,-51.7578125,-153.3203125
-284.66796875,-45.8984375,-53.22265625,-225.09765625
-96.6796875,-50.78125,-48.828125,-62.98828125
122.0703125,-47.8515625,-46.38671875,111.328125
108.3984375,-43.9453125,-46.38671875,69.82421875
-129.39453125,-43.9453125,-43.9453125,-137.6953125
-282.71484375,-43.45703125,-47.8515625,-242.67578125
-120.60546875,-42.96875,-48.33984375,-90.8203125
124.51171875,-37.59765625,-41.9921875,94.23828125
139.16015625,-29.296875,-44.43359375,91.796875
-82.51953125,-30.76171875,-51.26953125,-91.30859375
-265.625,-46.38671875,-62.01171875,-216.796875
-145.5078125,-49.8046875,-61.5234375,-102.5390625
121.58203125,-31.73828125,-46.38671875,85.44921875
170.8984375,-27.83203125,-47.36328125,121.09375
-60.546875,-39.0625,-57.6171875,-61.5234375
-267.578125,-41.9921875,-57.12890625,-218.75
-173.33984375,-39.55078125,-46.875,-131.34765625
84.47265625,-40.0390625,-44.43359375,52.734375
173.33984375,-44.43359375,-45.41015625,103.515625
-32.2265625,-50.78125,-47.36328125,-59.5703125
-249.0234375,-46.875,-50.78125,-219.23828125
-185.546875,-42.48046875,-49.8046875,-149.4140625
54.19921875,-43.45703125,-47.8515625,40.52734375
182.12890625,-38.0859375,-45.8984375,125.48828125
20.99609375,-41.015625,-45.8984375,6.8359375
-235.3515625,-44.43359375,-48.828125,-179.6875
-212.40234375,-45.8984375,-48.828125,-162.109375
39.55078125,-45.41015625,-38.57421875,38.0859375
169.921875,-39.55078125,-42.48046875,128.41796875
25.390625,-43.45703125,-48.828125,7.8125
-218.26171875,-45.8984375,-44.43359375,-184.08203125
-246.09375,-43.45703125,-50.29296875,-182.6171875
-13.671875,-40.52734375,-48.828125,8.7890625
161.62109375,-44.43359375,-46.38671875,115.234375
58.59375,-52.24609375,-55.17578125,20.01953125
-180.17578125,-45.8984375,-47.36328125,-154.296875
-238.28125,-41.9921875,-41.50390625,-188.96484375
-25.390625,-44.43359375,-46.38671875,-39.0625
178.22265625,-35.64453125,-44.43359375,103.02734375
113.28125,-40.0390625,-47.8515625,44.921875
-146.484375,-47.8515625,-54.6875,-159.1796875
-246.58203125,-41.9921875,-56.640625,-216.30859375
-50.29296875,-37.109375,-54.6875,-44.921875
166.50390625,-32.71484375,-48.828125,117.67578125
137.20703125,-33.69140625,-49.31640625,73.2421875
-112.79296875,-45.8984375,-47.8515625,-117.1875
-257.32421875,-50.29296875,-42.96875,-183.10546875
-91.30859375,-40.0390625,-42.48046875,-61.03515625
135.7421875,-38.57421875,-43.9453125,91.796875
126.953125,-50.78125,-51.7578125,90.8203125
-104.4921875,-52.734375,-52.734375,-100.09765625
-260.25390625,-49.8046875,-50.29296875,-215.33203125
-129.39453125,-47.8515625,-47.36328125,-88.8671875
110.3515625,-40.0390625,-41.50390625,90.33203125
145.01953125,-44.921875,-42.96875,99.12109375
-71.2890625,-47.36328125,-43.45703125,-57.6171875
-243.1640625,-40.52734375,-44.43359375,-187.5
-139.16015625,-38.0859375,-47.36328125,-106.4453125
83.0078125,-36.1328125,-44.43359375,60.546875
147.94921875,-41.50390625,-48.828125,98.14453125
-31.73828125,-44.43359375,-56.15234375,-52.734375
-238.28125,-42.96875,-53.22265625,-204.58984375
-170.8984375,-45.41015625,-51.26953125,-128.90625
72.265625,-42.48046875,-49.31640625,36.1328125
170.41015625,-42.48046875,-43.9453125,103.02734375
10.25390625,-45.41015625,-42.96875,-30.76171875
-237.3046875,-52.734375,-51.26953125,-211.9140625
-208.0078125,-54.6875,-54.19921875,-169.921875
40.0390625,-41.9921875,-44.43359375,16.11328125
165.0390625,-38.57421875,-42.96875,112.79296875
17.578125,-53.22265625,-52.24609375,-6.8359375
-224.609375,-67.3828125,-59.5703125,-198.2421875
-226.07421875,-63.4765625,-57.12890625,-186.5234375
18.5546875,-44.921875,-49.31640625,8.30078125
167.48046875,-43.45703125,-49.31640625,121.58203125
35.15625,-56.640625,-56.640625,15.625
-200.1953125,-53.7109375,-54.6875,-173.828125
-247.0703125,-45.8984375,-46.38671875,-191.89453125
-30.76171875,-42.96875,-50.29296875,-33.69140625
143.5546875,-43.9453125,-54.19921875,95.703125
54.6875,-43.45703125,-49.31640625,21.97265625
-185.546875,-50.78125,-48.828125,-186.5234375
-262.6953125,-60.546875,-51.7578125,-229.00390625
-61.03515625,-52.734375,-49.8046875,-48.828125
133.7890625,-44.921875,-48.33984375,101.5625
90.33203125,-46.875,-47.8515625,41.015625
-158.203125,-51.26953125,-52.24609375,-156.25
-280.2734375,-45.41015625,-54.19921875,-220.21484375
-90.8203125,-42.48046875,-53.22265625,-72.265625
125.48828125,-47.8515625,-54.6875,87.890625
107.91015625,-53.22265625,-55.17578125,70.80078125
-112.79296875,-52.734375,-49.8046875,-105.95703125
-268.5546875,-47.8515625,-45.41015625,-222.65625
-119.62890625,-46.38671875,-43.45703125,-94.7265625
124.51171875,-49.8046875,-44.43359375,92.7734375
121.09375,-51.26953125,-53.22265625,82.51953125
-93.75,-50.78125,-53.7109375,-109.86328125
-243.65234375,-45.8984375,-48.33984375,-234.86328125
-137.6953125,-38.57421875,-49.31640625,-114.2578125
96.19140625,-38.0859375,-46.875,69.3359375
159.66796875,-41.50390625,-44.43359375,106.4453125
-60.546875,-48.828125,-46.875,-65.91796875
-258.7890625,-43.9453125,-48.33984375,-218.75
-177.734375,-40.0390625,-47.8515625,-117.67578125
53.22265625,-34.1796875,-41.9921875,65.91796875
153.3203125,-39.55078125,-42.96875,93.75
-38.57421875,-55.6640625,-51.26953125,-62.98828125
-255.37109375,-51.26953125,-49.8046875,-215.8203125
-214.35546875,-48.33984375,-48.33984375,-161.62109375
1.46484375,-46.875,-41.50390625,16.11328125
129.39453125,-49.8046875,-40.0390625,97.65625
-1.953125,-56.15234375,-48.33984375,-29.78515625
-231.4453125,-52.24609375,-48.33984375,-200.1953125
-230.95703125,-48.828125,-45.8984375,-148.4375
-10.7421875,-49.8046875,-44.43359375,36.62109375
137.6953125,-53.22265625,-46.38671875,115.234375
27.34375,-48.33984375,-46.38671875,0.9765625
-215.8203125,-40.0390625,-45.41015625,-193.84765625
-250.0,-44.43359375,-47.8515625,-206.54296875
-38.57421875,-43.9453125,-43.9453125,-12.20703125
126.953125,-43.45703125,-41.015625,115.72265625
40.52734375,-50.29296875,-44.921875,23.4375
-194.82421875,-56.15234375,-46.875,-181.640625
-258.30078125,-52.734375,-43.9453125,-221.19140625
-56.640625,-46.38671875,-38.57421875,-32.2265625
142.578125,-46.38671875,-37.59765625,112.79296875
70.80078125,-52.24609375,-41.015625,56.15234375
-171.38671875,-59.08203125,-44.921875,-142.08984375
-260.7421875,-50.29296875,-41.9921875,-215.33203125
-80.56640625,-47.8515625,-36.62109375,-45.41015625
118.65234375,-51.26953125,-38.57421875,107.421875
91.30859375,-57.12890625,-50.78125,45.41015625
-139.16015625,-63.4765625,-55.6640625,-145.5078125
-263.671875,-56.15234375,-47.8515625,-223.6328125
-101.5625,-52.24609375,-46.38671875,-77.1484375
102.5390625,-49.8046875,-49.31640625,95.21484375
108.88671875,-49.31640625,-47.36328125,73.2421875
-102.05078125,-54.19921875,-49.31640625,-104.00390625
-262.20703125,-54.19921875,-57.6171875,-209.9609375
-123.046875,-47.8515625,-58.59375,-91.796875
93.75,-41.9921875,-54.6875,68.359375
125.0,-47.8515625,-56.640625,81.0546875
-57.6171875,-54.6875,-57.6171875,-83.984375
-240.72265625,-46.38671875,-51.7578125,-227.05078125
-155.76171875,-42.48046875,-46.38671875,-140.625
78.61328125,-38.0859375,-45.41015625,50.78125
152.34375,-39.0625,-49.31640625,98.14453125
-34.1796875,-48.33984375,-49.8046875,-56.640625
-238.28125,-48.33984375,-48.828125,-212.40234375
-172.8515625,-43.45703125,-50.78125,-134.27734375
45.41015625,-43.45703125,-42.48046875,58.10546875
128.90625,-51.26953125,-41.015625,113.28125
-12.6953125,-48.33984375,-43.45703125,-28.80859375
-225.5859375,-44.921875,-50.29296875,-188.96484375
-211.42578125,-46.38671875,-51.26953125,-151.3671875
21.484375,-40.52734375,-41.015625,16.11328125
147.4609375,-42.48046875,-46.38671875,109.86328125
14.6484375,-45.8984375,-49.31640625,-5.859375
-208.0078125,-44.43359375,-42.96875,-190.91796875
-222.65625,-46.875,-41.50390625,-181.15234375
-7.32421875,-49.8046875,-41.50390625,12.20703125
146.484375,-48.33984375,-43.45703125,126.953125
34.1796875,-49.8046875,-44.43359375,8.7890625
-197.75390625,-50.29296875,-50.29296875,-186.5234375
-239.2578125,-40.0390625,-51.7578125,-190.4296875
-32.71484375,-32.71484375,-42.96875,-14.6484375
142.578125,-43.9453125,-41.9921875,101.5625
66.40625,-62.01171875,-51.7578125,12.6953125
-174.31640625,-58.10546875,-55.17578125,-171.38671875
-260.7421875,-44.921875,-50.78125,-211.42578125
-69.82421875,-41.9921875,-44.43359375,-45.8984375
127.9296875,-42.48046875,-41.50390625,109.375
88.8671875,-42.96875,-42.96875,60.05859375
-144.04296875,-43.45703125,-41.9921875,-137.20703125
-245.60546875,-40.0390625,-43.45703125,-219.23828125
-73.2421875,-38.57421875,-43.9453125,-61.5234375
123.53515625,-37.109375,-44.921875,102.5390625
89.84375,-43.45703125,-47.36328125,65.91796875
-149.4140625,-54.19921875,-46.38671875,-141.6015625
-310.05859375,-59.08203125,-54.19921875,-266.6015625
-178.22265625,-54.6875,-61.5234375,-141.11328125
47.8515625,-49.8046875,-57.6171875,30.2734375
71.2890625,-55.6640625,-57.12890625,35.15625
-131.34765625,-58.59375,-59.5703125,-123.046875
-301.7578125,-55.6640625,-59.5703125,-260.7421875
-177.24609375,-48.33984375,-58.10546875,-159.1796875
55.6640625,-43.45703125,-52.24609375,38.57421875
103.515625,-41.9921875,-48.33984375,81.0546875
-82.03125,-44.921875,-46.38671875,-77.1484375
-265.625,-43.9453125,-44.43359375,-235.83984375
-187.01171875,-46.38671875,-55.6640625,-142.578125
43.9453125,-49.31640625,-58.59375,45.41015625
149.4140625,-44.43359375,-53.7109375,97.65625
-13.18359375,-48.33984375,-56.15234375,-41.50390625
-242.1875,-53.7109375,-56.640625,-217.7734375
-211.42578125,-49.8046875,-52.734375,-172.8515625
27.34375,-44.921875,-49.8046875,15.13671875
141.11328125,-49.31640625,-52.24609375,93.75
-5.37109375,-51.7578125,-55.6640625,-36.1328125
-222.16796875,-49.8046875,-59.08203125,-215.8203125
-222.16796875,-46.38671875,-60.05859375,-170.8984375
-10.7421875,-41.9921875,-55.6640625,24.4140625
133.30078125,-50.78125,-57.12890625,101.5625
24.90234375,-58.10546875,-57.6171875,-6.8359375
-221.6796875,-59.5703125,-55.17578125,-192.87109375
-264.6484375,-52.24609375,-54.6875,-199.70703125
-39.55078125,-41.9921875,-50.78125,-14.6484375
144.04296875,-42.48046875,-44.43359375,114.2578125
63.96484375,-54.19921875,-46.38671875,24.90234375
-193.84765625,-57.12890625,-51.26953125,-174.8046875
-286.62109375,-53.22265625,-51.26953125,-217.28515625
-73.73046875,-52.734375,-53.7109375,-51.26953125
135.7421875,-42.96875,-49.8046875,102.5390625
72.75390625,-48.828125,-47.36328125,45.8984375
-186.03515625,-60.05859375,-51.7578125,-171.38671875
-285.64453125,-50.78125,-48.828125,-234.86328125
-92.7734375,-46.875,-45.8984375,-67.3828125
126.46484375,-43.45703125,-45.8984375,97.16796875
105.46875,-44.43359375,-42.48046875,78.61328125
-137.20703125,-52.24609375,-42.96875,-118.1640625
-274.90234375,-53.7109375,-44.43359375,-220.21484375
-110.3515625,-49.8046875,-43.45703125,-82.03125
115.72265625,-42.48046875,-42.96875,93.26171875
122.55859375,-47.36328125,-44.43359375,98.6328125
-95.703125,-48.828125,-51.26953125,-102.5390625
-275.390625,-49.31640625,-51.7578125,-229.00390625
-162.109375,-54.19921875,-49.8046875,-108.88671875
90.8203125,-44.43359375,-46.875,73.2421875
145.01953125,-41.9921875,-46.875,98.14453125
-70.80078125,-52.24609375,-46.38671875,-72.75390625
-265.13671875,-57.12890625,-49.8046875,-217.28515625
-172.36328125,-58.10546875,-51.26953125,-127.9296875
52.734375,-50.29296875,-45.8984375,58.59375
139.6484375,-46.38671875,-48.33984375,113.76953125
-22.4609375,-54.19921875,-52.734375,-41.015625
-245.60546875,-53.22265625,-52.734375,-208.0078125
-194.3359375,-41.9921875,-53.22265625,-147.4609375
43.45703125,-42.96875,-51.7578125,36.1328125
162.109375,-41.9921875,-50.78125,115.72265625
15.13671875,-35.64453125,-54.19921875,-18.06640625
-225.5859375,-37.109375,-51.26953125,-187.01171875
-210.9375,-35.15625,-47.8515625,-159.1796875
28.3203125,-31.25,-49.31640625,15.13671875
179.6875,-32.2265625,-45.41015625,118.65234375
55.6640625,-34.66796875,-47.36328125,3.41796875
-190.4296875,-41.9921875,-45.41015625,-186.03515625
-223.14453125,-50.29296875,-41.50390625,-182.12890625
-2.44140625,-45.8984375,-42.96875,0.0
175.78125,-31.73828125,-40.0390625,120.60546875
74.70703125,-31.73828125,-42.48046875,29.296875
-191.89453125,-45.8984375,-49.8046875,-177.24609375
-255.859375,-51.7578125,-46.38671875,-210.44921875
-41.50390625,-50.29296875,-44.43359375,-14.6484375
145.01953125,-46.38671875,-45.8984375,136.71875
83.984375,-47.8515625,-44.921875,53.22265625
-157.71484375,-49.31640625,-46.875,-157.2265625
-248.53515625,-50.78125,-53.22265625,-220.21484375
-51.26953125,-47.8515625,-56.15234375,-52.24609375
148.92578125,-42.96875,-50.78125,113.76953125
121.58203125,-43.9453125,-45.41015625,70.3125
-114.74609375,-40.0390625,-45.41015625,-131.34765625
-263.671875,-47.36328125,-45.41015625,-220.703125
-91.796875,-53.22265625,-38.0859375,-59.5703125
149.4140625,-41.9921875,-37.59765625,131.34765625
135.7421875,-50.29296875,-46.38671875,108.88671875
-104.4921875,-58.59375,-50.29296875,-95.703125
-264.6484375,-56.15234375,-50.78125,-231.93359375
-125.48828125,-48.828125,-48.33984375,-101.5625
108.3984375,-42.48046875,-41.50390625,91.30859375
144.53125,-43.9453125,-40.52734375,102.05078125
-68.359375,-48.33984375,-47.8515625,-80.078125
-252.9296875,-47.8515625,-56.15234375,-221.6796875
-135.7421875,-38.57421875,-56.640625,-107.91015625
98.6328125,-40.52734375,-53.22265625,75.68359375
165.52734375,-51.26953125,-54.6875,112.3046875
-35.15625,-58.59375,-57.12890625,-48.828125
-256.34765625,-56.15234375,-56.15234375,-209.9609375
-173.828125,-51.26953125,-58.59375,-128.41796875
63.4765625,-41.9921875,-58.10546875,45.41015625
158.203125,-46.38671875,-52.24609375,103.02734375
-3.41796875,-53.22265625,-47.36328125,-30.2734375
-231.4453125,-54.19921875,-47.8515625,-217.28515625
-207.03125,-57.6171875,-51.7578125,-172.36328125
31.25,-51.26953125,-51.26953125,30.2734375
172.36328125,-44.921875,-49.8046875,126.953125
25.87890625,-43.9453125,-51.7578125,13.18359375
-239.2578125,-53.22265625,-55.17578125,-192.87109375
-233.88671875,-56.640625,-48.828125,-183.59375
1.953125,-43.9453125,-39.0625,23.4375
149.90234375,-40.52734375,-41.015625,118.1640625
38.57421875,-39.55078125,-46.38671875,-1.46484375
-211.9140625,-36.62109375,-50.29296875,-190.91796875
-255.37109375,-48.33984375,-57.6171875,-223.6328125
-44.43359375,-48.828125,-57.12890625,-48.33984375
132.8125,-46.38671875,-51.26953125,89.35546875
53.22265625,-54.6875,-53.22265625,14.6484375
-187.98828125,-47.8515625,-51.26953125,-185.05859375
-269.04296875,-44.43359375,-51.26953125,-240.72265625
-80.078125,-46.38671875,-54.6875,-61.5234375
121.58203125,-42.96875,-51.26953125,86.9140625
54.19921875,-44.43359375,-50.29296875,18.06640625
-193.84765625,-51.26953125,-48.828125,-187.01171875
-303.22265625,-58.59375,-51.7578125,-255.37109375
-148.92578125,-53.7109375,-57.12890625,-88.8671875
48.828125,-49.31640625,-58.10546875,47.8515625
28.3203125,-61.03515625,-65.91796875,-1.46484375
-186.03515625,-62.5,-66.40625,-186.5234375
-336.9140625,-59.08203125,-62.01171875,-292.48046875
-203.61328125,-55.17578125,-59.5703125,-157.2265625
43.45703125,-47.36328125,-59.08203125,37.109375
49.31640625,-62.98828125,-67.3828125,40.0390625
-179.6875,-77.63671875,-70.3125,-154.78515625
-341.796875,-71.77734375,-63.4765625,-295.41015625
-209.9609375,-63.4765625,-60.546875,-170.8984375
48.33984375,-52.24609375,-54.6875,53.7109375
106.93359375,-49.31640625,-52.24609375,93.75
-84.9609375,-49.31640625,-54.6875,-87.40234375
-263.18359375,-44.921875,-51.7578125,-222.16796875
-173.33984375,-43.9453125,-49.8046875,-124.0234375
53.7109375,-40.0390625,-46.875,59.08203125
152.83203125,-34.1796875,-45.8984375,126.953125
-15.13671875,-44.43359375,-49.31640625,-28.80859375
-246.58203125,-52.734375,-49.8046875,-211.42578125
-188.96484375,-45.8984375,-44.43359375,-129.8828125
55.6640625,-46.875,-38.0859375,65.4296875
174.8046875,-51.7578125,-38.0859375,138.671875
31.25,-51.26953125,-43.9453125,3.41796875
-194.82421875,-43.9453125,-44.43359375,-184.5703125
-194.3359375,-41.9921875,-45.8984375,-155.2734375
38.0859375,-41.015625,-45.41015625,36.1328125
187.5,-40.0390625,-45.41015625,151.3671875
68.359375,-41.015625,-42.48046875,37.59765625
-176.7578125,-42.48046875,-40.52734375,-146.97265625
-203.61328125,-39.0625,-43.45703125,-145.01953125
16.11328125,-37.59765625,-40.0390625,8.7890625
178.22265625,-40.52734375,-40.52734375,130.37109375
77.63671875,-42.96875,-47.8515625,41.015625
-198.2421875,-45.8984375,-51.7578125,-171.875
-265.625,-40.0390625,-47.8515625,-204.58984375
