TP9,AF7,AF8,TP10
91.796875,-192.87109375,-203.125,2.44140625
413.0859375,999.51171875,999.51171875,51.7578125
119.62890625,991.69921875,632.8125,-22.94921875
-379.39453125,-227.5390625,-727.05078125,-113.76953125
-462.890625,-1000.0,-1000.0,-123.53515625
52.734375,-158.69140625,-199.70703125,-19.04296875
413.57421875,974.12109375,999.51171875,55.6640625
172.36328125,999.51171875,838.8671875,-2.9296875
-322.75390625,216.30859375,-451.171875,-95.703125
-485.3515625,-1000.0,-1000.0,-116.2109375
-21.484375,-512.20703125,-245.1171875,-21.97265625
402.83203125,891.11328125,999.51171875,27.83203125
243.65234375,999.51171875,977.05078125,84.47265625
-286.62109375,-43.45703125,-218.75,-386.71875
-551.26953125,-1000.0,-1000.0,-1000.0
-146.484375,-906.73828125,-375.48828125,-997.55859375
337.40234375,343.26171875,901.85546875,-985.83984375
270.99609375,999.51171875,999.51171875,-994.140625
-229.4921875,167.48046875,73.2421875,-1000.0
-521.484375,-1000.0,-1000.0,-931.15234375
-170.41015625,-894.53125,-576.66015625,-534.66796875
359.375,397.4609375,771.484375,-110.83984375
358.3984375,999.51171875,999.51171875,99.609375
-120.60546875,436.5234375,154.78515625,146.97265625
-463.8671875,-950.68359375,-1000.0,171.38671875
-213.37890625,-1000.0,-784.1796875,292.48046875
324.21875,300.78125,559.08203125,434.08203125
399.4140625,999.51171875,999.51171875,474.12109375
-85.9375,343.26171875,154.78515625,390.13671875
-476.07421875,-951.66015625,-1000.0,328.61328125
-289.55078125,-1000.0,-950.68359375,375.0
229.4921875,36.1328125,299.8046875,461.9140625
384.765625,999.51171875,999.51171875,479.00390625
-37.109375,465.8203125,210.9375,398.4375
-468.26171875,-873.046875,-1000.0,317.3828125
-334.47265625,-1000.0,-1000.0,340.8203125
210.44921875,-124.0234375,67.87109375,420.41015625
416.9921875,999.51171875,999.51171875,426.26953125
36.62109375,912.109375,401.85546875,338.8671875
-430.6640625,-357.421875,-907.71484375,244.62890625
-403.3203125,-1000.0,-1000.0,246.58203125
134.765625,-169.921875,-100.5859375,324.21875
426.7578125,999.51171875,999.51171875,362.79296875
90.8203125,780.76171875,545.41015625,284.1796875
-408.69140625,-562.5,-797.36328125,180.17578125
-449.21875,-1000.0,-1000.0,173.828125
69.82421875,-190.4296875,-195.3125,246.09375
413.0859375,999.51171875,999.51171875,294.921875
159.1796875,956.0546875,769.53125,244.140625
-348.6328125,-281.25,-562.98828125,128.41796875
-473.14453125,-1000.0,-1000.0,97.16796875
33.69140625,-291.9921875,-186.03515625,187.5
421.38671875,920.8984375,999.51171875,248.53515625
205.078125,999.51171875,986.81640625,194.3359375
-306.640625,206.0546875,-191.40625,85.44921875
-517.578125,-1000.0,-1000.0,52.24609375
-84.47265625,-540.0390625,-261.71875,127.44140625
371.09375,859.375,976.07421875,203.125
249.51171875,999.51171875,999.51171875,174.31640625
-254.8828125,86.42578125,-53.22265625,63.96484375
-515.625,-1000.0,-1000.0,16.6015625
-135.25390625,-572.75390625,-376.46484375,71.77734375
349.609375,793.9453125,904.78515625,161.62109375
294.43359375,999.51171875,999.51171875,147.4609375
-194.3359375,181.640625,137.20703125,31.73828125
-508.7890625,-1000.0,-1000.0,-13.671875
-199.21875,-859.375,-590.8203125,42.96875
316.40625,479.00390625,766.6015625,122.0703125
340.33203125,999.51171875,999.51171875,115.72265625
-140.625,145.5078125,170.8984375,20.5078125
-511.23046875,-1000.0,-1000.0,-44.43359375
-272.4609375,-1000.0,-822.265625,2.44140625
265.13671875,114.74609375,505.859375,101.5625
369.62890625,999.51171875,999.51171875,110.3515625
-78.61328125,298.828125,184.08203125,11.23046875
-491.2109375,-1000.0,-1000.0,-64.453125
-316.89453125,-1000.0,-973.14453125,-25.87890625
236.328125,183.10546875,263.671875,71.2890625
391.6015625,999.51171875,999.51171875,105.95703125
-22.4609375,504.39453125,288.0859375,21.484375
-476.07421875,-810.546875,-968.75,-68.359375
-405.2734375,-1000.0,-1000.0,-45.41015625
151.3671875,-221.19140625,-27.34375,53.22265625
418.9453125,999.51171875,999.51171875,97.65625
69.82421875,775.390625,464.84375,11.71875
-420.41015625,-583.0078125,-864.74609375,-87.890625
-427.24609375,-1000.0,-1000.0,-75.1953125
109.86328125,-163.0859375,-142.08984375,24.4140625
410.64453125,979.98046875,999.51171875,85.44921875
120.60546875,999.51171875,727.5390625,20.5078125
-361.328125,42.96875,-607.91015625,-81.54296875
-462.890625,-1000.0,-1000.0,-90.8203125
28.80859375,-257.32421875,-189.94140625,-3.41796875
407.2265625,999.51171875,999.51171875,70.80078125
187.98828125,999.51171875,880.37109375,19.53125
-322.75390625,-125.48828125,-396.97265625,-80.078125
-501.46484375,-1000.0,-1000.0,-93.26171875
-28.3203125,-326.66015625,-200.68359375,-8.7890625
398.4375,918.9453125,998.046875,55.17578125
222.16796875,999.51171875,999.51171875,13.18359375
-282.71484375,184.08203125,-95.21484375,-70.80078125
-518.5546875,-1000.0,-1000.0,-107.421875
-102.05078125,-613.76953125,-317.3828125,-31.25
375.48828125,772.4609375,940.91796875,66.40625
275.390625,999.51171875,999.51171875,41.9921875
-214.35546875,181.15234375,64.94140625,-57.6171875
-497.0703125,-1000.0,-1000.0,-88.37890625
-160.15625,-765.625,-484.375,-28.3203125
343.26171875,600.5859375,845.21484375,54.6875
324.21875,999.51171875,999.51171875,48.828125
-172.36328125,198.73046875,172.36328125,-56.15234375
-517.578125,-1000.0,-1000.0,-117.1875
-231.93359375,-909.1796875,-690.4296875,-59.08203125
308.59375,396.484375,669.921875,48.828125
379.8828125,999.51171875,999.51171875,53.7109375
-90.8203125,291.015625,175.78125,-43.9453125
-500.0,-950.1953125,-1000.0,-107.91015625
-311.5234375,-1000.0,-942.87109375,-73.73046875
227.5390625,-107.91015625,318.84765625,8.30078125
383.30078125,999.51171875,999.51171875,38.57421875
-41.50390625,416.9921875,219.23828125,-42.48046875
-482.91015625,-914.0625,-1000.0,-125.0
-358.3984375,-1000.0,-1000.0,-98.14453125
190.91796875,-189.94140625,88.8671875,1.46484375
388.18359375,999.51171875,999.51171875,44.921875
22.94921875,830.56640625,395.5078125,-23.4375
-434.08203125,-499.51171875,-915.0390625,-105.95703125
-407.2265625,-1000.0,-1000.0,-87.890625
136.71875,-179.6875,-76.66015625,4.39453125
436.03515625,999.51171875,999.51171875,53.22265625
108.88671875,827.1484375,558.59375,-5.859375
-401.85546875,-500.0,-782.2265625,-115.72265625
-454.1015625,-1000.0,-1000.0,-116.69921875
50.78125,-192.3828125,-183.59375,-14.6484375
403.80859375,999.51171875,999.51171875,56.640625
152.34375,999.51171875,785.15625,5.859375
-358.3984375,-149.90234375,-537.59765625,-103.515625
-475.5859375,-1000.0,-1000.0,-109.86328125
15.13671875,-229.4921875,-186.03515625,-8.7890625
407.71484375,974.12109375,999.51171875,55.17578125
214.35546875,999.51171875,954.58984375,10.25390625
-296.38671875,47.8515625,-257.8125,-88.37890625
-488.76953125,-1000.0,-1000.0,-114.2578125
-35.15625,-371.58203125,-230.95703125,-20.01953125
391.6015625,913.57421875,978.02734375,63.96484375
247.55859375,999.51171875,999.51171875,27.34375
-256.34765625,204.1015625,-4.8828125,-80.56640625
-520.99609375,-1000.0,-1000.0,-117.67578125
-131.8359375,-669.43359375,-384.765625,-41.9921875
359.375,723.14453125,904.78515625,38.0859375
293.45703125,999.51171875,999.51171875,16.6015625
-216.796875,168.45703125,147.94921875,-81.0546875
-519.53125,-1000.0,-1000.0,-127.44140625
-201.66015625,-935.05859375,-595.703125,-68.84765625
311.5234375,360.83984375,762.6953125,38.0859375
354.00390625,999.51171875,999.51171875,53.22265625
-134.765625,197.265625,181.15234375,-54.19921875
-521.484375,-1000.0,-1000.0,-124.0234375
-262.6953125,-790.0390625,-723.14453125,-77.1484375
274.4140625,552.734375,627.44140625,21.484375
352.5390625,999.51171875,999.51171875,37.59765625
-73.2421875,580.56640625,224.609375,-53.7109375
-500.9765625,-772.4609375,-1000.0,-118.1640625
-349.12109375,-1000.0,-936.5234375,-90.33203125
214.35546875,20.01953125,325.68359375,10.7421875
389.16015625,999.51171875,999.51171875,48.828125
-24.4140625,475.5859375,282.71484375,-53.7109375
-486.81640625,-870.60546875,-969.23828125,-144.53125
-395.01953125,-1000.0,-1000.0,-103.515625
145.01953125,-228.02734375,-39.0625,3.41796875
407.2265625,999.51171875,999.51171875,55.6640625
58.59375,740.234375,457.51953125,-14.6484375
-427.24609375,-650.87890625,-878.90625,-103.515625
-415.52734375,-1000.0,-1000.0,-84.9609375
124.0234375,-92.7734375,-107.91015625,14.16015625
432.6171875,999.51171875,999.51171875,63.4765625
121.09375,722.65625,622.55859375,-10.25390625
-400.390625,-620.1171875,-721.6796875,-112.3046875
-475.5859375,-1000.0,-1000.0,-111.81640625
47.8515625,-172.8515625,-188.96484375,-15.625
418.45703125,978.02734375,999.51171875,44.921875
183.10546875,999.51171875,901.85546875,4.39453125
-332.03125,34.1796875,-360.3515625,-101.5625
-508.30078125,-1000.0,-1000.0,-123.046875
-27.34375,-338.37890625,-202.1484375,-24.90234375
416.9921875,931.15234375,999.51171875,57.6171875
246.58203125,999.51171875,999.51171875,30.2734375
-266.11328125,177.24609375,-106.93359375,-78.61328125
-494.140625,-1000.0,-1000.0,-108.3984375
-91.796875,-622.0703125,-316.89453125,-24.4140625
372.55859375,765.625,944.3359375,50.78125
276.85546875,999.51171875,999.51171875,36.62109375
-243.65234375,157.2265625,38.57421875,-63.96484375
-539.0625,-1000.0,-1000.0,-117.67578125
-182.6171875,-777.34375,-491.2109375,-63.96484375
334.47265625,556.15234375,835.44921875,33.69140625
321.77734375,999.51171875,999.51171875,40.0390625
-158.69140625,468.26171875,174.31640625,-69.3359375
-505.859375,-890.625,-1000.0,-125.48828125
-247.0703125,-1000.0,-737.79296875,-65.91796875
285.15625,134.765625,616.2109375,29.296875
353.02734375,999.51171875,999.51171875,47.36328125
-102.5390625,312.01171875,167.96875,-48.828125
-491.2109375,-964.84375,-1000.0,-129.39453125
-299.31640625,-1000.0,-941.40625,-78.125
246.09375,-38.57421875,320.3125,32.71484375
394.04296875,999.51171875,999.51171875,55.6640625
-47.36328125,434.08203125,220.21484375,-34.1796875
-477.5390625,-944.3359375,-1000.0,-125.0
-336.9140625,-1000.0,-1000.0,-93.75
203.125,108.88671875,162.109375,4.39453125
400.87890625,999.51171875,999.51171875,37.109375
13.18359375,443.84765625,330.56640625,-43.45703125
-438.96484375,-869.140625,-945.3125,-115.234375
-386.23046875,-1000.0,-1000.0,-93.26171875
156.25,-199.70703125,-76.66015625,-1.953125
437.98828125,999.51171875,999.51171875,65.4296875
99.12109375,962.40234375,593.26171875,2.44140625
-393.5546875,-287.109375,-752.9296875,-104.4921875
-430.17578125,-1000.0,-1000.0,-105.95703125
92.7734375,-191.89453125,-168.45703125,-6.34765625
427.734375,999.51171875,999.51171875,44.43359375
178.7109375,955.078125,775.390625,-12.20703125
-341.30859375,-287.59765625,-549.31640625,-103.02734375
-494.62890625,-1000.0,-1000.0,-107.421875
20.5078125,-269.04296875,-191.89453125,-9.765625
423.33984375,961.9140625,999.51171875,60.05859375
201.66015625,999.51171875,943.359375,-0.9765625
-316.89453125,-39.0625,-278.80859375,-115.72265625
-518.5546875,-1000.0,-1000.0,-140.13671875
-78.125,-567.87109375,-256.8359375,-54.6875
377.44140625,767.08984375,959.9609375,17.578125
252.44140625,999.51171875,999.51171875,-10.7421875
-235.3515625,225.09765625,37.59765625,-106.4453125
-494.62890625,-1000.0,-1000.0,-146.484375
-133.30078125,-767.08984375,-399.90234375,-73.73046875
354.98046875,614.74609375,905.2734375,9.765625
300.78125,999.51171875,999.51171875,-1.953125
-212.890625,170.8984375,118.1640625,-99.12109375
-523.92578125,-1000.0,-1000.0,-144.53125
-201.171875,-888.18359375,-595.21484375,-72.75390625
320.3125,432.12890625,758.7890625,23.4375
343.26171875,999.51171875,999.51171875,30.76171875
-132.32421875,217.7734375,180.17578125,-69.3359375
-488.28125,-1000.0,-1000.0,-129.8828125
-243.1640625,-652.83203125,-723.6328125,-53.7109375
289.55078125,719.7265625,630.37109375,36.62109375
368.65234375,999.51171875,999.51171875,32.71484375
-74.21875,489.2578125,197.75390625,-54.19921875
-487.79296875,-822.265625,-1000.0,-134.27734375
-333.49609375,-1000.0,-1000.0,-98.14453125
220.21484375,-160.15625,210.44921875,17.578125
417.48046875,999.51171875,999.51171875,48.33984375
-0.48828125,486.81640625,284.1796875,-32.71484375
-464.35546875,-880.37109375,-976.07421875,-115.234375
-364.74609375,-1000.0,-1000.0,-103.515625
182.6171875,-210.9375,-13.18359375,-5.859375
417.96875,999.51171875,999.51171875,41.50390625
52.734375,845.703125,479.4921875,-31.25
-416.015625,-480.95703125,-851.5625,-127.9296875
-404.296875,-1000.0,-1000.0,-108.88671875
127.44140625,-181.640625,-154.296875,0.9765625
444.3359375,999.51171875,999.51171875,55.17578125
138.18359375,999.51171875,700.68359375,-14.6484375
-380.37109375,-185.05859375,-642.08984375,-121.09375
-470.703125,-1000.0,-1000.0,-132.8125
41.50390625,-221.6796875,-186.5234375,-33.69140625
410.15625,957.03125,999.51171875,31.73828125
173.828125,999.51171875,905.76171875,-19.53125
-312.98828125,194.82421875,-351.07421875,-108.3984375
-482.421875,-1000.0,-1000.0,-125.0
-35.15625,-441.40625,-210.44921875,-36.1328125
405.76171875,906.73828125,999.51171875,48.33984375
239.74609375,999.51171875,999.51171875,6.8359375
-270.5078125,144.53125,-152.34375,-102.05078125
-500.48828125,-1000.0,-1000.0,-126.46484375
-84.47265625,-538.57421875,-301.7578125,-52.24609375
387.20703125,833.49609375,940.4296875,29.296875
288.0859375,999.51171875,999.51171875,22.94921875
-209.47265625,202.1484375,85.9375,-88.8671875
-505.859375,-1000.0,-1000.0,-144.04296875
-138.18359375,-343.26171875,-402.83203125,-72.265625
361.328125,949.70703125,904.296875,20.5078125
322.265625,999.51171875,999.51171875,12.6953125
-168.45703125,187.5,161.62109375,-87.40234375
-526.85546875,-1000.0,-1000.0,-143.06640625
-249.0234375,-966.796875,-684.5703125,-87.890625
279.296875,302.734375,673.828125,8.7890625
347.65625,999.51171875,999.51171875,16.6015625
-121.09375,175.29296875,166.9921875,-77.63671875
-507.32421875,-1000.0,-1000.0,-131.34765625
-296.38671875,-1000.0,-895.01953125,-82.03125
241.2109375,72.75390625,389.6484375,7.8125
395.01953125,999.51171875,999.51171875,35.64453125
-15.13671875,782.2265625,254.8828125,-30.76171875
-451.66015625,-497.55859375,-992.1875,-118.65234375
-346.19140625,-1000.0,-1000.0,-98.6328125
185.546875,-223.6328125,52.24609375,19.53125
394.04296875,999.51171875,999.51171875,43.45703125
19.04296875,622.55859375,344.7265625,-52.734375
-441.89453125,-769.53125,-944.3359375,-127.44140625
-391.11328125,-1000.0,-1000.0,-109.375
149.90234375,-189.94140625,-95.21484375,-13.671875
413.0859375,999.51171875,999.51171875,35.15625
87.890625,987.79296875,566.89453125,-35.64453125
-398.4375,-221.19140625,-778.80859375,-125.9765625
-453.61328125,-1000.0,-1000.0,-121.09375
75.68359375,-185.05859375,-161.62109375,-23.4375
409.1796875,999.51171875,999.51171875,41.015625
134.27734375,999.51171875,787.59765625,-10.25390625
-354.00390625,-144.53125,-526.3671875,-100.5859375
-463.8671875,-1000.0,-1000.0,-114.2578125
7.8125,-330.56640625,-186.5234375,-26.85546875
401.3671875,933.10546875,999.51171875,51.7578125
209.47265625,999.51171875,974.12109375,2.9296875
-303.22265625,27.34375,-225.09765625,-104.4921875
-495.1171875,-1000.0,-1000.0,-125.0
-21.97265625,-184.08203125,-190.91796875,-39.0625
416.50390625,994.62890625,992.1875,45.8984375
252.9296875,999.51171875,999.51171875,17.578125
-243.1640625,161.1328125,11.71875,-78.61328125
-501.46484375,-1000.0,-1000.0,-122.0703125
-122.0703125,-594.7265625,-328.125,-60.546875
359.86328125,781.73828125,933.10546875,33.203125
291.9921875,999.51171875,999.51171875,18.06640625
-207.51953125,177.24609375,160.64453125,-85.9375
-521.97265625,-1000.0,-1000.0,-126.46484375
-196.77734375,-886.23046875,-514.6484375,-60.05859375
335.9375,427.24609375,832.51953125,44.43359375
352.5390625,999.51171875,999.51171875,48.828125
-136.71875,243.65234375,197.265625,-63.96484375
-507.32421875,-1000.0,-1000.0,-134.765625
-262.6953125,-1000.0,-709.47265625,-77.1484375
283.69140625,191.89453125,646.484375,31.25
381.34765625,999.51171875,999.51171875,44.921875
-77.63671875,378.90625,239.74609375,-56.15234375
-498.53515625,-946.2890625,-1000.0,-134.27734375
-326.66015625,-1000.0,-920.41015625,-88.8671875
228.02734375,82.51953125,369.140625,21.97265625
397.94921875,999.51171875,999.51171875,46.875
-7.8125,441.89453125,314.94140625,-35.64453125
-454.1015625,-872.55859375,-967.7734375,-119.140625
-365.72265625,-1000.0,-1000.0,-98.14453125
163.0859375,-219.7265625,65.4296875,5.859375
401.3671875,999.51171875,999.51171875,50.78125
46.38671875,756.8359375,484.86328125,-30.2734375
-434.5703125,-605.46875,-843.75,-118.1640625
-425.78125,-1000.0,-1000.0,-103.02734375
113.76953125,-182.12890625,-117.1875,-12.6953125
422.36328125,999.51171875,999.51171875,52.734375
116.69921875,999.51171875,704.1015625,-13.671875
-383.30078125,-173.33984375,-631.8359375,-120.60546875
-459.9609375,-1000.0,-1000.0,-116.69921875
56.15234375,-178.7109375,-171.38671875,-7.32421875
417.48046875,999.51171875,999.51171875,62.98828125
144.53125,999.51171875,899.4140625,-19.04296875
-383.7890625,-41.50390625,-360.3515625,-145.99609375
-547.36328125,-1000.0,-1000.0,-175.78125
-79.1015625,-443.84765625,-208.984375,-87.890625
349.12109375,879.39453125,999.51171875,-9.765625
175.78125,999.51171875,996.09375,-53.7109375
-321.2890625,87.40234375,-170.41015625,-140.13671875
-535.15625,-1000.0,-1000.0,-170.8984375
-120.1171875,-517.578125,-294.43359375,-78.125
345.703125,840.8203125,940.4296875,15.625
234.375,999.51171875,999.51171875,-21.97265625
-266.11328125,194.82421875,95.21484375,-120.60546875
-541.015625,-1000.0,-1000.0,-153.80859375
-190.4296875,-747.55859375,-472.65625,-80.56640625
315.4296875,628.41796875,861.328125,12.20703125
295.8984375,999.51171875,999.51171875,6.34765625
-201.66015625,161.62109375,136.71875,-93.75
-544.43359375,-1000.0,-1000.0,-149.90234375
-250.9765625,-964.84375,-706.54296875,-87.890625
289.0625,306.640625,645.5078125,10.7421875
354.00390625,999.51171875,999.51171875,21.484375
-112.79296875,168.45703125,158.203125,-73.2421875
-511.23046875,-1000.0,-1000.0,-141.6015625
-321.2890625,-1000.0,-930.17578125,-104.98046875
222.65625,-41.9921875,334.9609375,-11.71875
363.76953125,999.51171875,999.51171875,21.97265625
-56.640625,468.75,207.51953125,-62.5
-488.28125,-874.51171875,-1000.0,-141.11328125
-371.58203125,-1000.0,-1000.0,-95.21484375
181.640625,-198.2421875,85.44921875,6.8359375
400.87890625,999.51171875,999.51171875,31.73828125
8.30078125,523.4375,301.26953125,-47.36328125
-456.54296875,-872.0703125,-967.7734375,-127.44140625
-397.94921875,-1000.0,-1000.0,-114.74609375
138.671875,-100.5859375,-70.80078125,-17.578125
413.0859375,999.51171875,999.51171875,39.0625
75.1953125,729.00390625,488.28125,-30.2734375
-424.8046875,-612.79296875,-847.16796875,-132.32421875
-457.03125,-1000.0,-1000.0,-122.0703125
67.3828125,-181.15234375,-183.59375,-19.04296875
395.01953125,999.51171875,999.51171875,30.2734375
116.2109375,999.51171875,742.67578125,-29.296875
-381.34765625,-164.55078125,-594.23828125,-125.48828125
-483.3984375,-1000.0,-1000.0,-140.625
20.01953125,-162.109375,-182.12890625,-47.8515625
400.390625,977.5390625,999.51171875,27.34375
190.4296875,999.51171875,969.7265625,-11.23046875
-303.7109375,212.40234375,-224.12109375,-107.421875
-512.20703125,-1000.0,-1000.0,-134.765625
-79.58984375,-559.08203125,-267.08984375,-60.05859375
384.27734375,877.9296875,993.1640625,38.0859375
241.2109375,999.51171875,999.51171875,13.671875
-271.97265625,-120.60546875,-164.55078125,-110.3515625
-506.34765625,-1000.0,-1000.0,-140.625
-115.234375,-731.4453125,-412.59765625,-60.546875
357.421875,581.0546875,880.37109375,22.94921875
299.31640625,999.51171875,999.51171875,12.6953125
-183.10546875,195.3125,112.3046875,-71.2890625
-497.0703125,-1000.0,-1000.0,-117.67578125
-160.64453125,-438.4765625,-523.4375,-46.38671875
340.33203125,905.2734375,825.1953125,53.7109375
335.44921875,999.51171875,999.51171875,42.96875
-138.18359375,156.73828125,149.90234375,-56.640625
-510.7421875,-1000.0,-1000.0,-114.74609375
-270.99609375,-1000.0,-879.39453125,-58.59375
269.04296875,-6.34765625,421.38671875,39.55078125
379.8828125,999.51171875,999.51171875,57.6171875
-82.03125,306.15234375,164.0625,-36.1328125
-483.3984375,-1000.0,-1000.0,-116.69921875
-300.29296875,-1000.0,-972.65625,-78.61328125
233.3984375,203.125,267.08984375,26.85546875
405.76171875,999.51171875,999.51171875,65.4296875
-16.11328125,278.80859375,206.54296875,-16.6015625
-474.12109375,-946.77734375,-1000.0,-115.234375
-367.1875,-1000.0,-1000.0,-87.40234375
174.8046875,-247.0703125,-60.05859375,20.01953125
408.203125,999.51171875,999.51171875,50.29296875
49.31640625,661.62109375,377.44140625,-24.90234375
-436.03515625,-722.16796875,-929.19921875,-116.2109375
-426.26953125,-1000.0,-1000.0,-122.0703125
115.72265625,-173.33984375,-160.64453125,-13.18359375
414.55078125,983.3984375,999.51171875,50.78125
118.65234375,999.51171875,682.6171875,-19.04296875
-374.51171875,-13.671875,-662.59765625,-110.83984375
-459.9609375,-1000.0,-1000.0,-97.16796875
52.24609375,-219.23828125,-201.171875,2.44140625
412.59765625,995.60546875,999.51171875,52.24609375
166.50390625,999.51171875,817.87109375,-2.44140625
-333.984375,10.25390625,-492.67578125,-99.12109375
-492.1875,-1000.0,-1000.0,-126.953125
-9.27734375,-401.3671875,-216.796875,-21.97265625
412.59765625,908.69140625,999.51171875,70.3125
234.86328125,999.51171875,968.75,27.34375
-271.97265625,90.8203125,-228.515625,-75.68359375
-489.74609375,-1000.0,-1000.0,-103.515625
-69.3359375,-496.58203125,-311.5234375,-34.1796875
387.6953125,864.74609375,951.171875,51.26953125
261.71875,999.51171875,999.51171875,36.62109375
-259.27734375,111.328125,-41.015625,-73.2421875
-524.90234375,-1000.0,-1000.0,-119.140625
-159.1796875,-673.828125,-480.95703125,-47.8515625
348.14453125,687.01171875,838.37890625,49.31640625
330.078125,999.51171875,999.51171875,51.26953125
-153.3203125,250.0,143.06640625,-47.8515625
-499.0234375,-1000.0,-1000.0,-113.28125
-230.95703125,-927.24609375,-718.26171875,-65.91796875
297.8515625,406.25,636.71875,33.203125
348.14453125,999.51171875,999.51171875,40.52734375
-154.78515625,129.8828125,149.90234375,-66.40625
-520.01953125,-1000.0,-1000.0,-120.60546875
-287.109375,-1000.0,-946.2890625,-61.03515625
243.1640625,-89.84375,310.546875,21.97265625
405.76171875,999.51171875,999.51171875,53.22265625
-32.71484375,272.94921875,174.31640625,-35.64453125
-484.86328125,-987.79296875,-1000.0,-128.90625
-356.93359375,-1000.0,-1000.0,-88.37890625
195.3125,-122.55859375,85.44921875,8.7890625
411.62109375,999.51171875,999.51171875,35.64453125
20.01953125,907.71484375,361.81640625,-45.41015625
-439.94140625,-352.05078125,-928.22265625,-133.30078125
-401.3671875,-1000.0,-1000.0,-111.328125
129.8828125,-199.70703125,-124.51171875,1.953125
394.53125,999.51171875,999.51171875,54.6875
62.98828125,889.6484375,513.18359375,-20.99609375
-408.69140625,-413.57421875,-833.49609375,-115.72265625
-444.82421875,-1000.0,-1000.0,-107.91015625
84.9609375,-183.10546875,-187.98828125,-8.30078125
421.38671875,999.51171875,999.51171875,54.6875
133.7890625,998.53515625,720.21484375,-9.27734375
-364.74609375,-195.80078125,-625.48828125,-115.234375
-460.9375,-1000.0,-1000.0,-120.60546875
24.4140625,-287.109375,-197.75390625,-20.5078125
399.4140625,963.8671875,999.51171875,54.19921875
194.3359375,999.51171875,895.01953125,6.34765625
-315.91796875,-64.453125,-366.69921875,-96.19140625
-494.140625,-1000.0,-1000.0,-120.1171875
-55.17578125,-486.328125,-257.8125,-41.015625
381.8359375,837.890625,976.07421875,36.62109375
250.48828125,999.51171875,999.51171875,8.7890625
-253.90625,193.359375,-87.40234375,-83.49609375
-513.18359375,-1000.0,-1000.0,-125.48828125
-129.39453125,-669.43359375,-389.6484375,-59.5703125
366.2109375,721.19140625,902.83203125,27.34375
297.36328125,999.51171875,999.51171875,19.53125
-225.09765625,171.875,85.44921875,-90.33203125
-524.4140625,-1000.0,-1000.0,-140.625
-191.40625,-903.3203125,-601.07421875,-54.19921875
323.2421875,404.78515625,747.0703125,50.78125
347.16796875,999.51171875,999.51171875,43.9453125
-137.6953125,219.23828125,172.8515625,-62.01171875
-499.51171875,-1000.0,-1000.0,-119.140625
-253.41796875,-1000.0,-790.0390625,-67.3828125
261.23046875,210.44921875,548.33984375,23.92578125
351.5625,999.51171875,999.51171875,27.34375
-88.37890625,496.09375,175.29296875,-62.01171875
-493.65234375,-827.63671875,-1000.0,-124.0234375
-324.21875,-1000.0,-1000.0,-90.8203125
210.44921875,-135.7421875,192.3828125,5.859375
379.8828125,999.51171875,999.51171875,42.96875
-27.83203125,405.2734375,221.6796875,-36.62109375
-468.26171875,-925.78125,-1000.0,-127.9296875
-357.421875,-1000.0,-1000.0,-98.14453125
176.7578125,-222.65625,-26.85546875,13.671875
394.04296875,999.51171875,999.51171875,38.57421875
29.296875,612.79296875,370.1171875,-36.1328125
-435.05859375,-804.6875,-937.01171875,-110.83984375
-410.15625,-1000.0,-1000.0,-97.16796875
120.1171875,-23.92578125,-110.83984375,-4.39453125
410.15625,999.51171875,999.51171875,37.59765625
102.05078125,779.296875,569.82421875,-27.34375
-400.87890625,-522.4609375,-771.97265625,-116.2109375
-457.03125,-1000.0,-1000.0,-109.86328125
67.87109375,-213.8671875,-200.1953125,-15.13671875
408.69140625,963.37890625,999.51171875,40.52734375
151.85546875,999.51171875,816.89453125,-6.8359375
-324.21875,41.9921875,-470.21484375,-99.12109375
-480.46875,-1000.0,-1000.0,-120.1171875
-15.13671875,-281.25,-208.984375,-39.0625
414.55078125,962.40234375,999.51171875,39.0625
229.98046875,999.51171875,989.2578125,4.39453125
-294.43359375,116.2109375,-182.6171875,-101.5625
-506.8359375,-1000.0,-1000.0,-121.09375
-86.9140625,-709.9609375,-351.5625,-40.0390625
379.39453125,652.83203125,932.6171875,39.0625
264.16015625,999.51171875,999.51171875,14.16015625
-239.74609375,170.41015625,-28.3203125,-82.03125
-524.90234375,-1000.0,-1000.0,-161.62109375
-176.7578125,-741.69921875,-484.375,10.25390625
305.6640625,626.46484375,835.44921875,-377.9296875
254.39453125,999.51171875,999.51171875,-1000.0
-189.453125,193.359375,152.83203125,-983.88671875
-520.99609375,-1000.0,-1000.0,-981.93359375
-279.78515625,-1000.0,-750.48828125,-994.62890625
257.32421875,136.71875,602.05078125,-1000.0
333.984375,999.51171875,999.51171875,-831.54296875
-126.46484375,150.87890625,142.578125,-492.67578125
-485.83984375,-1000.0,-1000.0,-304.6875
-274.4140625,-1000.0,-944.82421875,-98.14453125
249.0234375,106.93359375,313.4765625,116.2109375
380.859375,999.51171875,999.51171875,217.7734375
-39.55078125,674.8046875,188.4765625,184.08203125
-475.09765625,-701.171875,-1000.0,144.04296875
-348.6328125,-1000.0,-1000.0,205.56640625
195.3125,132.8125,116.69921875,314.453125
386.71875,999.51171875,999.51171875,354.4921875
3.90625,533.203125,270.5078125,291.9921875
-451.66015625,-808.59375,-976.07421875,199.70703125
-386.23046875,-1000.0,-1000.0,207.03125
151.85546875,-108.88671875,-94.7265625,302.24609375
405.2734375,999.51171875,999.51171875,344.23828125
60.546875,762.20703125,468.26171875,233.3984375
-408.203125,-553.22265625,-862.3046875,250.0
-450.68359375,-1000.0,-1000.0,-276.85546875
31.25,-336.42578125,-204.58984375,-770.01953125
405.2734375,985.3515625,999.51171875,-273.4375
171.875,953.61328125,680.17578125,-38.0859375
-346.6796875,-353.02734375,-673.828125,-40.0390625
-457.03125,-1000.0,-1000.0,45.41015625
46.38671875,-196.2890625,-197.75390625,190.4296875
422.36328125,968.75,999.51171875,269.04296875
213.37890625,999.51171875,924.8046875,244.140625
-293.45703125,89.35546875,-324.21875,160.64453125
-503.41796875,-1000.0,-1000.0,127.9296875
-44.43359375,-214.35546875,-217.28515625,212.890625
394.04296875,981.93359375,988.76953125,302.24609375
237.3046875,999.51171875,999.51171875,268.06640625
-259.27734375,225.5859375,-60.05859375,155.76171875
-523.4375,-1000.0,-1000.0,111.328125
-139.6484375,-669.43359375,-389.6484375,176.26953125
350.5859375,722.65625,909.66796875,255.37109375
275.87890625,999.51171875,999.51171875,241.69921875
-216.796875,153.3203125,53.22265625,114.74609375
-513.671875,-1000.0,-1000.0,50.78125
-203.61328125,-959.47265625,-616.2109375,125.0
311.03515625,316.40625,732.421875,206.0546875
335.44921875,999.51171875,999.51171875,191.40625
-145.5078125,154.296875,140.13671875,83.49609375
-506.34765625,-1000.0,-1000.0,-29.78515625
-269.53125,-1000.0,-814.94140625,-13.18359375
265.13671875,229.4921875,512.20703125,101.07421875
365.72265625,999.51171875,999.51171875,137.20703125
-89.35546875,126.46484375,145.01953125,53.22265625
-489.2578125,-1000.0,-1000.0,-35.15625
-315.91796875,-1000.0,-1000.0,18.06640625
218.75,-184.08203125,151.3671875,123.046875
394.04296875,999.51171875,999.51171875,150.390625
-34.66796875,338.37890625,187.5,60.05859375
-473.6328125,-958.984375,-1000.0,-21.484375
-351.07421875,-1000.0,-1000.0,10.7421875
167.96875,-248.046875,-90.33203125,97.16796875
406.73828125,999.51171875,999.51171875,126.953125
37.109375,627.9296875,323.2421875,48.828125
-458.0078125,-763.671875,-955.078125,-85.9375
-429.19921875,-1000.0,-1000.0,-104.4921875
88.8671875,-215.8203125,-210.44921875,25.87890625
394.53125,999.51171875,999.51171875,90.33203125
103.515625,779.78515625,476.5625,45.41015625
-390.13671875,-560.05859375,-871.58203125,-47.8515625
-452.63671875,-1000.0,-1000.0,-84.47265625
48.33984375,-290.0390625,-229.4921875,10.25390625
413.0859375,916.9921875,999.51171875,124.51171875
159.1796875,999.51171875,694.3359375,-170.41015625
-339.84375,151.85546875,-647.4609375,-333.984375
-512.6953125,-1000.0,-1000.0,-559.08203125
-89.35546875,-905.76171875,-275.87890625,-1000.0
351.5625,460.9375,999.51171875,-990.234375
205.56640625,999.51171875,910.64453125,-997.0703125
-285.15625,-111.81640625,-354.00390625,-849.609375
-484.86328125,-1000.0,-1000.0,-507.32421875
-59.5703125,-506.8359375,-359.375,-201.171875
408.69140625,823.2421875,925.78125,20.99609375
306.640625,999.51171875,999.51171875,87.40234375
-201.66015625,200.68359375,-65.91796875,52.24609375
-493.65234375,-1000.0,-1000.0,45.8984375
-111.328125,-309.08203125,-411.62109375,135.25390625
393.06640625,963.37890625,887.6953125,217.28515625
317.3828125,999.51171875,999.51171875,168.9453125
-181.15234375,221.19140625,129.39453125,15.625
-493.65234375,-1000.0,-1000.0,-106.93359375
-195.3125,-641.6015625,-607.91015625,-162.59765625
322.75390625,750.0,747.0703125,-189.453125
361.328125,999.51171875,999.51171875,-234.375
-124.51171875,134.765625,168.45703125,-346.19140625
-502.9296875,-1000.0,-1000.0,-443.84765625
-255.37109375,-1000.0,-882.32421875,-464.84375
265.625,-122.0703125,413.57421875,-436.5234375
378.41796875,999.51171875,999.51171875,-444.82421875
-54.6875,311.03515625,215.33203125,-537.59765625
-473.14453125,-965.33203125,-1000.0,-621.58203125
-323.2421875,-1000.0,-1000.0,-618.65234375
218.26171875,-228.515625,173.828125,-565.4296875
434.08203125,999.51171875,999.51171875,-504.39453125
61.03515625,700.68359375,388.18359375,-525.390625
-422.36328125,-680.17578125,-933.59375,-539.0625
-380.859375,-1000.0,-1000.0,-466.796875
185.546875,-117.1875,41.015625,-189.94140625
455.078125,971.6796875,999.51171875,142.578125
122.55859375,999.51171875,628.41796875,229.4921875
-357.421875,192.3828125,-711.42578125,229.98046875
-403.3203125,-1000.0,-1000.0,289.0625
129.39453125,-136.23046875,-69.3359375,418.45703125
455.078125,999.51171875,999.51171875,501.46484375
172.8515625,999.51171875,815.91796875,456.0546875
-342.7734375,-134.765625,-474.12109375,354.4921875
-464.84375,-1000.0,-1000.0,339.35546875
41.015625,-167.96875,-165.52734375,418.9453125
414.55078125,985.3515625,999.51171875,478.515625
193.359375,999.51171875,993.1640625,430.17578125
-296.875,123.53515625,-184.5703125,323.2421875
-479.4921875,-1000.0,-1000.0,294.921875
-16.6015625,-190.4296875,-178.7109375,356.4453125
414.0625,994.140625,990.234375,405.76171875
252.9296875,999.51171875,999.51171875,370.60546875
-232.421875,233.88671875,65.91796875,256.8359375
-496.58203125,-1000.0,-1000.0,207.03125
-110.83984375,-534.1796875,-296.38671875,274.4140625
379.39453125,850.09765625,951.171875,333.984375
277.83203125,999.51171875,999.51171875,309.5703125
-217.7734375,191.40625,178.22265625,196.77734375
-515.625,-1000.0,-1000.0,126.46484375
-193.359375,-785.64453125,-477.05078125,179.6875
329.1015625,558.10546875,862.79296875,266.6015625
340.8203125,999.51171875,999.51171875,267.08984375
-128.90625,382.8125,200.68359375,162.59765625
-485.83984375,-954.1015625,-1000.0,95.703125
-247.0703125,-1000.0,-704.1015625,146.97265625
275.87890625,198.2421875,652.83203125,221.6796875
367.1875,999.51171875,999.51171875,223.6328125
-62.5,568.84765625,241.2109375,129.8828125
-479.98046875,-772.94921875,-1000.0,51.26953125
-330.078125,-1000.0,-927.734375,57.6171875
208.49609375,-73.2421875,357.91015625,146.484375
388.671875,999.51171875,999.51171875,177.734375
-17.578125,411.62109375,291.50390625,-85.44921875
-462.40234375,-918.45703125,-993.1640625,-211.42578125
-353.02734375,-1000.0,-1000.0,-66.89453125
174.8046875,-157.2265625,138.18359375,66.89453125
403.3203125,999.51171875,999.51171875,133.30078125
62.01171875,819.82421875,494.62890625,62.98828125
-407.2265625,-502.44140625,-843.26171875,-16.6015625
-402.83203125,-1000.0,-1000.0,-1.46484375
137.20703125,-160.64453125,-25.87890625,101.07421875
430.17578125,985.3515625,999.51171875,169.43359375
133.30078125,999.51171875,787.109375,110.83984375
-342.7734375,14.6484375,-519.53125,0.9765625
-436.03515625,-1000.0,-1000.0,-17.08984375
79.1015625,-180.17578125,-110.3515625,82.51953125
419.43359375,999.51171875,999.51171875,135.25390625
149.4140625,999.51171875,898.92578125,78.125
-343.75,-102.05078125,-349.12109375,-16.11328125
-484.375,-1000.0,-1000.0,-29.296875
2.44140625,-205.078125,-172.36328125,55.6640625
405.2734375,968.26171875,999.51171875,125.0
206.0546875,999.51171875,999.51171875,80.078125
-296.38671875,205.56640625,-83.0078125,-27.83203125
-523.4375,-1000.0,-1000.0,-62.5
-101.5625,-513.18359375,-252.44140625,12.20703125
372.0703125,847.65625,960.44921875,86.42578125
264.16015625,999.51171875,999.51171875,72.265625
-231.93359375,319.3359375,140.625,-16.11328125
-527.83203125,-1000.0,-1000.0,-70.80078125
-173.828125,-898.92578125,-464.84375,-0.48828125
343.75,465.33203125,876.953125,101.5625
298.33984375,999.51171875,999.51171875,77.1484375
-201.171875,165.0390625,135.7421875,-40.0390625
-522.4609375,-1000.0,-1000.0,-96.19140625
-231.93359375,-912.109375,-640.625,-35.15625
293.45703125,374.0234375,717.7734375,57.12890625
337.40234375,999.51171875,999.51171875,55.17578125
-130.37109375,352.5390625,169.921875,-29.78515625
-506.8359375,-933.10546875,-1000.0,-94.7265625
-312.98828125,-1000.0,-887.6953125,-55.17578125
205.56640625,-19.53125,410.15625,39.0625
352.05078125,999.51171875,999.51171875,59.08203125
-86.42578125,242.67578125,174.31640625,-26.85546875
-503.90625,-993.65234375,-1000.0,-100.5859375
-339.84375,-1000.0,-1000.0,-64.94140625
188.4765625,-154.78515625,125.0,25.390625
382.32421875,999.51171875,999.51171875,63.4765625
-9.765625,593.26171875,293.9453125,-15.13671875
-468.75,-786.1328125,-966.796875,-112.79296875
-397.94921875,-1000.0,-1000.0,-85.9375
136.71875,-160.15625,-76.66015625,25.87890625
393.06640625,999.51171875,999.51171875,70.80078125
64.453125,731.4453125,456.54296875,6.8359375
-416.9921875,-625.9765625,-869.140625,-91.30859375
-442.3828125,-1000.0,-1000.0,-94.23828125
74.70703125,-192.3828125,-199.70703125,7.32421875
397.4609375,999.51171875,999.51171875,53.22265625
122.55859375,950.1953125,678.7109375,-3.90625
-393.06640625,-304.6875,-673.828125,-103.02734375
-497.0703125,-1000.0,-1000.0,-113.28125
15.625,-197.265625,-188.4765625,-1.46484375
397.94921875,959.47265625,999.51171875,63.96484375
182.12890625,999.51171875,944.82421875,8.7890625
-317.87109375,190.91796875,-278.3203125,-86.9140625
-515.13671875,-1000.0,-1000.0,-110.83984375
-62.98828125,-463.8671875,-248.53515625,-29.296875
387.6953125,904.296875,997.0703125,55.17578125
226.5625,999.51171875,999.51171875,34.66796875
-274.4140625,52.24609375,-159.66796875,-59.5703125
-504.8828125,-1000.0,-1000.0,-104.00390625
-116.69921875,-733.3984375,-388.18359375,-38.0859375
354.00390625,610.3515625,899.4140625,51.26953125
271.484375,999.51171875,999.51171875,37.109375
-222.65625,171.38671875,71.2890625,-67.3828125
-503.90625,-1000.0,-1000.0,-119.140625
-178.7109375,-884.765625,-559.5703125,-51.7578125
312.98828125,440.4296875,786.1328125,38.0859375
318.84765625,999.51171875,999.51171875,35.15625
-157.2265625,154.296875,157.71484375,-59.5703125
-500.9765625,-1000.0,-1000.0,-114.74609375
-260.7421875,-1000.0,-776.3671875,-68.359375
261.23046875,141.6015625,565.4296875,25.87890625
350.09765625,999.51171875,999.51171875,45.8984375
-110.83984375,261.71875,166.50390625,-36.1328125
-503.41796875,-1000.0,-1000.0,-114.74609375
-313.4765625,-1000.0,-953.61328125,-83.49609375
232.91015625,95.21484375,294.43359375,30.2734375
393.06640625,999.51171875,999.51171875,57.12890625
-28.80859375,570.80078125,256.34765625,-27.34375
-468.75,-755.37109375,-986.81640625,-118.1640625
-372.0703125,-1000.0,-1000.0,-104.4921875
163.57421875,-229.00390625,3.41796875,2.9296875
398.92578125,999.51171875,999.51171875,36.1328125
25.87890625,576.171875,349.12109375,-44.43359375
-437.5,-813.96484375,-938.4765625,-135.25390625
-409.1796875,-1000.0,-1000.0,-134.27734375
115.72265625,-171.38671875,-146.484375,-40.52734375
404.78515625,972.65625,999.51171875,-6.8359375
110.83984375,999.51171875,685.05859375,-84.47265625
-377.9296875,69.82421875,-659.1796875,-179.19921875
-457.51953125,-1000.0,-1000.0,-300.29296875
47.8515625,-231.4453125,-189.94140625,-442.3828125
388.671875,999.51171875,999.51171875,-676.7578125
133.30078125,850.09765625,792.48046875,-977.05078125
-359.375,-440.91796875,-528.80859375,-1000.0
-485.83984375,-1000.0,-1000.0,-987.79296875
-12.20703125,-465.8203125,-210.9375,-956.54296875
407.71484375,857.421875,999.51171875,-892.578125
227.05078125,999.51171875,959.9609375,-849.12109375
-289.55078125,-31.25,-250.0,-801.26953125
-482.91015625,-1000.0,-1000.0,-746.09375
-65.4296875,-492.1875,-275.87890625,-706.54296875
372.55859375,839.35546875,957.51953125,-683.10546875
256.8359375,999.51171875,999.51171875,-645.5078125
-236.328125,183.59375,8.30078125,-599.12109375
-506.8359375,-1000.0,-1000.0,-563.96484375
-163.57421875,-878.41796875,-469.7265625,-533.69140625
332.51953125,450.68359375,853.515625,-503.90625
310.546875,999.51171875,999.51171875,-474.12109375
-178.7109375,154.78515625,118.65234375,-441.40625
-491.2109375,-1000.0,-1000.0,-408.203125
-207.03125,-1000.0,-722.16796875,-388.671875
297.8515625,242.1875,625.48828125,-378.90625
338.8671875,999.51171875,999.51171875,-356.4453125
-144.53125,173.828125,156.25,-337.40234375
-501.46484375,-1000.0,-1000.0,-315.4296875
-268.06640625,-1000.0,-898.4375,-291.50390625
254.8828125,73.2421875,387.6953125,-278.80859375
373.046875,999.51171875,999.51171875,-275.87890625
-47.36328125,672.36328125,209.9609375,-261.71875
-467.7734375,-674.8046875,-1000.0,-239.2578125
-341.796875,-1000.0,-1000.0,-226.07421875
196.77734375,7.32421875,149.90234375,-215.8203125
391.6015625,999.51171875,999.51171875,-209.9609375
7.8125,961.42578125,337.890625,-207.03125
-458.984375,-218.26171875,-939.94140625,-197.265625
-403.3203125,-1000.0,-1000.0,-182.6171875
137.20703125,-208.984375,-97.65625,-166.015625
410.15625,999.51171875,999.51171875,-157.2265625
84.47265625,841.796875,470.21484375,-147.94921875
-401.3671875,-487.79296875,-866.69921875,-123.046875
-421.38671875,-1000.0,-1000.0,-115.234375
97.16796875,-180.17578125,-173.828125,-125.9765625
402.83203125,999.51171875,999.51171875,-131.34765625
125.0,999.51171875,700.68359375,-120.60546875
-359.86328125,-164.55078125,-644.53125,-115.234375
-483.88671875,-1000.0,-1000.0,-118.1640625
18.5546875,-173.828125,-189.94140625,-103.515625
408.69140625,999.51171875,999.51171875,-85.9375
179.6875,999.51171875,879.8828125,-80.078125
-325.68359375,-32.71484375,-389.16015625,-83.49609375
-498.53515625,-1000.0,-1000.0,-81.0546875
-53.22265625,-476.07421875,-242.67578125,-86.9140625
372.0703125,845.703125,985.3515625,-96.19140625
238.28125,999.51171875,999.51171875,-78.61328125
-260.7421875,204.1015625,-108.3984375,-78.125
-514.6484375,-1000.0,-1000.0,-80.078125
-127.44140625,-658.203125,-387.6953125,-81.0546875
348.6328125,735.3515625,907.71484375,-83.984375
278.80859375,999.51171875,999.51171875,-76.66015625
-219.7265625,164.0625,48.828125,-67.3828125
-527.83203125,-1000.0,-1000.0,-53.7109375
-197.75390625,-971.6796875,-586.9140625,-55.17578125
309.08203125,299.8046875,756.34765625,-72.75390625
317.3828125,999.51171875,999.51171875,-77.1484375
-162.59765625,143.5546875,150.390625,-69.3359375
-508.7890625,-1000.0,-1000.0,-60.05859375
-254.39453125,-1000.0,-803.22265625,-53.7109375
274.4140625,76.66015625,525.87890625,-57.6171875
393.5546875,999.51171875,999.51171875,-41.9921875
-54.6875,459.9609375,174.8046875,-31.25
-499.0234375,-871.58203125,-1000.0,-55.6640625
-330.078125,-1000.0,-999.0234375,-52.24609375
227.5390625,-151.85546875,215.8203125,-35.64453125
395.01953125,999.51171875,999.51171875,-40.0390625
-21.484375,480.95703125,224.609375,-36.62109375
-445.3125,-881.8359375,-1000.0,-17.08984375
-334.47265625,-1000.0,-1000.0,-3.41796875
188.4765625,-192.87109375,-9.765625,-7.32421875
431.15234375,999.51171875,999.51171875,-13.18359375
89.84375,999.51171875,418.45703125,-9.765625
-393.5546875,-168.45703125,-903.3203125,-4.39453125
-382.8125,-1000.0,-1000.0,-4.39453125
140.625,-146.484375,-103.02734375,-10.7421875
420.41015625,999.51171875,999.51171875,-12.6953125
120.1171875,680.17578125,530.76171875,-11.71875
-353.515625,-678.22265625,-809.5703125,0.0
-407.2265625,-1000.0,-1000.0,2.9296875
85.9375,-215.8203125,-207.51953125,-9.765625
427.24609375,977.5390625,999.51171875,-17.578125
176.7578125,999.51171875,772.94921875,-16.11328125
-320.3125,-60.05859375,-553.7109375,-12.20703125
-459.9609375,-1000.0,-1000.0,-6.34765625
18.06640625,-380.859375,-207.03125,-3.90625
436.03515625,915.52734375,999.51171875,-11.23046875
243.1640625,999.51171875,959.9609375,-13.18359375
-266.11328125,51.26953125,-242.67578125,-6.34765625
-479.4921875,-1000.0,-1000.0,-5.859375
-66.89453125,-653.3203125,-305.17578125,-9.765625
396.484375,703.61328125,947.265625,-11.71875
282.2265625,999.51171875,999.51171875,-17.578125
-211.42578125,186.03515625,-6.34765625,-10.25390625
-466.796875,-1000.0,-1000.0,4.39453125
-111.328125,-640.13671875,-417.96875,4.39453125
361.328125,734.375,886.71875,-14.16015625
320.3125,999.51171875,999.51171875,-23.4375
-161.1328125,327.1484375,153.3203125,-20.99609375
-496.09375,-1000.0,-1000.0,-27.83203125
-204.1015625,-944.82421875,-630.37109375,-22.94921875
310.546875,398.92578125,729.4921875,-20.99609375
344.7265625,999.51171875,999.51171875,-21.484375
-119.140625,145.5078125,163.57421875,-18.06640625
-494.140625,-1000.0,-1000.0,-22.94921875
-293.45703125,-1000.0,-888.671875,-32.2265625
248.046875,-28.80859375,406.25,-30.2734375
389.16015625,999.51171875,999.51171875,-19.04296875
-45.8984375,449.21875,198.73046875,-22.4609375
-473.14453125,-1000.0,-1000.0,-26.3671875
-310.05859375,-916.015625,-967.28515625,-15.13671875
230.95703125,456.0546875,272.94921875,-16.11328125
378.41796875,999.51171875,999.51171875,-34.1796875
-14.6484375,609.375,322.265625,-46.38671875
-461.42578125,-691.40625,-945.3125,-42.96875
-397.4609375,-1000.0,-1000.0,-34.1796875
139.16015625,-216.30859375,-68.84765625,-31.73828125
415.0390625,999.51171875,999.51171875,-22.94921875
84.47265625,767.08984375,458.984375,-13.18359375
-408.69140625,-593.26171875,-870.1171875,-26.3671875
-430.6640625,-1000.0,-1000.0,-23.4375
94.7265625,-199.70703125,-173.828125,-20.99609375
410.15625,999.51171875,999.51171875,-38.0859375
111.328125,890.625,671.875,-37.109375
-375.9765625,-412.109375,-678.22265625,-27.34375
-455.56640625,-1000.0,-1000.0,-18.06640625
56.640625,-166.9921875,-189.94140625,-16.11328125
412.59765625,985.83984375,999.51171875,-44.921875
168.9453125,999.51171875,920.41015625,-63.96484375
-327.1484375,30.76171875,-330.078125,-58.10546875
-498.53515625,-1000.0,-1000.0,-41.50390625
-30.76171875,-410.15625,-222.65625,-36.1328125
404.78515625,891.11328125,988.28125,-55.17578125
250.0,999.51171875,999.51171875,-55.6640625
-251.46484375,206.54296875,-68.359375,-50.78125
-520.5078125,-1000.0,-1000.0,-54.19921875
-137.20703125,-703.61328125,-359.375,-51.26953125
354.98046875,683.10546875,918.9453125,-43.45703125
277.83203125,999.51171875,999.51171875,-41.9921875
-207.51953125,179.6875,96.6796875,-36.62109375
-500.48828125,-1000.0,-1000.0,-22.4609375
-171.38671875,-818.84765625,-534.66796875,-22.4609375
345.703125,528.80859375,812.5,-27.83203125
336.9140625,999.51171875,999.51171875,-23.92578125
-152.34375,245.1171875,174.31640625,-33.69140625
-506.34765625,-1000.0,-1000.0,-40.0390625
-221.19140625,-488.76953125,-654.296875,-32.2265625
297.8515625,879.8828125,709.47265625,-38.57421875
338.8671875,999.51171875,999.51171875,-37.109375
-118.65234375,206.54296875,169.43359375,-36.62109375
-502.44140625,-1000.0,-1000.0,-30.2734375
-298.33984375,-1000.0,-957.51953125,-23.4375
225.5859375,12.20703125,292.96875,-32.71484375
388.18359375,999.51171875,999.51171875,-29.78515625
-21.484375,322.75390625,209.47265625,-15.625
-468.75,-941.89453125,-1000.0,-20.01953125
-360.3515625,-1000.0,-1000.0,-19.04296875
172.8515625,-218.26171875,-2.44140625,-19.53125
406.25,999.51171875,999.51171875,-36.1328125
50.78125,908.203125,434.08203125,-32.71484375
-414.0625,-383.30078125,-887.6953125,-28.80859375
-394.53125,-1000.0,-1000.0,-28.3203125
121.58203125,-207.03125,-127.9296875,-35.15625
411.62109375,999.51171875,999.51171875,-34.66796875
107.91015625,823.73046875,563.4765625,-38.0859375
-389.16015625,-514.6484375,-784.1796875,-50.78125
-450.1953125,-1000.0,-1000.0,-35.64453125
66.40625,-156.25,-189.94140625,-39.0625
413.0859375,962.890625,999.51171875,-47.8515625
170.8984375,999.51171875,864.2578125,-36.1328125
-298.828125,230.95703125,-421.38671875,-8.7890625
-450.68359375,-1000.0,-1000.0,10.25390625
11.23046875,-382.8125,-198.73046875,-0.9765625
428.7109375,951.171875,999.51171875,-13.671875
215.33203125,999.51171875,972.16796875,-18.5546875
-299.31640625,63.96484375,-222.16796875,-17.578125
-500.48828125,-1000.0,-1000.0,-26.85546875
-79.1015625,-500.9765625,-266.6015625,-32.2265625
383.30078125,846.6796875,962.40234375,-29.296875
262.6953125,999.51171875,999.51171875,-27.34375
-234.375,196.77734375,13.18359375,-30.2734375
-499.51171875,-1000.0,-1000.0,-34.1796875
-127.44140625,-336.42578125,-354.00390625,-37.109375
353.515625,951.171875,921.875,-45.8984375
292.48046875,999.51171875,999.51171875,-42.96875
-186.03515625,193.359375,152.34375,-40.52734375
-499.51171875,-1000.0,-1000.0,-44.43359375
-207.51953125,-917.96875,-628.90625,-32.71484375
316.89453125,373.046875,730.95703125,-20.99609375
352.05078125,999.51171875,999.51171875,-32.2265625
-115.234375,282.2265625,176.7578125,-41.015625
-475.09765625,-1000.0,-1000.0,-33.203125
-262.6953125,-1000.0,-801.26953125,-18.06640625
265.625,181.640625,528.80859375,-22.4609375
377.9296875,999.51171875,999.51171875,-45.8984375
-64.94140625,445.80078125,229.98046875,-50.29296875
-481.93359375,-879.39453125,-1000.0,-39.0625
-317.87109375,-1000.0,-999.51171875,-33.203125
221.19140625,-92.7734375,221.6796875,-34.66796875
400.390625,999.51171875,999.51171875,-37.59765625
24.90234375,594.23828125,343.26171875,-35.15625
-427.24609375,-781.25,-952.63671875,-29.296875
-371.09375,-1000.0,-1000.0,-41.9921875
152.34375,-66.89453125,35.15625,-44.43359375
397.4609375,990.234375,999.51171875,-43.9453125
70.3125,999.51171875,582.51953125,-43.45703125
-390.625,153.80859375,-749.51171875,-33.203125
-430.17578125,-1000.0,-1000.0,-26.85546875
74.21875,-227.5390625,-140.625,-31.25
394.04296875,999.51171875,999.51171875,-41.50390625
129.39453125,967.28515625,724.12109375,-40.0390625
-355.46875,-264.6484375,-612.3046875,-22.4609375
-465.8203125,-1000.0,-1000.0,-24.90234375
21.97265625,-210.9375,-187.01171875,-38.0859375
387.6953125,972.65625,999.51171875,-33.203125
164.55078125,999.51171875,930.6640625,-32.71484375
-337.890625,39.55078125,-314.94140625,-32.71484375
-508.7890625,-1000.0,-1000.0,-28.80859375
-54.19921875,-187.01171875,-199.21875,-44.43359375
366.69921875,999.0234375,999.51171875,-50.78125
212.890625,999.51171875,999.51171875,-45.41015625
-275.87890625,117.67578125,-115.72265625,-30.76171875
-515.13671875,-1000.0,-1000.0,-23.4375
-101.5625,-458.984375,-321.2890625,-25.87890625
380.859375,875.9765625,933.10546875,-31.25
268.5546875,999.51171875,999.51171875,-30.76171875
-212.40234375,187.98828125,94.23828125,-26.85546875
-476.07421875,-1000.0,-1000.0,-16.6015625
-169.43359375,-870.1171875,-543.9453125,-16.11328125
310.05859375,451.171875,802.734375,-29.78515625
313.96484375,999.51171875,999.51171875,-34.66796875
-171.38671875,251.953125,184.5703125,-39.0625
-520.01953125,-1000.0,-1000.0,-26.3671875
-258.30078125,-960.9375,-716.796875,-26.85546875
263.18359375,343.75,640.625,-41.50390625
337.890625,999.51171875,999.51171875,-39.55078125
-109.86328125,164.55078125,158.203125,-28.3203125
-490.72265625,-1000.0,-1000.0,-28.80859375
-299.8046875,-1000.0,-968.75,-30.2734375
225.09765625,-90.33203125,270.01953125,-26.3671875
370.60546875,999.51171875,999.51171875,-31.73828125
-48.828125,381.8359375,208.0078125,-40.52734375
-479.00390625,-927.734375,-1000.0,-34.66796875
-361.328125,-1000.0,-1000.0,-25.87890625
170.8984375,-217.28515625,24.4140625,-35.64453125
401.3671875,999.51171875,999.51171875,-34.66796875
42.48046875,728.515625,355.46875,-28.3203125
-429.6875,-639.16015625,-934.08203125,-29.296875
-407.2265625,-1000.0,-1000.0,-33.203125
96.6796875,-201.66015625,-145.5078125,-46.875
382.32421875,999.51171875,999.51171875,-49.8046875
81.0546875,884.765625,550.78125,-47.8515625
-404.296875,-422.36328125,-800.29296875,-41.9921875
-443.359375,-1000.0,-1000.0,-28.80859375
68.359375,-183.59375,-186.03515625,-34.1796875
383.30078125,999.51171875,999.51171875,-52.734375
126.46484375,955.078125,750.48828125,-47.8515625
-360.83984375,-267.08984375,-582.03125,-41.50390625
-501.953125,-1000.0,-1000.0,-38.0859375
-22.4609375,-447.265625,-212.40234375,-35.15625
391.6015625,859.375,999.51171875,-36.1328125
210.44921875,999.51171875,942.87109375,-27.34375
-286.1328125,71.77734375,-284.1796875,-23.4375
-493.65234375,-1000.0,-1000.0,-26.85546875
-75.68359375,-474.609375,-264.16015625,-28.80859375
370.1171875,864.2578125,958.0078125,-38.0859375
240.72265625,999.51171875,999.51171875,-52.24609375
-253.41796875,192.3828125,27.83203125,-43.45703125
-511.71875,-1000.0,-1000.0,-32.71484375
-159.1796875,-814.94140625,-464.84375,-37.59765625
348.6328125,541.9921875,867.67578125,-35.64453125
305.6640625,999.51171875,999.51171875,-43.45703125
-217.28515625,164.0625,98.6328125,-52.24609375
-529.78515625,-1000.0,-1000.0,-48.33984375
-230.46875,-922.8515625,-644.04296875,-52.734375
290.52734375,352.05078125,709.9609375,-56.15234375
333.984375,999.51171875,999.51171875,-48.33984375
-131.8359375,430.17578125,163.0859375,-45.41015625
-506.34765625,-986.328125,-1000.0,-39.55078125
-273.4375,-939.94140625,-812.5,-38.0859375
274.90234375,437.98828125,517.08984375,-42.96875
377.44140625,999.51171875,999.51171875,-40.52734375
-73.73046875,217.28515625,165.0390625,-31.73828125
-485.3515625,-967.28515625,-1000.0,-29.78515625
-329.58984375,-1000.0,-1000.0,-25.390625
203.125,-225.09765625,122.55859375,-23.4375
402.34375,999.51171875,999.51171875,-33.69140625
5.859375,562.5,276.85546875,-36.62109375
-453.125,-859.86328125,-986.328125,-38.57421875
-375.9765625,-1000.0,-1000.0,-35.15625
169.921875,14.16015625,-0.48828125,-35.15625
414.0625,999.51171875,999.51171875,-39.55078125
46.875,667.48046875,414.55078125,-32.2265625
-422.36328125,-659.1796875,-892.578125,-26.85546875
-408.69140625,-1000.0,-1000.0,-27.83203125
98.6328125,-187.98828125,-170.41015625,-27.34375
407.2265625,999.51171875,999.51171875,-34.66796875
138.18359375,988.76953125,677.734375,-36.62109375
-345.21484375,-220.703125,-670.41015625,-24.90234375
-462.890625,-1000.0,-1000.0,-30.2734375
20.01953125,-232.421875,-191.40625,-30.76171875
394.53125,949.21875,999.51171875,-24.4140625
169.921875,999.51171875,932.12890625,-31.73828125
-329.1015625,204.1015625,-309.08203125,-31.25
-505.37109375,-1000.0,-1000.0,-33.203125
-41.9921875,-445.80078125,-225.5859375,-38.57421875
387.6953125,906.25,999.51171875,-43.45703125
211.42578125,999.51171875,999.51171875,-39.55078125
-278.3203125,142.08984375,-161.62109375,-30.76171875
-493.1640625,-1000.0,-1000.0,-39.55078125
-111.328125,-651.3671875,-340.33203125,-39.0625
347.65625,729.4921875,929.6875,-37.59765625
254.39453125,999.51171875,999.51171875,-56.15234375
-242.1875,169.43359375,33.203125,-53.22265625
-513.671875,-1000.0,-1000.0,-39.55078125
-177.24609375,-771.484375,-494.140625,-41.015625
320.80078125,595.21484375,835.9375,-42.96875
310.546875,999.51171875,999.51171875,-41.50390625
-177.734375,149.90234375,149.4140625,-42.96875
-507.32421875,-1000.0,-1000.0,-28.80859375
-233.88671875,-1000.0,-741.2109375,-11.23046875
279.296875,153.80859375,605.95703125,-22.4609375
341.30859375,999.51171875,999.51171875,-42.48046875
-101.5625,397.4609375,181.15234375,-45.41015625
-480.95703125,-939.94140625,-1000.0,-35.15625
-295.8984375,-1000.0,-929.19921875,-36.1328125
242.67578125,94.23828125,346.6796875,-59.08203125
387.6953125,999.51171875,999.51171875,-52.734375
-48.33984375,379.8828125,216.30859375,-39.55078125
-479.4921875,-910.64453125,-1000.0,-50.29296875
-358.3984375,-1000.0,-1000.0,-50.29296875
169.43359375,-192.87109375,61.03515625,-51.7578125
375.9765625,999.51171875,999.51171875,-63.4765625
8.7890625,778.3203125,390.13671875,-51.26953125
-449.70703125,-567.3828125,-917.48046875,-39.55078125
-404.296875,-1000.0,-1000.0,-47.8515625
117.1875,-161.62109375,-106.93359375,-58.10546875
401.85546875,972.16796875,999.51171875,-58.59375
119.140625,999.51171875,659.66796875,-32.71484375
-392.578125,109.375,-684.08203125,-47.8515625
-495.1171875,-1000.0,-1000.0,-86.9140625
18.06640625,-228.02734375,-182.12890625,-98.14453125
363.28125,999.51171875,999.51171875,-88.37890625
84.47265625,952.63671875,749.0234375,-90.8203125
-415.52734375,-273.92578125,-584.9609375,-92.7734375
-518.06640625,-1000.0,-1000.0,-47.36328125
-42.96875,-368.65234375,-199.21875,-63.4765625
333.49609375,904.78515625,999.51171875,-115.234375
154.296875,999.51171875,939.453125,-115.72265625
-344.23828125,49.31640625,-291.50390625,-115.234375
-545.8984375,-1000.0,-1000.0,-100.09765625
-102.5390625,-397.94921875,-242.1875,-93.75
336.9140625,915.52734375,982.91015625,-100.09765625
207.51953125,999.51171875,999.51171875,-90.33203125
-279.78515625,90.33203125,-73.2421875,-69.3359375
-517.08984375,-1000.0,-1000.0,-53.22265625
-143.06640625,-704.1015625,-408.69140625,-61.03515625
335.44921875,650.390625,891.11328125,-70.80078125
286.62109375,999.51171875,999.51171875,-62.98828125
-183.10546875,209.47265625,108.3984375,-44.43359375
-507.8125,-1000.0,-1000.0,-51.7578125
-213.37890625,-807.6171875,-610.3515625,-60.546875
316.40625,562.5,748.046875,-57.6171875
335.9375,999.51171875,999.51171875,-63.4765625
-158.203125,142.08984375,156.25,-60.546875
-517.08984375,-1000.0,-1000.0,-48.828125
-275.390625,-1000.0,-841.796875,-49.8046875
251.46484375,62.5,472.65625,-55.17578125
366.2109375,999.51171875,999.51171875,-46.875
-76.66015625,430.17578125,181.15234375,-45.8984375
-482.421875,-899.4140625,-1000.0,-40.0390625
-318.84765625,-1000.0,-1000.0,-40.52734375
208.984375,-54.6875,189.453125,-46.875
384.27734375,999.51171875,999.51171875,-49.8046875
13.18359375,919.43359375,306.640625,-46.38671875
-421.875,-317.3828125,-961.9140625,-32.71484375
-373.046875,-1000.0,-1000.0,-47.36328125
152.83203125,-202.63671875,-37.109375,-57.6171875
405.76171875,999.51171875,999.51171875,-41.9921875
54.6875,825.68359375,426.7578125,-35.15625
-421.875,-509.765625,-891.6015625,-26.85546875
-416.9921875,-1000.0,-1000.0,-26.85546875
104.4921875,-198.2421875,-160.15625,-33.69140625
408.69140625,999.51171875,999.51171875,-44.43359375
107.91015625,890.625,635.7421875,-47.8515625
-380.37109375,-395.5078125,-716.30859375,-25.87890625
-455.56640625,-1000.0,-1000.0,-35.15625
38.57421875,-269.53125,-195.80078125,-56.640625
398.92578125,957.51953125,999.51171875,-53.7109375
156.73828125,999.51171875,864.74609375,-53.7109375
-343.75,-39.0625,-422.36328125,-41.9921875
-495.1171875,-1000.0,-1000.0,-27.83203125
-22.4609375,-322.265625,-206.0546875,-34.1796875
395.01953125,939.453125,999.51171875,-45.41015625
221.19140625,999.51171875,994.62890625,-39.55078125
-283.203125,107.421875,-170.8984375,-35.64453125
-509.27734375,-1000.0,-1000.0,-33.203125
-95.21484375,-543.9453125,-307.6171875,-37.59765625
365.72265625,820.3125,938.4765625,-44.921875
263.18359375,999.51171875,999.51171875,-41.50390625
-226.5625,181.640625,70.80078125,-38.57421875
-518.5546875,-1000.0,-1000.0,-36.1328125
-191.40625,-875.9765625,-509.27734375,-40.0390625
328.61328125,454.1015625,832.51953125,-43.9453125
315.4296875,999.51171875,999.51171875,-35.64453125
-194.3359375,166.9921875,147.4609375,-38.57421875
-519.53125,-1000.0,-1000.0,-45.41015625
-225.09765625,-894.04296875,-681.640625,-38.57421875
303.7109375,401.3671875,674.31640625,-44.43359375
354.4921875,999.51171875,999.51171875,-37.109375
-100.5859375,618.1640625,179.19921875,-22.94921875
-489.2578125,-741.69921875,-1000.0,-26.3671875
-301.26953125,-1000.0,-895.5078125,-29.78515625
239.2578125,113.28125,400.390625,-37.59765625
379.39453125,999.51171875,999.51171875,-40.52734375
-51.7578125,242.67578125,190.4296875,-41.50390625
-472.16796875,-972.65625,-1000.0,-41.50390625
-333.0078125,-1000.0,-1000.0,-37.109375
203.125,-232.421875,76.171875,-38.0859375
402.34375,999.51171875,999.51171875,-50.29296875
24.4140625,653.3203125,351.5625,-41.50390625
-423.33984375,-745.1171875,-946.77734375,-25.390625
-385.7421875,-1000.0,-1000.0,-23.4375
136.23046875,-105.46875,-44.43359375,-34.66796875
411.62109375,999.51171875,999.51171875,-39.0625
90.33203125,848.14453125,546.38671875,-32.2265625
-404.78515625,-450.1953125,-790.52734375,-30.76171875
-439.94140625,-1000.0,-1000.0,-32.2265625
87.890625,-188.4765625,-174.31640625,-31.25
408.69140625,999.51171875,999.51171875,-39.0625
131.34765625,966.30859375,749.51171875,-39.55078125
-359.375,-269.04296875,-584.47265625,-28.80859375
-482.91015625,-1000.0,-1000.0,-26.85546875
6.8359375,-265.13671875,-193.84765625,-28.3203125
417.48046875,960.44921875,999.51171875,-29.78515625
204.1015625,999.51171875,937.01171875,-38.0859375
-309.5703125,-11.23046875,-298.828125,-37.59765625
-498.53515625,-1000.0,-1000.0,-34.1796875
-57.12890625,-478.515625,-247.0703125,-35.64453125
379.8828125,850.5859375,975.5859375,-44.43359375
234.375,999.51171875,999.51171875,-41.015625
-253.41796875,189.94140625,-51.26953125,-32.2265625
-527.83203125,-1000.0,-1000.0,-40.0390625
-144.04296875,-422.36328125,-357.421875,-44.43359375
354.00390625,895.99609375,914.0625,-43.9453125
278.80859375,999.51171875,999.51171875,-44.43359375
-200.68359375,366.2109375,141.6015625,-39.55078125
-519.04296875,-971.19140625,-1000.0,-35.64453125
-226.5625,-1000.0,-641.6015625,-36.1328125
286.62109375,199.70703125,720.703125,-41.015625
329.1015625,999.51171875,999.51171875,-41.015625
-152.34375,148.92578125,158.69140625,-34.1796875
-513.671875,-1000.0,-1000.0,-35.15625
-255.37109375,-1000.0,-825.1953125,-29.296875
268.5546875,92.28515625,499.0234375,-22.94921875
358.88671875,999.51171875,999.51171875,-38.0859375
-94.7265625,368.1640625,182.12890625,-46.875
-495.1171875,-1000.0,-1000.0,-34.66796875
-301.7578125,-953.61328125,-933.10546875,-29.78515625
246.58203125,373.046875,336.9140625,-34.1796875
401.3671875,999.51171875,999.51171875,-39.0625
-14.6484375,335.9375,222.16796875,-38.57421875
-462.40234375,-913.0859375,-990.234375,-36.1328125
-372.0703125,-1000.0,-1000.0,-45.8984375
167.48046875,-239.74609375,-62.5,-37.59765625
405.2734375,999.51171875,999.51171875,-37.59765625
48.33984375,693.359375,393.06640625,-42.96875
-411.62109375,-684.5703125,-919.43359375,-34.66796875
-411.1328125,-1000.0,-1000.0,-37.109375
111.81640625,-191.40625,-154.78515625,-34.66796875
421.875,999.51171875,999.51171875,-34.1796875
129.8828125,973.6328125,641.11328125,-37.59765625
-372.55859375,-265.625,-710.44921875,-41.50390625
-457.51953125,-1000.0,-1000.0,-37.59765625
41.9921875,-202.1484375,-194.3359375,-45.41015625
404.296875,999.51171875,999.51171875,-51.26953125
180.6640625,999.51171875,814.94140625,-49.8046875
-337.40234375,-151.3671875,-496.58203125,-41.015625
-485.83984375,-1000.0,-1000.0,-28.3203125
-13.18359375,-306.640625,-207.51953125,-33.203125
393.5546875,922.36328125,999.51171875,-37.109375
225.5859375,999.51171875,977.05078125,-34.66796875
-270.99609375,212.890625,-204.58984375,-29.78515625
-506.8359375,-1000.0,-1000.0,-30.76171875
-113.28125,-573.2421875,-307.6171875,-53.7109375
354.4921875,813.96484375,942.3828125,-59.5703125
259.765625,999.51171875,999.51171875,-42.96875
-230.46875,182.12890625,34.1796875,-36.62109375
-506.8359375,-1000.0,-1000.0,-34.66796875
-165.0390625,-860.3515625,-497.0703125,-33.203125
347.16796875,477.05078125,838.8671875,-41.015625
316.89453125,999.51171875,999.51171875,-48.828125
-195.3125,194.82421875,126.46484375,-41.50390625
-507.8125,-1000.0,-1000.0,-32.71484375
-199.70703125,-518.5546875,-608.88671875,-15.625
308.59375,852.5390625,746.58203125,75.68359375
352.05078125,999.51171875,999.51171875,139.16015625
-114.74609375,214.35546875,163.57421875,97.65625
-492.67578125,-988.28125,-1000.0,85.9375
-273.92578125,-1000.0,-927.734375,164.0625
246.58203125,-66.40625,340.8203125,294.43359375
371.58203125,999.51171875,999.51171875,263.671875
-72.75390625,372.55859375,200.1953125,19.53125
-504.39453125,-937.5,-1000.0,-115.234375
-349.609375,-1000.0,-1000.0,-32.2265625
197.75390625,-160.64453125,114.2578125,164.0625
404.78515625,999.51171875,999.51171875,208.49609375
22.94921875,650.87890625,337.40234375,13.18359375
-443.84765625,-717.28515625,-943.359375,-113.76953125
-392.08984375,-1000.0,-1000.0,-68.84765625
132.8125,-218.75,-91.796875,-33.203125
396.484375,999.51171875,999.51171875,-41.50390625
72.75390625,742.67578125,500.48828125,-61.03515625
-410.64453125,-626.46484375,-841.796875,-92.7734375
-439.94140625,-1000.0,-1000.0,-86.9140625
88.8671875,-161.1328125,-173.33984375,-49.31640625
412.59765625,969.7265625,999.51171875,-45.41015625
143.5546875,999.51171875,763.18359375,-77.1484375
-333.49609375,135.25390625,-562.98828125,-97.16796875
-458.49609375,-1000.0,-1000.0,-78.125
8.7890625,-392.08984375,-195.80078125,-47.36328125
393.5546875,934.08203125,999.51171875,-62.98828125
187.98828125,999.51171875,916.9921875,-84.9609375
-308.10546875,52.24609375,-330.56640625,-65.4296875
-488.76953125,-1000.0,-1000.0,-5.859375
-23.92578125,-364.74609375,-235.83984375,125.0
401.85546875,924.31640625,988.28125,237.79296875
221.19140625,999.51171875,999.51171875,216.30859375
-269.53125,155.76171875,-101.5625,117.1875
-517.08984375,-1000.0,-1000.0,98.6328125
-118.1640625,-250.9765625,-304.19921875,186.03515625
376.46484375,968.75,937.5,280.2734375
283.69140625,999.51171875,999.51171875,266.6015625
-197.75390625,330.078125,131.34765625,173.828125
-498.53515625,-1000.0,-1000.0,127.9296875
-206.54296875,-1000.0,-598.14453125,175.78125
308.59375,251.953125,759.27734375,236.328125
333.0078125,999.51171875,999.51171875,190.4296875
-157.71484375,151.85546875,160.15625,66.89453125
-498.53515625,-1000.0,-1000.0,-110.3515625
-254.39453125,-1000.0,-810.546875,-248.53515625
267.578125,121.09375,525.390625,-275.87890625
369.62890625,999.51171875,999.51171875,-278.3203125
-100.09765625,178.7109375,161.62109375,-263.18359375
-497.55859375,-997.0703125,-1000.0,-248.53515625
-324.21875,-1000.0,-991.69921875,-239.74609375
212.890625,-216.30859375,218.75,-223.6328125
410.64453125,999.51171875,999.51171875,-209.47265625
0.48828125,583.0078125,257.8125,-190.4296875
-467.7734375,-799.8046875,-987.3046875,-177.24609375
-361.328125,-1000.0,-1000.0,-178.22265625
166.015625,-199.21875,-13.671875,-177.24609375
398.4375,999.51171875,999.51171875,-161.1328125
59.08203125,909.1796875,403.80859375,-147.94921875
-413.0859375,-375.0,-907.71484375,-139.6484375
-398.92578125,-1000.0,-1000.0,-131.8359375
124.0234375,-202.1484375,-150.390625,-130.859375
419.921875,999.51171875,999.51171875,-121.58203125
124.0234375,871.58203125,584.47265625,-110.3515625
-369.62890625,-436.5234375,-768.06640625,-100.5859375
-445.80078125,-1000.0,-1000.0,-98.14453125
66.89453125,-202.1484375,-195.3125,-106.4453125
416.015625,968.26171875,999.51171875,-111.81640625
170.8984375,999.51171875,867.1875,-107.421875
-309.5703125,51.26953125,-423.33984375,-92.28515625
-470.21484375,-1000.0,-1000.0,-86.9140625
1.46484375,-197.265625,-188.4765625,-90.33203125
412.59765625,999.51171875,999.51171875,-100.09765625
204.1015625,999.51171875,965.33203125,-97.16796875
-295.8984375,-11.23046875,-230.46875,-84.9609375
-505.859375,-1000.0,-1000.0,-80.078125
-88.37890625,-495.1171875,-281.25,-79.1015625
369.62890625,837.40234375,954.58984375,-87.40234375
258.7890625,999.51171875,999.51171875,-84.47265625
-225.5859375,191.40625,18.06640625,-72.265625
-515.13671875,-1000.0,-1000.0,-71.2890625
-174.8046875,-741.69921875,-442.87109375,-79.58984375
333.0078125,609.86328125,869.140625,-78.61328125
302.734375,999.51171875,999.51171875,-81.0546875
-161.62109375,409.66796875,173.33984375,-76.171875
-500.0,-930.17578125,-1000.0,-68.84765625
-249.0234375,-1000.0,-687.01171875,-67.3828125
274.4140625,167.48046875,675.29296875,-70.3125
333.0078125,999.51171875,999.51171875,-75.68359375
-144.53125,143.06640625,159.66796875,-71.77734375
-499.51171875,-1000.0,-1000.0,-53.22265625
-260.7421875,-1000.0,-880.859375,-46.38671875
265.625,-1.46484375,416.9921875,-53.7109375
393.5546875,999.51171875,999.51171875,-58.10546875
-61.5234375,373.53515625,180.17578125,-67.3828125
-487.3046875,-925.29296875,-1000.0,-61.03515625
-336.42578125,-1000.0,-1000.0,-47.36328125
191.40625,-187.98828125,113.76953125,-50.78125
402.83203125,999.51171875,999.51171875,-46.875
28.80859375,629.39453125,311.03515625,-37.109375
-446.2890625,-750.0,-958.984375,-36.62109375
-384.765625,-1000.0,-1000.0,-30.76171875
151.3671875,-203.125,-80.078125,-26.85546875
402.83203125,999.51171875,999.51171875,-8.30078125
70.80078125,846.19140625,457.03125,22.4609375
-412.109375,-483.3984375,-873.53515625,6.8359375
-441.89453125,-1000.0,-1000.0,-22.94921875
74.21875,-166.50390625,-160.15625,-44.921875
401.3671875,999.51171875,999.51171875,-58.59375
124.0234375,960.44921875,684.08203125,-54.19921875
-368.1640625,-274.4140625,-659.1796875,-61.5234375
-455.56640625,-1000.0,-1000.0,-56.15234375
10.7421875,-245.1171875,-198.73046875,-49.8046875
374.0234375,976.5625,999.51171875,-60.05859375
175.78125,999.51171875,883.30078125,-59.5703125
-334.47265625,-62.98828125,-389.6484375,-69.3359375
-493.65234375,-1000.0,-1000.0,-61.5234375
-28.3203125,-403.80859375,-225.5859375,-47.8515625
390.625,883.7890625,973.6328125,-53.22265625
252.44140625,999.51171875,999.51171875,-38.0859375
-237.3046875,208.984375,-10.25390625,-36.1328125
-519.53125,-1000.0,-1000.0,-46.875
-131.34765625,-667.96875,-366.2109375,-40.0390625
369.62890625,725.09765625,920.41015625,-38.0859375
291.50390625,999.51171875,999.51171875,-40.52734375
-201.171875,165.52734375,95.703125,-34.1796875
-487.79296875,-1000.0,-1000.0,-17.08984375
-163.0859375,-958.984375,-558.59375,-9.27734375
340.33203125,321.2890625,792.96875,-4.8828125
351.5625,999.51171875,999.51171875,-7.8125
-135.25390625,147.4609375,145.5078125,-7.32421875
-465.8203125,-1000.0,-1000.0,-2.44140625
-210.44921875,-1000.0,-768.5546875,-3.41796875
291.9921875,138.671875,575.1953125,-4.39453125
383.30078125,999.51171875,999.51171875,-3.90625
-77.1484375,193.84765625,154.78515625,-9.765625
-461.9140625,-1000.0,-1000.0,-2.44140625
-261.23046875,-1000.0,-968.26171875,-1.46484375
253.90625,-70.80078125,267.08984375,-20.5078125
402.83203125,999.51171875,999.51171875,-26.85546875
-14.6484375,527.83203125,232.91015625,-37.109375
-469.7265625,-849.609375,-1000.0,-37.59765625
-359.86328125,-1000.0,-1000.0,-33.203125
193.359375,-56.15234375,49.8046875,-28.3203125
428.22265625,999.51171875,999.51171875,-18.5546875
52.24609375,577.63671875,347.16796875,-20.5078125
-422.8515625,-776.85546875,-937.5,-28.80859375
-391.6015625,-1000.0,-1000.0,-20.01953125
127.44140625,-177.734375,-133.30078125,-7.32421875
416.9921875,985.83984375,999.51171875,-16.11328125
107.421875,999.51171875,583.984375,-26.3671875
-384.27734375,-40.0390625,-763.18359375,-24.90234375
-437.01171875,-1000.0,-1000.0,-20.01953125
84.47265625,-216.30859375,-191.40625,0.48828125
424.31640625,972.65625,999.51171875,-0.9765625
171.38671875,999.51171875,873.53515625,-30.76171875
-328.125,165.52734375,-415.0390625,-38.0859375
-477.05078125,-1000.0,-1000.0,-27.34375
0.48828125,-226.07421875,-192.3828125,-16.6015625
408.69140625,999.51171875,999.51171875,-20.99609375
228.515625,999.51171875,946.77734375,-23.4375
-271.97265625,20.5078125,-269.53125,-20.01953125
-490.234375,-1000.0,-1000.0,-28.80859375
-84.47265625,-576.66015625,-291.015625,-27.34375
365.72265625,778.3203125,958.49609375,-27.83203125
254.39453125,999.51171875,999.51171875,-41.015625
-234.375,149.4140625,-47.8515625,-39.0625
-493.1640625,-1000.0,-1000.0,-28.3203125
-136.23046875,-706.0546875,-416.9921875,-27.34375
346.19140625,669.43359375,886.71875,-32.71484375
297.8515625,999.51171875,999.51171875,-35.15625
-181.640625,163.0859375,117.67578125,-29.78515625
-479.00390625,-1000.0,-1000.0,-19.04296875
-182.6171875,-969.23828125,-664.55078125,-13.18359375
322.265625,329.58984375,717.28515625,-20.99609375
327.1484375,999.51171875,999.51171875,-41.015625
-155.2734375,88.37890625,69.82421875,-46.875
-488.76953125,-1000.0,-1000.0,-37.109375
-260.25390625,-1000.0,-903.80859375,-29.296875
266.11328125,126.953125,387.20703125,-24.90234375
384.27734375,999.51171875,999.51171875,-42.96875
-67.3828125,261.23046875,170.41015625,-51.26953125
-493.65234375,-973.6328125,-1000.0,-41.50390625
-333.984375,-1000.0,-1000.0,-43.9453125
202.1484375,-121.09375,167.96875,-52.24609375
392.578125,999.51171875,999.51171875,-16.11328125
8.30078125,665.52734375,287.59765625,34.66796875
-443.359375,-688.96484375,-970.21484375,43.45703125
-362.79296875,-1000.0,-1000.0,90.33203125
171.38671875,-161.62109375,-54.19921875,128.41796875
405.76171875,987.3046875,999.51171875,148.92578125
73.2421875,999.51171875,541.015625,116.2109375
-404.296875,-21.484375,-798.33984375,-10.7421875
-433.10546875,-1000.0,-1000.0,-81.0546875
86.9140625,-229.00390625,-176.7578125,-93.26171875
408.69140625,999.51171875,999.51171875,-10.25390625
132.8125,891.11328125,643.06640625,34.66796875
-371.58203125,-408.69140625,-711.42578125,-73.2421875
-466.796875,-1000.0,-1000.0,-85.9375
42.48046875,-193.359375,-198.2421875,52.24609375
420.8984375,984.86328125,999.51171875,182.12890625
184.5703125,999.51171875,875.0,62.01171875
-316.40625,-37.109375,-407.2265625,-97.16796875
-487.79296875,-1000.0,-1000.0,-97.65625
-33.69140625,-193.84765625,-203.125,-96.19140625
379.8828125,983.3984375,999.51171875,-111.328125
210.9375,999.51171875,994.62890625,-59.08203125
-280.2734375,152.83203125,-160.15625,-19.53125
-510.7421875,-1000.0,-1000.0,11.23046875
-95.703125,-649.4140625,-361.81640625,146.97265625
375.9765625,727.5390625,914.0625,265.13671875
280.2734375,999.51171875,999.51171875,268.06640625
-214.35546875,195.3125,62.01171875,178.22265625
-516.6015625,-1000.0,-1000.0,130.37109375
-174.8046875,-640.625,-511.71875,197.265625
336.42578125,750.48828125,830.56640625,287.59765625
319.82421875,999.51171875,999.51171875,282.71484375
-174.8046875,148.4375,131.34765625,176.7578125
-514.6484375,-1000.0,-1000.0,107.91015625
-235.83984375,-1000.0,-765.625,154.78515625
274.90234375,69.82421875,573.2421875,223.6328125
366.2109375,999.51171875,999.51171875,222.16796875
-87.890625,320.3125,166.50390625,129.8828125
-507.8125,-957.51953125,-1000.0,43.45703125
-318.84765625,-1000.0,-954.58984375,87.890625
226.5625,-82.51953125,294.43359375,181.15234375
387.6953125,999.51171875,999.51171875,237.3046875
-28.3203125,592.7734375,235.3515625,41.015625
-478.02734375,-765.13671875,-1000.0,-296.38671875
-366.69921875,-1000.0,-1000.0,-306.15234375
188.4765625,-233.88671875,32.2265625,-66.40625
417.48046875,999.51171875,999.51171875,-48.828125
11.23046875,410.15625,313.4765625,-290.52734375
-460.9375,-935.546875,-954.58984375,-349.609375
-399.4140625,-1000.0,-1000.0,-310.546875
122.55859375,-214.84375,-145.01953125,-299.31640625
415.0390625,999.51171875,999.51171875,-286.62109375
111.81640625,922.36328125,548.828125,-265.13671875
-382.32421875,-357.421875,-802.734375,-253.90625
-435.546875,-1000.0,-1000.0,-240.234375
69.82421875,-179.19921875,-179.6875,-235.83984375
401.85546875,999.51171875,999.51171875,-236.328125
143.06640625,999.51171875,757.32421875,-222.65625
-349.609375,-134.765625,-571.2890625,-216.30859375
-467.7734375,-1000.0,-1000.0,-205.56640625
17.08984375,-254.39453125,-190.4296875,-193.84765625
404.296875,943.84765625,999.51171875,-150.87890625
214.35546875,999.51171875,954.58984375,-86.42578125
-270.5078125,226.07421875,-253.41796875,-66.89453125
-487.3046875,-1000.0,-1000.0,-27.34375
-66.40625,-451.171875,-255.37109375,81.0546875
382.8125,903.3203125,978.02734375,156.73828125
243.65234375,999.51171875,999.51171875,114.2578125
-243.65234375,156.25,-60.546875,30.76171875
-504.39453125,-1000.0,-1000.0,-22.94921875
-150.87890625,-822.265625,-419.43359375,-41.015625
357.421875,521.97265625,884.27734375,18.06640625
312.98828125,999.51171875,999.51171875,73.73046875
-195.3125,161.62109375,120.60546875,20.5078125
-509.27734375,-1000.0,-1000.0,27.34375
-205.078125,-956.0546875,-631.34765625,28.3203125
310.05859375,293.9453125,725.5859375,-98.14453125
348.14453125,999.51171875,999.51171875,-126.46484375
-124.0234375,449.21875,169.43359375,-76.66015625
-489.74609375,-913.57421875,-1000.0,-44.921875
-263.671875,-1000.0,-827.1484375,26.85546875
270.5078125,152.34375,497.55859375,138.671875
374.51171875,999.51171875,999.51171875,166.015625
-76.171875,500.0,177.24609375,15.13671875
-486.328125,-825.1953125,-1000.0,-89.84375
-336.9140625,-1000.0,-1000.0,-48.828125
193.84765625,-191.89453125,165.52734375,15.625
387.20703125,999.51171875,999.51171875,34.66796875
-8.30078125,507.8125,265.625,2.9296875
-466.796875,-915.52734375,-1000.0,-20.01953125
-374.51171875,-1000.0,-1000.0,37.59765625
164.0625,87.40234375,64.453125,108.88671875
389.16015625,999.51171875,999.51171875,68.84765625
46.38671875,850.09765625,467.28515625,-20.01953125
-416.50390625,-396.484375,-854.00390625,-36.62109375
-416.50390625,-1000.0,-1000.0,18.5546875
113.76953125,-196.2890625,-139.6484375,134.765625
418.45703125,999.51171875,999.51171875,212.890625
108.88671875,910.64453125,624.51171875,153.80859375
-390.13671875,-372.0703125,-723.6328125,54.6875
-465.8203125,-1000.0,-1000.0,54.19921875
35.64453125,-202.1484375,-191.89453125,142.578125
408.69140625,968.26171875,999.51171875,193.84765625
186.5234375,999.51171875,892.578125,159.1796875
-315.4296875,80.56640625,-374.51171875,72.265625
-492.67578125,-1000.0,-1000.0,40.0390625
-36.1328125,-439.94140625,-214.84375,119.62890625
387.20703125,886.71875,999.51171875,196.77734375
219.23828125,999.51171875,999.51171875,159.66796875
-286.1328125,173.828125,-139.6484375,47.36328125
-516.6015625,-1000.0,-1000.0,14.16015625
-94.23828125,-581.54296875,-312.5,97.16796875
370.1171875,792.48046875,937.5,175.29296875
255.37109375,999.51171875,999.51171875,145.5078125
-234.375,249.51171875,77.1484375,38.57421875
-522.4609375,-1000.0,-1000.0,-14.16015625
-194.3359375,-919.921875,-507.32421875,52.24609375
324.21875,412.59765625,834.9609375,150.390625
332.03125,999.51171875,999.51171875,149.4140625
-162.109375,148.4375,134.765625,45.41015625
-501.953125,-1000.0,-1000.0,-18.06640625
-211.9140625,-1000.0,-721.19140625,40.52734375
304.19921875,162.109375,626.46484375,121.09375
365.72265625,999.51171875,999.51171875,111.81640625
-101.07421875,248.046875,170.8984375,2.44140625
-510.25390625,-1000.0,-1000.0,-79.58984375
-293.45703125,-891.11328125,-857.421875,-22.4609375
256.8359375,427.734375,453.61328125,89.35546875
381.34765625,999.51171875,999.51171875,109.86328125
-62.01171875,370.1171875,203.125,8.7890625
-481.93359375,-902.83203125,-1000.0,-66.89453125
-343.75,-1000.0,-1000.0,-25.87890625
181.15234375,-168.45703125,103.515625,69.82421875
391.11328125,999.51171875,999.51171875,105.95703125
19.04296875,552.734375,303.7109375,28.3203125
-454.1015625,-819.3359375,-959.9609375,-62.01171875
-406.73828125,-1000.0,-1000.0,-47.36328125
139.16015625,-191.40625,-97.65625,49.8046875
405.76171875,999.51171875,999.51171875,97.16796875
85.44921875,999.51171875,603.02734375,34.1796875
-401.85546875,-192.3828125,-747.55859375,-66.40625
-448.2421875,-1000.0,-1000.0,-81.0546875
78.61328125,-187.5,-172.36328125,16.11328125
401.3671875,999.51171875,999.51171875,82.51953125
119.62890625,999.51171875,728.02734375,23.4375
-363.28125,-184.5703125,-612.79296875,-76.66015625
-482.91015625,-1000.0,-1000.0,-89.84375
12.20703125,-168.9453125,-194.3359375,1.953125
401.3671875,973.14453125,999.51171875,79.1015625
173.33984375,999.51171875,927.24609375,30.2734375
-312.98828125,214.35546875,-304.6875,-80.078125
-499.51171875,-1000.0,-1000.0,-105.46875
-71.77734375,-622.0703125,-256.8359375,-19.53125
390.13671875,777.83203125,979.98046875,75.1953125
257.8125,999.51171875,999.51171875,43.9453125
-270.5078125,109.375,-91.796875,-68.359375
-525.390625,-1000.0,-1000.0,-112.79296875
-139.16015625,-740.234375,-381.8359375,-36.1328125
342.7734375,618.1640625,901.3671875,62.5
281.25,999.51171875,999.51171875,53.22265625
-202.1484375,194.3359375,118.65234375,-43.9453125
-500.0,-1000.0,-1000.0,-90.33203125
-167.96875,-580.078125,-526.3671875,-35.15625
342.28515625,804.6875,822.75390625,48.33984375
321.77734375,999.51171875,999.51171875,46.38671875
-169.921875,157.2265625,156.25,-48.33984375
-509.27734375,-1000.0,-1000.0,-115.234375
-268.06640625,-1000.0,-807.6171875,-68.359375
248.53515625,145.01953125,522.94921875,30.76171875
351.07421875,999.51171875,999.51171875,51.7578125
-113.28125,231.4453125,163.57421875,-45.8984375
-516.11328125,-1000.0,-1000.0,-133.7890625
-321.77734375,-1000.0,-983.3984375,-88.8671875
212.890625,3.90625,242.1875,19.53125
387.6953125,999.51171875,999.51171875,40.52734375
-27.34375,466.30859375,247.55859375,-52.24609375
-486.81640625,-868.65234375,-993.65234375,-120.60546875
-385.7421875,-1000.0,-1000.0,-85.9375
146.97265625,-199.70703125,7.32421875,0.0
400.87890625,999.51171875,999.51171875,60.546875
51.7578125,759.765625,402.83203125,-3.90625
-440.91796875,-597.65625,-905.2734375,-120.60546875
-435.546875,-1000.0,-1000.0,-120.60546875
99.609375,-175.78125,-141.11328125,-19.04296875
407.2265625,996.58203125,999.51171875,43.45703125
98.14453125,999.51171875,624.51171875,-23.4375
-390.13671875,-85.44921875,-724.609375,-127.9296875
-464.84375,-1000.0,-1000.0,-137.20703125
1.46484375,-302.24609375,-192.3828125,-52.734375
349.609375,959.47265625,999.51171875,13.18359375
126.953125,999.51171875,854.4921875,-30.76171875
-371.09375,-10.7421875,-438.4765625,-125.9765625
-520.99609375,-1000.0,-1000.0,-150.390625
-49.31640625,-463.8671875,-208.984375,-50.29296875
366.2109375,870.60546875,999.51171875,46.875
192.87109375,999.51171875,982.421875,-0.9765625
-301.7578125,96.19140625,-204.58984375,-104.4921875
-528.80859375,-1000.0,-1000.0,-135.7421875
-112.3046875,-297.8515625,-253.90625,-60.05859375
363.28125,954.58984375,968.26171875,44.921875
255.37109375,999.51171875,999.51171875,35.64453125
-255.859375,192.3828125,21.97265625,-77.1484375
-532.71484375,-1000.0,-1000.0,-127.44140625
-167.48046875,-865.72265625,-473.6328125,-46.38671875
330.078125,466.796875,851.07421875,45.8984375
308.10546875,999.51171875,999.51171875,37.109375
-184.5703125,153.80859375,141.11328125,-60.546875
-510.7421875,-1000.0,-1000.0,-116.2109375
-215.33203125,-1000.0,-679.19921875,-51.7578125
307.12890625,226.5625,676.26953125,47.8515625
358.3984375,999.51171875,999.51171875,63.96484375
-99.12109375,325.1953125,177.734375,-15.625
-477.5390625,-1000.0,-1000.0,-82.03125
-256.34765625,-766.11328125,-796.38671875,-48.828125
284.66796875,631.8359375,539.55078125,47.36328125
383.30078125,999.51171875,999.51171875,76.171875
-65.91796875,233.3984375,176.26953125,-20.5078125
-485.3515625,-962.890625,-1000.0,-109.86328125
-340.33203125,-1000.0,-1000.0,-90.8203125
186.5234375,-179.19921875,140.625,7.8125
392.08984375,999.51171875,999.51171875,52.24609375
-0.48828125,493.65234375,287.59765625,-31.25
-459.9609375,-875.48828125,-966.796875,-120.60546875
-376.46484375,-1000.0,-1000.0,-94.23828125
148.92578125,-206.54296875,-93.75,8.7890625
410.64453125,999.51171875,999.51171875,57.12890625
88.37890625,928.22265625,506.34765625,7.32421875
-395.01953125,-348.6328125,-837.40234375,-74.21875
-420.8984375,-1000.0,-1000.0,-84.9609375
103.02734375,-186.03515625,-161.1328125,11.71875
420.41015625,999.51171875,999.51171875,86.42578125
128.90625,988.76953125,717.28515625,29.78515625
-372.55859375,-231.93359375,-625.9765625,-76.66015625
-468.75,-1000.0,-1000.0,-91.30859375
33.203125,-174.8046875,-186.03515625,-4.8828125
430.6640625,999.51171875,999.51171875,74.70703125
203.61328125,999.51171875,891.11328125,36.62109375
-333.0078125,-29.296875,-371.58203125,-105.95703125
-531.73828125,-1000.0,-1000.0,-164.0625
-74.21875,-396.97265625,-218.26171875,-86.42578125
360.3515625,894.53125,992.67578125,-12.20703125
196.2890625,999.51171875,999.51171875,-48.828125
-319.82421875,169.43359375,-93.75,-163.0859375
-570.3125,-1000.0,-1000.0,-209.47265625
-170.8984375,-738.28125,-371.58203125,-131.8359375
322.75390625,631.8359375,909.66796875,-29.296875
252.9296875,999.51171875,999.51171875,-28.80859375
-247.0703125,175.78125,97.16796875,-135.7421875
-541.015625,-1000.0,-1000.0,-183.59375
-195.3125,-844.7265625,-548.33984375,-107.91015625
320.80078125,492.67578125,799.31640625,-14.16015625
314.453125,999.51171875,999.51171875,-8.7890625
-168.45703125,201.171875,170.41015625,-96.6796875
-522.94921875,-1000.0,-1000.0,-158.69140625
-267.08984375,-1000.0,-780.2734375,-102.5390625
271.97265625,125.9765625,564.453125,-4.39453125
358.3984375,999.51171875,999.51171875,2.9296875
-99.609375,251.46484375,167.48046875,-71.2890625
-483.88671875,-1000.0,-1000.0,-126.46484375
-290.0390625,-989.2578125,-908.69140625,-101.07421875
232.91015625,266.11328125,371.09375,-7.32421875
391.11328125,999.51171875,999.51171875,32.71484375
-17.578125,417.96875,221.6796875,-39.55078125
-462.890625,-874.0234375,-1000.0,-127.44140625
-352.5390625,-1000.0,-1000.0,-120.60546875
173.828125,-220.703125,23.92578125,-12.6953125
395.01953125,999.51171875,999.51171875,39.55078125
36.62109375,714.35546875,371.58203125,-46.875
-430.17578125,-686.03515625,-934.5703125,-128.90625
-403.3203125,-1000.0,-1000.0,-107.421875
134.765625,-46.38671875,-84.9609375,-7.32421875
419.43359375,999.51171875,999.51171875,48.828125
96.19140625,811.5234375,566.40625,-29.78515625
-398.4375,-486.81640625,-775.390625,-130.37109375
-451.171875,-1000.0,-1000.0,-120.1171875
70.80078125,-167.48046875,-187.01171875,-22.94921875
405.76171875,984.375,999.51171875,35.15625
141.11328125,999.51171875,798.828125,-15.13671875
-344.23828125,19.04296875,-518.06640625,-113.28125
-482.91015625,-1000.0,-1000.0,-125.9765625
-0.9765625,-251.953125,-188.4765625,-20.01953125
415.52734375,960.44921875,999.51171875,56.640625
217.7734375,999.51171875,993.1640625,2.44140625
-289.55078125,228.02734375,-175.78125,-100.09765625
-504.8828125,-1000.0,-1000.0,-131.34765625
-74.21875,-519.04296875,-275.390625,-39.0625
389.6484375,859.375,967.7734375,55.17578125
263.18359375,999.51171875,999.51171875,32.71484375
-234.86328125,203.61328125,-26.3671875,-66.89453125
-511.23046875,-1000.0,-1000.0,-112.3046875
-157.2265625,-643.5546875,-411.1328125,-48.33984375
344.7265625,748.53515625,893.5546875,43.9453125
299.8046875,999.51171875,999.51171875,31.73828125
-205.078125,157.71484375,111.328125,-82.51953125
-510.7421875,-1000.0,-1000.0,-120.1171875
-206.54296875,-1000.0,-666.9921875,-55.17578125
302.734375,199.70703125,687.01171875,28.80859375
345.21484375,999.51171875,999.51171875,39.55078125
-125.9765625,216.30859375,158.203125,-52.734375
-485.83984375,-1000.0,-1000.0,-108.3984375
-265.625,-1000.0,-853.515625,-72.75390625
254.8828125,149.4140625,457.03125,16.6015625
370.1171875,999.51171875,999.51171875,51.7578125
-64.94140625,570.80078125,204.58984375,-35.15625
-475.09765625,-755.859375,-1000.0,-118.1640625
-339.35546875,-1000.0,-1000.0,-90.33203125
187.5,-180.17578125,120.60546875,1.953125
390.625,999.51171875,999.51171875,41.9921875
14.6484375,623.046875,272.4609375,-21.97265625
-429.19921875,-754.8828125,-978.515625,-101.5625
-384.27734375,-1000.0,-1000.0,-112.3046875
119.62890625,-214.35546875,-65.91796875,-31.25
389.6484375,999.51171875,999.51171875,35.64453125
60.546875,799.8046875,452.1484375,-30.2734375
-416.9921875,-547.36328125,-873.046875,-116.69921875
-427.734375,-1000.0,-1000.0,-97.65625
83.0078125,-161.1328125,-176.26953125,-17.08984375
387.20703125,972.65625,999.51171875,30.76171875
121.58203125,999.51171875,750.0,-17.578125
-353.515625,121.09375,-585.44921875,-107.421875
-478.02734375,-1000.0,-1000.0,-115.72265625
10.25390625,-325.1953125,-194.82421875,-24.4140625
396.484375,965.8203125,999.51171875,49.31640625
176.26953125,999.51171875,896.484375,4.39453125
-318.84765625,33.203125,-369.140625,-104.00390625
-496.09375,-1000.0,-1000.0,-127.44140625
-55.17578125,-474.12109375,-227.05078125,-40.52734375
373.53515625,863.76953125,998.53515625,39.55078125
220.21484375,999.51171875,999.51171875,11.23046875
-278.80859375,157.2265625,-149.4140625,-93.26171875
-508.7890625,-1000.0,-1000.0,-129.8828125
-104.98046875,-473.6328125,-307.6171875,-53.22265625
349.609375,881.8359375,946.2890625,28.80859375
257.8125,999.51171875,999.51171875,11.23046875
-219.23828125,154.296875,32.2265625,-80.56640625
-495.60546875,-1000.0,-1000.0,-112.3046875
-160.64453125,-842.28515625,-531.25,-40.52734375
346.19140625,494.140625,808.10546875,58.59375
323.2421875,999.51171875,999.51171875,47.8515625
-187.01171875,162.59765625,149.90234375,-65.4296875
-517.578125,-1000.0,-1000.0,-110.3515625
-232.91015625,-939.94140625,-743.1640625,-62.01171875
292.48046875,346.19140625,606.4453125,24.4140625
353.515625,999.51171875,999.51171875,45.8984375
-126.46484375,199.21875,159.1796875,-53.22265625
-504.8828125,-986.328125,-1000.0,-121.58203125
-303.22265625,-1000.0,-966.30859375,-68.84765625
229.00390625,-145.99609375,275.390625,29.296875
394.04296875,999.51171875,999.51171875,48.33984375
-45.8984375,387.6953125,202.1484375,-43.9453125
-490.72265625,-941.40625,-1000.0,-126.953125
-360.83984375,-1000.0,-1000.0,-81.0546875
177.734375,-123.046875,67.3828125,20.01953125
398.4375,999.51171875,999.51171875,62.01171875
40.52734375,947.265625,386.23046875,-8.7890625
-428.22265625,-282.71484375,-914.0625,-110.3515625
-413.0859375,-1000.0,-1000.0,-105.46875
121.09375,-208.0078125,-135.25390625,-6.34765625
414.0625,999.51171875,999.51171875,57.6171875
84.47265625,831.0546875,514.6484375,-8.7890625
-419.43359375,-503.41796875,-830.56640625,-114.74609375
-460.44921875,-1000.0,-1000.0,-113.76953125
70.3125,-186.03515625,-205.56640625,2.44140625
422.8515625,999.51171875,999.51171875,58.59375
146.97265625,983.3984375,713.37890625,-10.7421875
-359.375,-243.65234375,-635.25390625,-110.3515625
-476.07421875,-1000.0,-1000.0,-117.67578125
13.18359375,-166.9921875,-194.3359375,-33.203125
395.01953125,986.81640625,999.51171875,39.55078125
192.87109375,999.51171875,912.109375,-3.90625
-304.6875,76.66015625,-332.03125,-108.88671875
-503.90625,-1000.0,-1000.0,-123.53515625
-58.59375,-433.59375,-263.671875,-47.8515625
360.3515625,888.18359375,974.12109375,14.16015625
207.51953125,999.51171875,999.51171875,-26.3671875
-276.3671875,169.921875,-81.0546875,-117.1875
-524.4140625,-1000.0,-1000.0,-132.8125
-152.34375,-854.00390625,-449.21875,-75.1953125
333.984375,479.98046875,859.86328125,-1.953125
291.50390625,999.51171875,999.51171875,2.9296875
-193.84765625,145.01953125,130.859375,-89.84375
-495.1171875,-1000.0,-1000.0,-136.23046875
-199.70703125,-1000.0,-685.05859375,-71.77734375
301.7578125,116.69921875,673.828125,24.4140625
346.6796875,999.51171875,999.51171875,26.85546875
-135.25390625,149.90234375,151.85546875,-67.87109375
-498.53515625,-1000.0,-1000.0,-130.859375
-260.7421875,-1000.0,-848.14453125,-80.078125
267.578125,96.19140625,462.40234375,25.390625
384.27734375,999.51171875,999.51171875,47.36328125
-30.2734375,827.63671875,207.03125,-34.66796875
-442.3828125,-455.56640625,-1000.0,-112.3046875
-312.98828125,-1000.0,-1000.0,-81.0546875
222.65625,-64.453125,199.21875,15.13671875
395.01953125,999.51171875,999.51171875,52.24609375
-27.83203125,280.76171875,232.421875,-41.50390625
-457.51953125,-980.46875,-1000.0,-132.32421875
-337.890625,-1000.0,-1000.0,-89.84375
179.19921875,-181.15234375,9.27734375,17.578125
410.15625,999.51171875,999.51171875,57.12890625
65.4296875,839.84375,471.6796875,-27.83203125
-416.9921875,-488.76953125,-865.234375,-122.55859375
-407.2265625,-1000.0,-1000.0,-110.3515625
132.8125,-116.2109375,-78.61328125,-9.27734375
421.38671875,999.51171875,999.51171875,31.25
123.53515625,994.140625,716.30859375,-31.25
-360.3515625,-198.2421875,-614.2578125,-118.1640625
-444.82421875,-1000.0,-1000.0,-133.7890625
61.5234375,-184.08203125,-159.66796875,-38.0859375
419.921875,999.51171875,999.51171875,22.94921875
181.15234375,995.60546875,862.79296875,-32.2265625
-322.75390625,-195.80078125,-417.48046875,-132.8125
-482.421875,-1000.0,-1000.0,-143.5546875
-2.44140625,-270.01953125,-187.98828125,-63.4765625
403.3203125,939.94140625,999.51171875,0.48828125
215.8203125,999.51171875,999.51171875,-32.71484375
-276.3671875,166.50390625,-96.6796875,-149.90234375
-514.6484375,-1000.0,-1000.0,-198.2421875
-104.4921875,-593.26171875,-291.50390625,-101.5625
384.765625,786.1328125,945.80078125,0.0
288.57421875,999.51171875,999.51171875,-26.3671875
-207.51953125,202.63671875,110.3515625,-133.7890625
-512.6953125,-1000.0,-1000.0,-213.8671875
-163.0859375,-535.15625,-425.29296875,-166.9921875
359.375,831.0546875,893.06640625,-66.89453125
318.84765625,999.51171875,999.51171875,-83.984375
-160.15625,354.98046875,183.59375,-194.3359375
-503.90625,-979.00390625,-1000.0,-230.95703125
-230.46875,-1000.0,-679.19921875,-151.85546875
294.43359375,239.2578125,684.5703125,-65.91796875
349.12109375,999.51171875,999.51171875,-55.6640625
-104.4921875,275.87890625,177.734375,-119.140625
-498.046875,-1000.0,-1000.0,-167.48046875
-291.9921875,-1000.0,-859.86328125,-100.5859375
257.32421875,119.62890625,447.265625,35.15625
384.765625,999.51171875,999.51171875,79.58984375
-50.29296875,401.3671875,223.14453125,7.32421875
-484.375,-961.9140625,-1000.0,-59.08203125
-331.54296875,-1000.0,-999.0234375,-23.92578125
216.30859375,188.96484375,217.28515625,81.54296875
392.578125,999.51171875,999.51171875,123.53515625
16.11328125,494.140625,323.2421875,45.41015625
-445.3125,-820.80078125,-944.3359375,-52.24609375
-394.04296875,-1000.0,-1000.0,-27.83203125
136.71875,-203.61328125,-87.40234375,57.6171875
383.30078125,999.51171875,999.51171875,99.12109375
73.2421875,934.5703125,558.10546875,54.6875
-396.97265625,-337.890625,-786.1328125,-36.1328125
-436.5234375,-1000.0,-1000.0,-27.83203125
88.37890625,-184.5703125,-178.22265625,71.2890625
407.71484375,999.51171875,999.51171875,125.48828125
137.20703125,992.67578125,751.46484375,70.80078125
-362.79296875,-197.75390625,-583.49609375,-36.62109375
-475.09765625,-1000.0,-1000.0,-62.5
0.9765625,-371.09375,-195.80078125,30.2734375
394.53125,922.8515625,999.51171875,101.5625
188.96484375,999.51171875,921.38671875,41.9921875
-321.77734375,-47.8515625,-328.125,-57.6171875
-511.23046875,-1000.0,-1000.0,-75.68359375
-65.4296875,-392.08984375,-224.609375,5.37109375
387.6953125,892.578125,972.65625,90.33203125
240.234375,999.51171875,999.51171875,67.87109375
-245.1171875,208.49609375,20.5078125,-37.109375
-502.44140625,-1000.0,-1000.0,-78.125
-130.37109375,-689.94140625,-381.34765625,-3.41796875
363.28125,698.2421875,915.52734375,83.49609375
285.64453125,999.51171875,999.51171875,58.59375
-215.8203125,173.828125,106.93359375,-50.78125
-513.18359375,-1000.0,-1000.0,-97.65625
-192.87109375,-885.7421875,-550.78125,-33.203125
321.2890625,439.94140625,798.33984375,64.94140625
339.35546875,999.51171875,999.51171875,75.68359375
-146.484375,190.4296875,172.36328125,-27.34375
-514.16015625,-1000.0,-1000.0,-104.00390625
-248.046875,-618.1640625,-694.82421875,-47.8515625
281.73828125,754.8828125,661.62109375,54.19921875
357.91015625,999.51171875,999.51171875,60.05859375
-81.54296875,283.203125,178.7109375,-30.2734375
-482.91015625,-954.1015625,-1000.0,-92.7734375
-314.94140625,-1000.0,-977.05078125,-50.78125
225.5859375,-91.30859375,255.37109375,43.9453125
397.94921875,999.51171875,999.51171875,76.66015625
-18.5546875,479.00390625,257.32421875,-14.16015625
-478.515625,-885.7421875,-996.58203125,-114.74609375
-373.53515625,-1000.0,-1000.0,-93.75
168.9453125,-120.60546875,49.31640625,14.6484375
398.92578125,999.51171875,999.51171875,51.7578125
39.55078125,666.9921875,398.4375,-14.6484375
-426.26953125,-689.94140625,-903.80859375,-102.5390625
-412.59765625,-1000.0,-1000.0,-110.3515625
113.76953125,-211.9140625,-149.90234375,-10.7421875
424.8046875,999.51171875,999.51171875,47.36328125
115.72265625,803.22265625,586.42578125,-11.71875
-379.8828125,-541.9921875,-767.08984375,-108.3984375
-452.63671875,-1000.0,-1000.0,-121.58203125
48.828125,-157.2265625,-185.05859375,-30.76171875
411.62109375,961.9140625,999.51171875,33.203125
176.7578125,999.51171875,871.58203125,-21.484375
-328.61328125,231.93359375,-404.78515625,-135.7421875
-497.0703125,-1000.0,-1000.0,-151.85546875
-30.2734375,-420.8984375,-208.49609375,-45.41015625
390.13671875,940.91796875,999.51171875,34.1796875
208.49609375,999.51171875,956.0546875,-0.9765625
-300.29296875,5.859375,-252.9296875,-88.8671875
-517.578125,-1000.0,-1000.0,-119.62890625
-102.5390625,-419.921875,-274.4140625,-49.8046875
343.26171875,887.6953125,959.9609375,30.76171875
242.67578125,999.51171875,999.51171875,8.7890625
-265.625,191.40625,-1.953125,-89.84375
-551.26953125,-1000.0,-1000.0,-123.53515625
-165.52734375,-452.1484375,-402.83203125,-46.875
334.47265625,894.53125,896.484375,42.48046875
289.55078125,999.51171875,999.51171875,31.25
-199.21875,188.96484375,141.6015625,-75.1953125
-514.16015625,-1000.0,-1000.0,-130.37109375
-206.0546875,-879.39453125,-631.8359375,-72.265625
296.875,448.73046875,725.09765625,20.99609375
340.33203125,999.51171875,999.51171875,37.59765625
-126.953125,141.6015625,165.0390625,-62.01171875
-513.671875,-1000.0,-1000.0,-136.23046875
-295.41015625,-1000.0,-866.2109375,-92.28515625
241.2109375,63.4765625,437.98828125,2.44140625
375.9765625,999.51171875,999.51171875,20.01953125
-55.6640625,399.90234375,204.58984375,-85.9375
-481.4453125,-910.15625,-1000.0,-164.0625
-339.84375,-1000.0,-1000.0,-119.62890625
212.890625,-104.4921875,145.99609375,-4.39453125
410.15625,999.51171875,999.51171875,42.96875
12.20703125,933.59375,353.02734375,-47.8515625
-448.2421875,-306.640625,-934.08203125,-143.06640625
-399.90234375,-1000.0,-1000.0,-124.51171875
137.6953125,-185.546875,-81.54296875,-26.3671875
406.25,999.51171875,999.51171875,19.53125
63.96484375,991.69921875,517.578125,-57.6171875
-416.015625,-218.26171875,-820.80078125,-144.53125
-441.40625,-1000.0,-1000.0,-134.765625
76.66015625,-184.5703125,-182.12890625,-38.57421875
397.94921875,999.51171875,999.51171875,22.94921875
121.58203125,999.51171875,733.88671875,-19.53125
-367.1875,-150.390625,-608.3984375,-104.4921875
-479.00390625,-1000.0,-1000.0,-130.859375
32.71484375,-184.5703125,-186.03515625,-45.8984375
416.015625,986.81640625,999.51171875,42.48046875
172.36328125,999.51171875,937.98828125,-12.20703125
-339.84375,62.01171875,-299.8046875,-123.53515625
-510.25390625,-1000.0,-1000.0,-142.08984375
-39.55078125,-246.09375,-211.9140625,-49.8046875
385.25390625,975.5859375,999.51171875,40.0390625
212.40234375,999.51171875,999.51171875,11.71875
-284.1796875,155.2734375,-106.93359375,-100.09765625
-514.6484375,-1000.0,-1000.0,-141.6015625
-125.9765625,-586.42578125,-356.93359375,-68.84765625
337.890625,789.55078125,921.875,16.11328125
246.58203125,999.51171875,999.51171875,-6.34765625
-252.44140625,171.875,51.7578125,-116.2109375
-546.38671875,-1000.0,-1000.0,-156.73828125
-216.796875,-928.22265625,-605.46875,-75.68359375
309.5703125,341.30859375,738.76953125,23.92578125
323.73046875,999.51171875,999.51171875,11.71875
-153.80859375,409.1796875,154.78515625,-90.8203125
-502.9296875,-910.15625,-1000.0,-140.625
-267.08984375,-1000.0,-851.07421875,-78.125
257.32421875,28.80859375,465.8203125,14.16015625
363.28125,999.51171875,999.51171875,29.296875
-111.328125,175.78125,144.04296875,-62.98828125
-518.06640625,-1000.0,-1000.0,-141.11328125
-328.61328125,-1000.0,-1000.0,-95.703125
198.2421875,-188.96484375,166.9921875,5.37109375
366.2109375,999.51171875,999.51171875,34.1796875
-46.38671875,545.41015625,204.58984375,-60.05859375
-474.12109375,-829.1015625,-1000.0,-143.5546875
-364.74609375,-1000.0,-1000.0,-107.421875
174.8046875,-208.49609375,-14.16015625,10.25390625
406.73828125,999.51171875,999.51171875,62.01171875
16.6015625,591.30859375,313.4765625,-40.52734375
-455.56640625,-793.9453125,-954.1015625,-134.765625
-414.55078125,-1000.0,-1000.0,-107.421875
102.5390625,-221.6796875,-187.98828125,-17.08984375
401.85546875,999.51171875,999.51171875,46.38671875
96.6796875,740.72265625,498.046875,-8.7890625
-403.3203125,-628.90625,-854.4921875,-112.79296875
-445.80078125,-1000.0,-1000.0,-117.1875
72.75390625,-203.61328125,-211.42578125,-22.94921875
411.1328125,999.51171875,999.51171875,41.50390625
145.5078125,850.5859375,691.89453125,-2.44140625
-364.2578125,-442.3828125,-656.25,-100.5859375
-475.5859375,-1000.0,-1000.0,-106.93359375
4.8828125,-498.53515625,-235.83984375,-5.859375
412.59765625,851.5625,999.51171875,61.5234375
226.5625,999.51171875,902.34375,22.4609375
-288.0859375,-107.421875,-359.86328125,-89.84375
-482.91015625,-1000.0,-1000.0,-125.9765625
-68.359375,-499.51171875,-296.875,-42.96875
389.16015625,826.66015625,939.94140625,48.33984375
289.0625,999.51171875,999.51171875,34.66796875
-214.35546875,193.359375,26.3671875,-69.82421875
-496.58203125,-1000.0,-1000.0,-130.37109375
-151.3671875,-770.99609375,-465.8203125,-59.5703125
352.05078125,599.609375,862.79296875,39.0625
317.3828125,999.51171875,999.51171875,29.78515625
-185.05859375,167.96875,117.1875,-63.96484375
-505.859375,-1000.0,-1000.0,-121.58203125
-211.9140625,-914.55078125,-671.38671875,-62.98828125
322.75390625,397.94921875,685.05859375,33.203125
359.86328125,999.51171875,999.51171875,38.57421875
-138.671875,132.8125,147.94921875,-70.80078125
-491.2109375,-1000.0,-1000.0,-129.8828125
-251.953125,-1000.0,-895.5078125,-63.4765625
259.27734375,-53.22265625,395.5078125,20.5078125
382.32421875,999.51171875,999.51171875,28.3203125
-55.17578125,268.06640625,168.9453125,-65.91796875
-471.6796875,-991.69921875,-1000.0,-134.765625
-316.40625,-1000.0,-1000.0,-98.14453125
224.12109375,-103.515625,147.4609375,9.765625
424.31640625,999.51171875,999.51171875,46.875
-3.90625,492.1875,273.92578125,-56.15234375
-479.00390625,-883.30078125,-981.93359375,-149.90234375
-382.8125,-1000.0,-1000.0,-113.76953125
172.8515625,-81.54296875,-26.3671875,8.30078125
436.5234375,999.51171875,999.51171875,60.05859375
75.68359375,707.03125,433.10546875,-19.04296875
-416.9921875,-634.765625,-879.39453125,-109.86328125
-416.9921875,-1000.0,-1000.0,-90.8203125
116.2109375,-183.10546875,-189.453125,4.8828125
421.38671875,999.51171875,999.51171875,57.12890625
125.9765625,999.51171875,680.17578125,7.8125
-368.1640625,-176.26953125,-669.921875,-90.8203125
-470.21484375,-1000.0,-1000.0,-103.515625
43.9453125,-204.58984375,-187.5,-13.671875
416.015625,965.33203125,999.51171875,55.6640625
166.015625,999.51171875,952.63671875,-5.37109375
-321.77734375,165.52734375,-274.4140625,-107.91015625
-492.67578125,-1000.0,-1000.0,-134.27734375
-33.69140625,-204.1015625,-196.77734375,-95.703125
389.6484375,999.51171875,999.51171875,-46.875
222.65625,999.51171875,999.51171875,-59.08203125
-263.671875,102.5390625,-145.5078125,-138.18359375
-506.8359375,-1000.0,-1000.0,-144.53125
-128.41796875,-655.76171875,-323.2421875,-208.49609375
345.21484375,708.984375,928.7109375,-257.8125
275.390625,999.51171875,999.51171875,-179.6875
-217.28515625,182.6171875,104.98046875,-200.68359375
-521.484375,-1000.0,-1000.0,-191.40625
-187.5,-807.12890625,-497.55859375,-137.20703125
330.56640625,552.734375,843.75,-25.87890625
316.40625,999.51171875,999.51171875,-100.09765625
-181.640625,172.36328125,147.94921875,-375.48828125
-521.97265625,-1000.0,-1000.0,-360.3515625
-242.67578125,-858.3984375,-679.19921875,-172.8515625
293.45703125,460.44921875,675.78125,-34.1796875
355.46875,999.51171875,999.51171875,-18.06640625
-125.0,303.22265625,170.41015625,-105.46875
-519.04296875,-992.1875,-1000.0,-135.7421875
-315.91796875,-1000.0,-915.52734375,-153.80859375
229.00390625,185.546875,363.76953125,-182.6171875
368.1640625,999.51171875,999.51171875,-405.2734375
-73.2421875,249.0234375,207.51953125,-658.203125
-481.93359375,-962.890625,-1000.0,-644.53125
-343.26171875,-1000.0,-1000.0,-605.46875
172.36328125,-232.421875,62.01171875,-588.8671875
385.25390625,999.51171875,999.51171875,-569.3359375
26.85546875,588.37890625,337.40234375,-532.71484375
-443.84765625,-797.8515625,-946.77734375,-494.62890625
-394.04296875,-1000.0,-1000.0,-461.42578125
135.25390625,-170.8984375,-96.19140625,-438.96484375
395.01953125,973.6328125,999.51171875,-423.33984375
102.5390625,999.51171875,628.90625,-401.3671875
-372.0703125,62.98828125,-715.33203125,-372.55859375
-428.22265625,-1000.0,-1000.0,-329.1015625
94.23828125,-201.66015625,-181.15234375,-304.19921875
417.48046875,999.51171875,999.51171875,-306.15234375
152.34375,999.51171875,792.96875,-295.41015625
-327.1484375,-72.265625,-526.3671875,-273.4375
-467.28515625,-1000.0,-1000.0,-265.13671875
0.9765625,-172.36328125,-184.08203125,-251.46484375
403.3203125,986.81640625,999.51171875,-240.234375
201.66015625,999.51171875,969.7265625,-229.4921875
-279.78515625,149.4140625,-230.46875,-210.9375
-474.12109375,-1000.0,-1000.0,-197.75390625
-33.69140625,-200.1953125,-208.0078125,-178.22265625
387.6953125,999.51171875,997.0703125,-175.29296875
219.7265625,999.51171875,999.51171875,-176.26953125
-253.90625,117.1875,-57.12890625,-168.45703125
-497.0703125,-1000.0,-1000.0,-158.203125
-132.32421875,-754.39453125,-404.296875,-135.25390625
353.02734375,595.21484375,891.6015625,-133.30078125
301.7578125,999.51171875,999.51171875,-132.8125
-195.80078125,169.921875,123.53515625,-127.44140625
-493.65234375,-1000.0,-1000.0,-120.60546875
-206.0546875,-895.99609375,-605.95703125,-108.88671875
300.78125,425.29296875,750.48828125,-117.1875
328.125,999.51171875,999.51171875,-117.1875
-159.66796875,145.01953125,155.76171875,-119.62890625
-514.16015625,-1000.0,-1000.0,-119.140625
-271.484375,-1000.0,-839.84375,-104.98046875
264.6484375,49.31640625,476.5625,-95.21484375
385.7421875,999.51171875,999.51171875,-85.9375
-62.5,393.06640625,178.7109375,-89.35546875
-502.44140625,-921.875,-1000.0,-95.703125
-351.5625,-1000.0,-990.72265625,-83.0078125
187.98828125,-63.96484375,216.30859375,-77.63671875
375.48828125,999.51171875,999.51171875,-73.2421875
0.0,864.2578125,323.73046875,-80.56640625
-448.73046875,-409.1796875,-956.0546875,-83.0078125
-372.55859375,-1000.0,-1000.0,-62.98828125
173.33984375,-186.03515625,-15.13671875,-49.8046875
407.2265625,999.51171875,999.51171875,-61.03515625
58.10546875,927.24609375,463.37890625,-74.70703125
-419.921875,-344.23828125,-861.81640625,-64.94140625
-425.29296875,-1000.0,-1000.0,-54.6875
106.93359375,-184.08203125,-157.2265625,-47.36328125
409.66796875,999.51171875,999.51171875,-42.96875
138.18359375,999.51171875,666.015625,-39.0625
-339.84375,-196.77734375,-681.640625,-34.1796875
-426.7578125,-1000.0,-1000.0,-25.390625
59.08203125,-189.94140625,-181.640625,-28.3203125
398.4375,991.69921875,999.51171875,-39.55078125
168.9453125,999.51171875,884.27734375,-47.8515625
-321.2890625,0.48828125,-387.6953125,-50.78125
-493.65234375,-1000.0,-1000.0,-40.0390625
-31.25,-351.5625,-202.1484375,-29.296875
397.94921875,916.015625,999.51171875,-28.3203125
226.07421875,999.51171875,999.51171875,-38.57421875
-270.5078125,219.7265625,-111.81640625,-46.38671875
-508.30078125,-1000.0,-1000.0,-49.31640625
-101.07421875,-510.25390625,-301.7578125,-41.015625
381.8359375,866.2109375,948.73046875,-40.0390625
274.90234375,999.51171875,999.51171875,-60.05859375
-226.5625,177.24609375,51.26953125,-61.03515625
-507.8125,-1000.0,-1000.0,-46.38671875
-177.24609375,-856.4453125,-499.51171875,-39.55078125
321.2890625,477.05078125,835.44921875,-37.59765625
300.78125,999.51171875,999.51171875,-51.7578125
-178.7109375,165.52734375,145.01953125,-55.17578125
-510.25390625,-1000.0,-1000.0,-55.6640625
-248.046875,-1000.0,-747.55859375,-61.03515625
277.83203125,103.02734375,598.6328125,-49.8046875
337.890625,999.51171875,999.51171875,-53.22265625
-111.328125,679.6875,178.7109375,-62.98828125
-476.5625,-661.62109375,-1000.0,-57.6171875
-272.94921875,-1000.0,-903.3203125,-41.015625
246.58203125,-40.52734375,382.8125,-40.0390625
367.1875,999.51171875,999.51171875,-42.48046875
-48.828125,395.5078125,206.54296875,-41.015625
-470.703125,-939.94140625,-1000.0,-47.36328125
-331.0546875,-1000.0,-1000.0,-39.0625
206.0546875,-58.59375,125.9765625,-35.64453125
409.66796875,999.51171875,999.51171875,-32.2265625
31.25,670.8984375,346.6796875,-42.48046875
-448.73046875,-708.49609375,-949.70703125,-55.6640625
-388.671875,-1000.0,-1000.0,-37.59765625
170.8984375,14.6484375,-13.18359375,-24.90234375
419.921875,999.51171875,999.51171875,-24.90234375
92.28515625,865.234375,567.3828125,-21.484375
-361.81640625,-388.18359375,-766.11328125,-14.6484375
-399.90234375,-1000.0,-1000.0,-11.71875
104.4921875,-212.890625,-187.98828125,-9.27734375
442.87109375,999.51171875,999.51171875,-3.90625
170.8984375,937.98828125,719.7265625,-8.7890625
-326.171875,-329.58984375,-626.46484375,-12.20703125
-432.6171875,-1000.0,-1000.0,-3.41796875
53.22265625,-226.5625,-192.87109375,12.20703125
434.5703125,964.84375,999.51171875,16.6015625
218.75,999.51171875,934.08203125,-1.953125
-281.25,51.26953125,-301.26953125,-3.41796875
-460.44921875,-1000.0,-1000.0,8.30078125
-3.90625,-406.25,-234.375,9.27734375
436.5234375,896.484375,974.609375,4.8828125
277.34375,999.51171875,999.51171875,-2.44140625
-233.3984375,215.8203125,-10.7421875,-14.6484375
-490.72265625,-1000.0,-1000.0,-8.30078125
-95.21484375,-528.80859375,-365.72265625,4.39453125
383.7890625,840.33203125,914.0625,-4.8828125
308.10546875,999.51171875,999.51171875,-15.625
-151.85546875,338.8671875,144.53125,-0.48828125
-481.93359375,-992.67578125,-1000.0,-1.46484375
-203.61328125,-1000.0,-610.83984375,-12.6953125
325.68359375,269.04296875,748.046875,0.9765625
353.02734375,999.51171875,999.51171875,-7.32421875
-134.765625,211.9140625,173.828125,-30.76171875
-506.34765625,-1000.0,-1000.0,-29.296875
-257.8125,-1000.0,-804.19921875,-16.11328125
283.203125,107.91015625,531.73828125,-18.06640625
378.90625,999.51171875,999.51171875,-35.15625
-85.44921875,310.546875,181.640625,-43.45703125
-487.79296875,-1000.0,-1000.0,-46.875
-299.8046875,-932.6171875,-913.57421875,-45.8984375
234.375,382.8125,364.74609375,-30.76171875
389.6484375,999.51171875,999.51171875,-38.0859375
-25.390625,334.9609375,236.328125,-62.01171875
-457.51953125,-914.0625,-993.1640625,-47.36328125
-343.26171875,-1000.0,-1000.0,-36.62109375
180.17578125,-239.2578125,1.953125,-42.96875
420.41015625,999.51171875,999.51171875,-41.50390625
66.89453125,617.67578125,391.6015625,-48.33984375
-416.50390625,-772.4609375,-914.0625,-50.78125
-393.5546875,-1000.0,-1000.0,-38.57421875
137.6953125,-181.640625,-143.5546875,-33.69140625
430.6640625,994.140625,999.51171875,-40.0390625
136.71875,999.51171875,710.44921875,-41.015625
-346.19140625,-101.07421875,-629.8828125,-33.203125
-425.78125,-1000.0,-1000.0,-29.78515625
68.359375,-249.0234375,-195.80078125,-26.3671875
409.66796875,984.86328125,999.51171875,-33.69140625
166.9921875,999.51171875,851.5625,-42.96875
-325.68359375,-51.7578125,-446.77734375,-43.45703125
-474.12109375,-1000.0,-1000.0,-32.2265625
-8.7890625,-356.93359375,-195.80078125,-33.69140625
410.15625,907.71484375,999.51171875,-23.92578125
246.58203125,999.51171875,999.51171875,-22.94921875
-264.16015625,215.33203125,-116.2109375,-38.0859375
-490.234375,-1000.0,-1000.0,-20.01953125
-91.796875,-619.62890625,-297.36328125,-22.94921875
355.46875,773.92578125,954.1015625,-32.2265625
261.23046875,999.51171875,999.51171875,-26.3671875
-238.76953125,181.15234375,31.73828125,-26.3671875
-519.04296875,-1000.0,-1000.0,-29.296875
-147.94921875,-679.19921875,-416.9921875,-25.390625
346.19140625,706.54296875,889.6484375,-19.53125
297.36328125,999.51171875,999.51171875,-34.66796875
-181.15234375,186.5234375,165.52734375,-35.64453125
-514.16015625,-1000.0,-1000.0,-20.99609375
-221.6796875,-755.37109375,-595.21484375,-32.71484375
310.05859375,609.86328125,762.6953125,-45.8984375
346.6796875,999.51171875,999.51171875,-51.26953125
-134.765625,221.6796875,179.6875,-48.828125
-504.39453125,-1000.0,-1000.0,-42.96875
-280.76171875,-1000.0,-861.328125,-34.66796875
253.41796875,77.1484375,447.265625,-27.34375
379.8828125,999.51171875,999.51171875,-35.15625
-50.78125,446.2890625,224.12109375,-48.33984375
-469.23828125,-887.6953125,-1000.0,-50.78125
-332.51953125,-1000.0,-1000.0,-35.64453125
198.73046875,-92.28515625,202.1484375,-25.390625
405.76171875,999.51171875,999.51171875,-29.296875
19.04296875,577.63671875,350.5859375,-45.41015625
-436.5234375,-784.66796875,-942.3828125,-40.0390625
-363.76953125,-1000.0,-1000.0,-14.6484375
166.50390625,-203.125,-19.04296875,-17.08984375
428.7109375,999.51171875,999.51171875,-27.83203125
74.21875,822.75390625,531.73828125,-45.41015625
-419.43359375,-516.11328125,-806.640625,-47.36328125
-435.546875,-1000.0,-1000.0,-34.66796875
92.7734375,-141.11328125,-132.32421875,-24.4140625
420.8984375,974.609375,999.51171875,-27.83203125
150.390625,999.51171875,785.15625,-31.25
-333.49609375,150.390625,-525.390625,-26.3671875
-455.078125,-1000.0,-1000.0,-32.71484375
20.01953125,-251.46484375,-185.05859375,-28.80859375
396.97265625,999.51171875,999.51171875,-32.2265625
183.10546875,999.51171875,934.5703125,-44.921875
-318.359375,28.3203125,-302.734375,-47.36328125
-503.41796875,-1000.0,-1000.0,-36.62109375
-54.6875,-379.39453125,-209.9609375,-37.59765625
379.39453125,906.73828125,982.421875,-39.55078125
237.3046875,999.51171875,999.51171875,-27.34375
-250.9765625,216.30859375,0.0,-34.1796875
-508.30078125,-1000.0,-1000.0,-37.109375
-115.234375,-435.546875,-327.1484375,-28.3203125
355.95703125,917.96875,946.2890625,-45.8984375
259.765625,999.51171875,999.51171875,-59.08203125
-223.14453125,96.19140625,58.10546875,-47.8515625
-512.6953125,-1000.0,-1000.0,-39.0625
-192.3828125,-863.28125,-535.64453125,-31.25
313.96484375,446.77734375,804.19921875,-28.3203125
335.9375,999.51171875,999.51171875,-32.71484375
-146.484375,144.53125,157.71484375,-36.62109375
-517.08984375,-1000.0,-1000.0,-40.52734375
-281.73828125,-1000.0,-781.25,-41.50390625
257.32421875,105.95703125,558.10546875,-44.43359375
362.79296875,999.51171875,999.51171875,-53.22265625
-94.7265625,317.3828125,176.7578125,-52.24609375
-502.44140625,-984.375,-1000.0,-46.38671875
-325.1953125,-1000.0,-932.12890625,-49.8046875
201.66015625,92.28515625,333.49609375,-56.15234375
351.5625,999.51171875,999.51171875,-60.546875
-68.359375,296.38671875,206.0546875,-59.08203125
-496.58203125,-949.70703125,-1000.0,-50.29296875
-364.2578125,-1000.0,-1000.0,-40.52734375
165.52734375,-220.21484375,0.48828125,-50.29296875
382.8125,999.51171875,999.51171875,-54.6875
22.94921875,774.4140625,349.12109375,-51.26953125
-442.3828125,-577.63671875,-935.546875,-55.17578125
-412.109375,-1000.0,-1000.0,-41.9921875
104.4921875,-213.37890625,-176.26953125,-25.390625
393.06640625,999.51171875,999.51171875,-31.25
97.16796875,764.16015625,508.7890625,-39.0625
-391.6015625,-597.16796875,-840.8203125,-33.203125
-446.77734375,-1000.0,-1000.0,-17.08984375
59.08203125,-176.26953125,-205.56640625,-20.01953125
400.87890625,996.58203125,999.51171875,-36.62109375
148.92578125,999.51171875,761.23046875,-44.43359375
-339.84375,-103.515625,-572.75390625,-43.45703125
-475.5859375,-1000.0,-1000.0,-43.45703125
2.44140625,-179.6875,-196.77734375,-45.41015625
394.53125,999.51171875,999.51171875,-36.62109375
190.91796875,999.51171875,908.69140625,-38.57421875
-299.8046875,-23.92578125,-334.9609375,-47.36328125
-493.65234375,-1000.0,-1000.0,-34.1796875
-76.66015625,-555.17578125,-309.5703125,-21.484375
371.58203125,783.69140625,944.3359375,-38.0859375
256.34765625,999.51171875,999.51171875,-55.17578125
-243.65234375,185.05859375,-32.71484375,-48.33984375
-492.67578125,-1000.0,-1000.0,-36.62109375
-146.484375,-774.4140625,-459.47265625,-38.57421875
320.3125,594.23828125,855.46875,-50.78125
302.24609375,999.51171875,999.51171875,-51.26953125
-177.734375,146.484375,133.30078125,-45.8984375
-505.37109375,-1000.0,-1000.0,-41.50390625
-220.703125,-1000.0,-726.5625,-29.78515625
297.8515625,115.234375,623.046875,-30.2734375
357.421875,999.51171875,999.51171875,-39.55078125
-107.91015625,250.48828125,160.15625,-41.9921875
-489.2578125,-989.2578125,-1000.0,-39.55078125
-277.34375,-1000.0,-913.0859375,-39.0625
247.55859375,-55.17578125,369.62890625,-42.48046875
374.51171875,999.51171875,999.51171875,-53.7109375
-57.12890625,406.73828125,180.6640625,-53.7109375
-473.14453125,-956.0546875,-1000.0,-45.41015625
-314.94140625,-1000.0,-1000.0,-34.66796875
213.37890625,79.1015625,203.125,-33.69140625
389.6484375,999.51171875,999.51171875,-44.43359375
-11.71875,323.2421875,235.3515625,-41.9921875
-457.51953125,-936.5234375,-986.81640625,-36.62109375
-377.44140625,-1000.0,-1000.0,-32.71484375
151.85546875,-233.88671875,-90.33203125,-44.921875
411.1328125,999.51171875,999.51171875,-46.875
75.1953125,789.0625,451.171875,-36.1328125
-411.62109375,-563.96484375,-880.859375,-44.921875
-434.5703125,-1000.0,-1000.0,-47.8515625
93.26171875,-160.64453125,-156.73828125,-46.875
407.71484375,998.046875,999.51171875,-54.19921875
125.48828125,999.51171875,669.921875,-50.29296875
-359.86328125,-67.3828125,-672.36328125,-43.45703125
-462.40234375,-1000.0,-1000.0,-46.38671875
20.99609375,-334.47265625,-208.49609375,-45.8984375
393.5546875,972.16796875,999.51171875,-40.0390625
173.33984375,999.51171875,830.56640625,-37.59765625
-330.078125,-158.69140625,-468.75,-41.015625
-494.62890625,-1000.0,-1000.0,-41.015625
-38.0859375,-418.9453125,-233.3984375,-41.015625
387.6953125,867.67578125,976.5625,-48.33984375
239.2578125,999.51171875,999.51171875,-47.8515625
-262.20703125,198.73046875,-56.640625,-45.41015625
-513.18359375,-1000.0,-1000.0,-37.59765625
-128.90625,-773.4375,-381.8359375,-38.0859375
340.33203125,584.9609375,906.25,-45.41015625
263.671875,999.51171875,999.51171875,-51.26953125
-213.8671875,253.90625,104.98046875,-47.8515625
-497.55859375,-1000.0,-1000.0,-20.01953125
-191.40625,-1000.0,-587.890625,-21.484375
318.84765625,204.1015625,767.08984375,-40.52734375
330.56640625,999.51171875,999.51171875,-36.62109375
-172.36328125,141.6015625,145.01953125,-44.43359375
-500.9765625,-1000.0,-1000.0,-45.8984375
-249.51171875,-1000.0,-823.73046875,-36.62109375
252.9296875,-18.5546875,501.46484375,-34.66796875
359.375,999.51171875,999.51171875,-37.59765625
-90.8203125,218.75,151.3671875,-45.8984375
-495.1171875,-1000.0,-1000.0,-49.8046875
-306.640625,-1000.0,-975.09765625,-45.8984375
220.703125,-64.94140625,255.37109375,-39.0625
364.2578125,999.51171875,999.51171875,-36.62109375
-42.48046875,603.515625,218.26171875,-43.45703125
-470.21484375,-778.80859375,-1000.0,-42.96875
-364.74609375,-1000.0,-1000.0,-34.66796875
174.8046875,-41.9921875,37.109375,-27.83203125
391.11328125,999.51171875,999.51171875,-37.59765625
19.53125,525.87890625,318.359375,-41.9921875
-434.5703125,-822.265625,-948.73046875,-30.2734375
-402.83203125,-1000.0,-1000.0,-35.15625
109.375,-214.84375,-166.015625,-35.64453125
394.53125,999.51171875,999.51171875,-40.52734375
88.8671875,835.9375,522.94921875,-38.57421875
-375.9765625,-494.62890625,-826.171875,-29.78515625
-418.45703125,-1000.0,-1000.0,-31.25
77.63671875,-170.8984375,-192.87109375,-25.87890625
414.0625,958.49609375,999.51171875,-32.71484375
168.45703125,999.51171875,852.5390625,-35.64453125
-329.1015625,224.12109375,-444.3359375,-32.2265625
-484.86328125,-1000.0,-1000.0,-36.1328125
-4.39453125,-377.9296875,-198.73046875,-37.109375
395.01953125,945.3125,999.51171875,-41.015625
199.70703125,999.51171875,953.61328125,-42.48046875
-297.36328125,117.67578125,-257.8125,-43.45703125
-506.8359375,-1000.0,-1000.0,-43.9453125
-80.56640625,-552.24609375,-273.92578125,-31.25
377.44140625,814.94140625,964.35546875,-24.4140625
262.6953125,999.51171875,999.51171875,-43.9453125
-243.65234375,176.7578125,-31.25,-57.12890625
-511.23046875,-1000.0,-1000.0,-45.8984375
-150.87890625,-811.5234375,-436.03515625,-43.9453125
328.61328125,543.45703125,878.41796875,-53.7109375
278.80859375,999.51171875,999.51171875,-55.6640625
-218.26171875,154.78515625,104.4921875,-52.24609375
-530.2734375,-1000.0,-1000.0,-49.8046875
-237.3046875,-1000.0,-649.4140625,-50.29296875
271.97265625,236.81640625,706.0546875,-47.36328125
313.96484375,999.51171875,999.51171875,-54.19921875
-156.73828125,200.1953125,164.0625,-58.10546875
-531.25,-1000.0,-1000.0,-62.98828125
-307.12890625,-902.83203125,-788.0859375,-64.453125
223.14453125,401.3671875,551.26953125,-60.05859375
325.68359375,999.51171875,999.51171875,-79.1015625
-122.55859375,333.49609375,182.12890625,-86.42578125
-527.83203125,-929.6875,-1000.0,-78.125
-360.83984375,-1000.0,-995.60546875,-78.125
179.19921875,-104.98046875,212.40234375,-68.359375
381.34765625,999.51171875,999.51171875,-70.3125
-12.6953125,572.265625,285.15625,-77.63671875
-488.76953125,-789.0625,-970.703125,-68.84765625
-405.2734375,-1000.0,-1000.0,-59.5703125
141.6015625,-181.15234375,-44.921875,-48.33984375
393.06640625,990.234375,999.51171875,-47.8515625
63.4765625,999.51171875,544.43359375,-62.5
-398.92578125,-78.125,-797.36328125,-48.33984375
-417.96875,-1000.0,-1000.0,-39.0625
91.30859375,-188.96484375,-153.3203125,-38.0859375
408.203125,999.51171875,999.51171875,-29.78515625
131.8359375,999.51171875,682.6171875,-40.0390625
-360.3515625,-99.12109375,-659.1796875,-46.875
-455.56640625,-1000.0,-1000.0,-42.96875
46.875,-222.65625,-190.4296875,-34.66796875
414.55078125,978.515625,999.51171875,-39.0625
183.10546875,999.51171875,901.3671875,-44.43359375
-316.40625,61.5234375,-361.328125,-36.1328125
-476.07421875,-1000.0,-1000.0,-30.2734375
-18.5546875,-334.9609375,-205.078125,-24.90234375
405.2734375,951.66015625,999.51171875,-19.53125
241.2109375,999.51171875,995.1171875,-34.66796875
-249.0234375,53.7109375,-171.875,-33.203125
-471.19140625,-1000.0,-1000.0,-31.25
-76.66015625,-448.73046875,-282.71484375,-28.80859375
388.671875,874.0234375,944.3359375,-20.5078125
301.26953125,999.51171875,999.51171875,-25.390625
-201.171875,204.58984375,108.3984375,-36.62109375
-507.32421875,-1000.0,-1000.0,-33.203125
-166.9921875,-693.359375,-471.19140625,-19.53125
334.9609375,695.80078125,861.81640625,-27.83203125
325.68359375,999.51171875,999.51171875,-37.59765625
-165.0390625,144.53125,164.55078125,-44.43359375
-518.5546875,-1000.0,-1000.0,-46.38671875
-247.0703125,-1000.0,-744.62890625,-45.41015625
273.4375,53.7109375,605.95703125,-52.24609375
356.4453125,999.51171875,999.51171875,-52.734375
-98.6328125,185.05859375,165.52734375,-45.8984375
-488.76953125,-1000.0,-1000.0,-40.52734375
-288.57421875,-1000.0,-904.296875,-33.69140625
234.86328125,19.04296875,373.53515625,-34.1796875
371.09375,999.51171875,999.51171875,-43.45703125
-32.2265625,794.43359375,266.6015625,-50.78125
-453.61328125,-534.1796875,-1000.0,-42.96875
-355.95703125,-1000.0,-1000.0,-27.83203125
184.5703125,48.828125,164.55078125,-29.296875
406.25,999.51171875,999.51171875,-34.1796875
