TP9,AF7,AF8,TP10
102.05078125,-55.17578125,-33.203125,13.18359375
-89.84375,-51.26953125,-37.59765625,-1.46484375
-278.80859375,-41.50390625,-46.38671875,-63.96484375
-247.0703125,-36.1328125,-56.15234375,-97.16796875
-16.6015625,-31.25,-59.08203125,-62.5
91.30859375,-24.4140625,-62.5,-16.6015625
-69.82421875,-24.90234375,-70.3125,-39.0625
-310.546875,-29.296875,-75.1953125,-61.03515625
-334.47265625,-24.90234375,-82.51953125,-54.6875
-82.51953125,-23.92578125,-86.42578125,-53.7109375
88.37890625,-24.4140625,-86.42578125,-37.59765625
-54.19921875,-18.5546875,-95.703125,-47.8515625
-292.96875,-19.04296875,-99.609375,-80.56640625
-312.98828125,-13.18359375,-95.21484375,-87.890625
-69.3359375,-3.90625,-93.26171875,-67.87109375
148.4375,-5.859375,-81.54296875,-0.9765625
46.875,-10.7421875,-68.84765625,0.48828125
-197.265625,-19.04296875,-67.87109375,-59.5703125
-248.53515625,-23.92578125,-70.80078125,-92.28515625
-35.15625,-20.99609375,-73.73046875,-77.63671875
149.4140625,-24.90234375,-65.4296875,-31.73828125
100.5859375,-24.4140625,-65.4296875,-30.2734375
-127.9296875,-25.390625,-65.4296875,-43.45703125
-276.85546875,-29.78515625,-55.6640625,-77.1484375
-82.51953125,-28.80859375,-55.17578125,-98.6328125
142.08984375,-30.2734375,-56.640625,-45.8984375
95.703125,-31.73828125,-59.5703125,-18.5546875
-138.671875,-32.71484375,-60.05859375,-41.9921875
-253.90625,-33.69140625,-56.640625,-94.23828125
-70.80078125,-31.73828125,-55.17578125,-73.73046875
145.5078125,-30.76171875,-44.921875,-15.625
135.7421875,-28.80859375,-39.0625,-9.27734375
-84.9609375,-28.3203125,-45.8984375,-49.8046875
-262.20703125,-36.1328125,-53.7109375,-96.19140625
-145.5078125,-38.0859375,-54.19921875,-74.21875
109.86328125,-32.2265625,-45.8984375,-22.94921875
151.3671875,-32.2265625,-43.9453125,-4.39453125
-60.546875,-39.55078125,-46.875,-51.7578125
-247.55859375,-41.015625,-44.43359375,-89.35546875
-152.34375,-40.0390625,-42.96875,-80.078125
135.7421875,-38.57421875,-42.96875,-44.921875
205.078125,-35.15625,-43.45703125,-17.578125
-13.18359375,-38.57421875,-46.38671875,-50.29296875
-206.54296875,-42.48046875,-49.31640625,-99.609375
-134.765625,-37.59765625,-49.8046875,-103.515625
101.07421875,-28.80859375,-43.45703125,-45.41015625
181.640625,-23.4375,-35.15625,-9.765625
6.8359375,-26.85546875,-40.52734375,-56.15234375
-224.12109375,-33.203125,-48.828125,-89.84375
-227.05078125,-38.57421875,-44.921875,-83.984375
10.25390625,-40.0390625,-45.41015625,-72.75390625
144.04296875,-39.0625,-45.41015625,-35.15625
-3.41796875,-41.9921875,-38.57421875,-44.921875
-220.21484375,-42.48046875,-40.0390625,-101.07421875
-220.703125,-38.57421875,-46.38671875,-122.0703125
23.92578125,-38.57421875,-44.921875,-79.1015625
159.1796875,-37.59765625,-40.0390625,-21.484375
43.45703125,-36.62109375,-41.50390625,-25.390625
-186.5234375,-37.59765625,-44.43359375,-63.96484375
-250.9765625,-40.0390625,-50.29296875,-90.33203125
-23.92578125,-44.43359375,-54.6875,-57.6171875
168.45703125,-46.38671875,-47.8515625,-4.8828125
60.05859375,-44.921875,-41.50390625,-41.50390625
-188.4765625,-45.41015625,-44.43359375,-85.9375
-271.97265625,-47.36328125,-49.31640625,-104.00390625
-109.86328125,-47.36328125,-48.33984375,-93.26171875
86.9140625,-44.43359375,-40.0390625,-49.31640625
65.4296875,-44.43359375,-38.57421875,-39.55078125
-149.4140625,-48.828125,-47.36328125,-78.61328125
-278.80859375,-53.7109375,-49.31640625,-107.421875
-114.74609375,-51.7578125,-41.9921875,-81.54296875
106.4453125,-48.828125,-38.0859375,-38.0859375
99.12109375,-52.24609375,-37.59765625,-13.671875
-102.05078125,-44.43359375,-38.57421875,-14.6484375
-287.59765625,-34.66796875,-47.36328125,-89.84375
-178.7109375,-36.1328125,-56.640625,-123.53515625
85.44921875,-26.3671875,-61.5234375,-85.44921875
109.86328125,-18.5546875,-65.4296875,-54.19921875
-111.81640625,-24.90234375,-67.3828125,-69.3359375
-278.3203125,-34.66796875,-74.70703125,-134.765625
-181.15234375,-39.0625,-80.078125,-127.44140625
57.12890625,-27.83203125,-72.75390625,-64.94140625
128.41796875,-25.390625,-66.89453125,-34.1796875
-54.6875,-32.2265625,-65.91796875,-41.9921875
-269.53125,-29.296875,-65.4296875,-95.21484375
-207.03125,-30.2734375,-66.89453125,-116.69921875
55.6640625,-28.80859375,-67.87109375,-77.1484375
147.94921875,-26.85546875,-64.453125,-9.27734375
-31.73828125,-27.83203125,-62.01171875,-24.90234375
-237.3046875,-24.90234375,-61.5234375,-108.88671875
-204.58984375,-28.80859375,-59.5703125,-118.1640625
37.109375,-36.62109375,-59.08203125,-85.44921875
167.48046875,-35.15625,-53.7109375,-62.01171875
28.3203125,-32.2265625,-49.31640625,-72.75390625
-195.3125,-32.2265625,-49.31640625,-100.09765625
-234.86328125,-34.1796875,-48.828125,-101.5625
-27.83203125,-28.80859375,-41.015625,-57.12890625
118.65234375,-23.4375,-35.64453125,-13.671875
20.01953125,-30.76171875,-41.50390625,-26.85546875
-202.63671875,-37.109375,-45.41015625,-86.9140625
-260.7421875,-37.109375,-44.921875,-109.375
-39.55078125,-32.71484375,-45.8984375,-82.51953125
134.765625,-31.25,-41.50390625,-58.59375
49.8046875,-37.109375,-40.0390625,-45.41015625
-174.8046875,-38.57421875,-42.96875,-72.265625
-268.5546875,-38.57421875,-44.43359375,-96.19140625
-78.61328125,-28.3203125,-43.45703125,-56.15234375
127.44140625,-11.23046875,-41.015625,-4.39453125
65.91796875,-12.20703125,-47.8515625,-20.99609375
-155.76171875,-18.06640625,-53.22265625,-84.9609375
-269.53125,-17.08984375,-52.734375,-127.9296875
-115.72265625,-1.46484375,-53.22265625,-112.79296875
131.34765625,11.71875,-56.15234375,-61.03515625
130.859375,12.20703125,-56.15234375,-20.99609375
-100.09765625,9.765625,-50.78125,-67.3828125
-279.78515625,10.25390625,-50.78125,-112.3046875
-177.734375,12.6953125,-55.6640625,-94.7265625
69.82421875,11.23046875,-53.7109375,-58.59375
123.53515625,8.7890625,-48.828125,-28.3203125
-87.890625,0.9765625,-47.8515625,-59.5703125
-294.43359375,-7.8125,-45.8984375,-88.37890625
-248.046875,-10.7421875,-44.43359375,-89.84375
13.18359375,-5.859375,-41.015625,-49.31640625
116.2109375,-2.44140625,-45.8984375,-17.578125
-68.84765625,-7.32421875,-50.29296875,-51.7578125
-253.41796875,-13.671875,-52.734375,-95.21484375
-211.9140625,-18.5546875,-57.6171875,-102.05078125
18.06640625,-18.5546875,-56.640625,-57.12890625
129.39453125,-20.5078125,-52.24609375,-25.87890625
-60.05859375,-26.3671875,-51.26953125,-39.55078125
-290.52734375,-32.2265625,-55.17578125,-63.96484375
-270.99609375,-32.2265625,-54.6875,-69.3359375
-27.83203125,-28.3203125,-50.29296875,-48.828125
112.79296875,-23.4375,-45.41015625,-28.80859375
-42.48046875,-20.99609375,-47.36328125,-50.78125
-260.25390625,-26.3671875,-49.8046875,-83.984375
-261.23046875,-30.2734375,-47.8515625,-94.23828125
1.46484375,-28.80859375,-41.50390625,-53.7109375
188.4765625,-20.01953125,-36.62109375,-20.99609375
42.48046875,-24.4140625,-41.015625,-53.22265625
-217.7734375,-32.71484375,-46.875,-110.83984375
-255.37109375,-35.15625,-49.31640625,-101.07421875
-11.23046875,-32.71484375,-46.875,-81.54296875
168.9453125,-30.2734375,-40.52734375,-87.890625
58.10546875,-30.76171875,-35.15625,-75.1953125
-152.34375,-28.3203125,-35.15625,-122.55859375
-232.91015625,-36.62109375,-42.48046875,-159.66796875
-48.828125,-35.64453125,-42.48046875,-123.046875
165.0390625,-26.85546875,-36.62109375,-69.3359375
76.66015625,-28.80859375,-41.9921875,-57.6171875
-153.3203125,-37.109375,-52.24609375,-104.4921875
-260.7421875,-44.43359375,-53.7109375,-132.32421875
-91.796875,-44.43359375,-47.36328125,-85.44921875
152.34375,-39.0625,-41.50390625,-37.109375
80.56640625,-39.55078125,-45.41015625,-62.98828125
-140.13671875,-41.9921875,-44.43359375,-89.84375
-241.69921875,-44.921875,-40.52734375,-121.58203125
-111.328125,-42.48046875,-39.55078125,-117.1875
157.71484375,-35.15625,-39.55078125,-46.875
202.1484375,-33.203125,-40.0390625,-39.55078125
-31.73828125,-39.55078125,-40.0390625,-83.984375
-240.234375,-46.875,-43.9453125,-125.9765625
-149.90234375,-41.015625,-45.41015625,-112.3046875
118.1640625,-38.0859375,-42.48046875,-66.40625
155.2734375,-45.8984375,-41.50390625,-39.55078125
-53.22265625,-52.24609375,-46.875,-50.29296875
-224.609375,-52.24609375,-47.8515625,-92.28515625
-183.10546875,-47.36328125,-47.8515625,-108.88671875
49.31640625,-42.48046875,-44.43359375,-78.61328125
149.4140625,-39.55078125,-38.57421875,-20.99609375
-30.76171875,-44.43359375,-40.52734375,-8.30078125
-231.4453125,-49.8046875,-43.45703125,-96.6796875
-198.2421875,-47.8515625,-42.96875,-129.8828125
44.43359375,-42.48046875,-41.015625,-76.171875
173.828125,-39.0625,-41.50390625,-38.57421875
15.625,-38.0859375,-42.96875,-50.78125
-238.28125,-43.45703125,-47.36328125,-87.890625
-260.25390625,-45.41015625,-46.875,-88.37890625
-9.27734375,-41.50390625,-37.59765625,-38.57421875
139.6484375,-50.78125,-38.57421875,-16.11328125
16.6015625,-64.453125,-46.875,-37.59765625
-220.21484375,-61.5234375,-43.45703125,-69.82421875
-268.06640625,-55.17578125,-42.48046875,-107.421875
-59.08203125,-52.24609375,-41.9921875,-80.56640625
107.421875,-48.828125,-42.48046875,-32.2265625
35.64453125,-46.875,-44.921875,-20.99609375
-180.17578125,-50.29296875,-48.33984375,-45.8984375
-265.625,-57.12890625,-60.05859375,-97.16796875
-35.64453125,-49.31640625,-56.15234375,-75.68359375
182.12890625,-36.62109375,-50.78125,-28.3203125
89.84375,-36.62109375,-54.6875,-48.33984375
-129.8828125,-43.9453125,-53.7109375,-78.125
-243.65234375,-51.26953125,-53.7109375,-100.09765625
-84.9609375,-52.24609375,-52.24609375,-93.75
153.3203125,-50.78125,-49.31640625,-44.921875
107.421875,-50.29296875,-45.8984375,-30.2734375
-103.515625,-50.78125,-39.0625,-66.40625
-272.94921875,-52.24609375,-42.96875,-105.46875
-182.6171875,-59.08203125,-53.22265625,-103.515625
79.1015625,-56.640625,-48.828125,-54.6875
107.91015625,-41.9921875,-38.0859375,-45.41015625
-107.421875,-46.38671875,-40.52734375,-86.9140625
-232.91015625,-55.6640625,-49.31640625,-99.12109375
-116.2109375,-45.41015625,-52.734375,-81.0546875
100.5859375,-37.59765625,-43.45703125,-48.828125
121.09375,-44.921875,-34.1796875,-33.203125
-67.3828125,-49.8046875,-35.64453125,-44.921875
-241.69921875,-48.828125,-33.69140625,-79.58984375
-183.10546875,-50.78125,-30.76171875,-90.8203125
83.49609375,-52.734375,-21.97265625,-26.85546875
168.45703125,-50.78125,-9.765625,11.23046875
2.44140625,-46.38671875,-9.765625,-9.765625
-179.19921875,-49.8046875,-9.765625,-21.97265625
-186.5234375,-57.6171875,-6.34765625,-51.7578125
50.29296875,-55.17578125,-6.8359375,-31.73828125
165.52734375,-49.31640625,-1.953125,15.13671875
-6.34765625,-50.78125,3.41796875,11.23046875
-202.1484375,-52.24609375,-1.953125,-20.99609375
-193.84765625,-51.26953125,-4.8828125,-45.8984375
59.5703125,-47.36328125,3.41796875,-10.7421875
208.984375,-40.52734375,6.34765625,38.0859375
29.78515625,-45.41015625,-3.90625,33.203125
-184.08203125,-55.17578125,-12.6953125,-34.66796875
-187.01171875,-56.15234375,-9.765625,-71.77734375
2.9296875,-52.734375,-2.9296875,-9.27734375
119.62890625,-56.15234375,-9.765625,23.92578125
7.8125,-63.96484375,-24.4140625,-8.30078125
-204.58984375,-58.10546875,-20.99609375,-28.3203125
-305.6640625,-52.734375,-17.578125,-52.24609375
-92.7734375,-49.8046875,-16.6015625,-52.734375
118.1640625,-46.38671875,-13.18359375,-6.34765625
21.97265625,-42.96875,-14.6484375,0.48828125
-171.875,-45.41015625,-17.08984375,-40.52734375
-253.41796875,-53.7109375,-18.5546875,-52.734375
-84.9609375,-50.78125,-22.94921875,-42.96875
150.87890625,-41.9921875,-24.90234375,-15.625
136.23046875,-39.55078125,-27.34375,0.48828125
-59.5703125,-45.41015625,-34.66796875,-42.48046875
-222.65625,-45.8984375,-36.62109375,-81.0546875
-123.53515625,-43.45703125,-30.2734375,-70.3125
114.74609375,-42.96875,-22.94921875,-24.4140625
92.7734375,-38.0859375,-19.53125,4.8828125
-115.72265625,-42.96875,-25.390625,-23.4375
-248.53515625,-50.78125,-30.2734375,-67.3828125
-170.8984375,-47.36328125,-28.3203125,-86.42578125
71.2890625,-45.41015625,-23.4375,-50.29296875
136.71875,-42.48046875,-20.5078125,-9.27734375
-45.41015625,-39.55078125,-27.34375,-37.109375
-225.09765625,-42.96875,-34.66796875,-78.125
-151.85546875,-43.9453125,-33.69140625,-88.8671875
101.07421875,-39.0625,-32.2265625,-61.5234375
163.0859375,-38.0859375,-32.2265625,-10.25390625
-22.4609375,-46.38671875,-29.296875,-4.8828125
-193.359375,-46.38671875,-27.34375,-70.80078125
-129.8828125,-41.50390625,-33.203125,-99.609375
111.81640625,-42.48046875,-31.73828125,-55.17578125
212.40234375,-42.48046875,-26.3671875,-23.92578125
67.3828125,-41.50390625,-33.69140625,-40.52734375
-167.96875,-47.8515625,-42.96875,-84.9609375
-204.1015625,-49.31640625,-46.38671875,-94.23828125
38.0859375,-46.38671875,-46.38671875,-34.66796875
206.0546875,-40.0390625,-41.015625,14.6484375
85.44921875,-39.55078125,-39.55078125,-2.44140625
-146.97265625,-46.38671875,-45.41015625,-39.55078125
-200.68359375,-50.29296875,-49.31640625,-62.5
5.37109375,-45.41015625,-44.921875,-66.89453125
192.87109375,-35.15625,-39.0625,-18.5546875
73.73046875,-35.15625,-37.109375,-7.8125
-166.015625,-41.50390625,-36.1328125,-54.6875
-215.33203125,-43.45703125,-38.57421875,-82.51953125
-0.48828125,-41.015625,-41.50390625,-64.453125
178.7109375,-44.43359375,-49.8046875,-22.94921875
110.83984375,-48.828125,-53.7109375,-18.06640625
-110.83984375,-48.828125,-45.8984375,-49.31640625
-246.09375,-51.7578125,-44.43359375,-83.0078125
-95.703125,-50.78125,-42.48046875,-53.7109375
103.02734375,-47.36328125,-37.109375,-16.11328125
72.75390625,-43.45703125,-35.15625,-20.99609375
-141.11328125,-43.45703125,-38.57421875,-34.66796875
-287.59765625,-44.921875,-43.45703125,-77.63671875
-139.6484375,-44.921875,-44.43359375,-75.1953125
105.46875,-40.0390625,-40.0390625,-9.765625
75.1953125,-41.9921875,-27.34375,-3.41796875
-153.3203125,-50.78125,-29.296875,-38.0859375
-310.546875,-51.26953125,-35.15625,-56.15234375
-198.2421875,-48.33984375,-34.1796875,-66.40625
59.08203125,-44.921875,-25.87890625,-28.80859375
71.2890625,-44.43359375,-21.97265625,-10.25390625
-116.69921875,-48.828125,-28.3203125,-27.34375
-307.12890625,-49.31640625,-27.83203125,-60.546875
-280.2734375,-47.36328125,-32.2265625,-82.51953125
-5.37109375,-45.41015625,-30.2734375,-17.578125
95.21484375,-42.48046875,-28.3203125,6.34765625
-75.68359375,-45.41015625,-27.83203125,-38.57421875
-262.20703125,-51.26953125,-32.71484375,-70.80078125
-231.4453125,-53.22265625,-41.015625,-82.03125
29.296875,-43.45703125,-36.1328125,-44.43359375
160.15625,-36.62109375,-29.78515625,19.04296875
-1.953125,-45.41015625,-30.76171875,-3.90625
-206.54296875,-50.29296875,-38.0859375,-69.3359375
-193.359375,-50.29296875,-41.9921875,-76.171875
-3.41796875,-51.7578125,-36.62109375,-48.828125
113.28125,-47.36328125,-31.73828125,-7.8125
18.5546875,-44.43359375,-34.1796875,-11.71875
-212.40234375,-47.8515625,-37.109375,-53.7109375
-252.9296875,-45.8984375,-41.9921875,-80.56640625
-19.04296875,-42.48046875,-38.57421875,-39.0625
166.9921875,-41.9921875,-32.2265625,27.34375
74.70703125,-44.43359375,-35.64453125,11.71875
-161.62109375,-47.8515625,-44.43359375,-60.546875
-214.84375,-48.828125,-50.78125,-92.7734375
12.20703125,-49.31640625,-48.33984375,-48.33984375
177.734375,-43.9453125,-47.8515625,-5.37109375
96.19140625,-39.55078125,-46.38671875,13.18359375
-111.81640625,-41.015625,-40.52734375,-5.37109375
-206.0546875,-47.36328125,-40.52734375,-47.36328125
-3.41796875,-46.875,-40.52734375,-29.78515625
210.44921875,-38.57421875,-41.9921875,20.5078125
150.390625,-34.1796875,-47.36328125,20.5078125
-49.8046875,-40.0390625,-53.22265625,-20.5078125
-186.03515625,-45.41015625,-53.7109375,-64.453125
-40.52734375,-39.0625,-53.22265625,-54.19921875
200.68359375,-33.203125,-50.78125,-7.8125
187.5,-35.15625,-44.921875,-4.39453125
-27.34375,-43.9453125,-41.50390625,-39.0625
-178.7109375,-48.33984375,-45.8984375,-72.75390625
-58.10546875,-39.55078125,-50.78125,-64.94140625
163.57421875,-31.73828125,-49.31640625,-20.99609375
188.96484375,-35.15625,-48.828125,-4.39453125
7.8125,-41.9921875,-50.29296875,-17.578125
-179.19921875,-45.41015625,-54.19921875,-41.015625
-117.1875,-38.57421875,-54.6875,-61.5234375
129.39453125,-37.109375,-46.38671875,-22.4609375
183.59375,-37.109375,-37.109375,21.97265625
-25.87890625,-35.15625,-27.83203125,14.16015625
-219.23828125,-47.36328125,-31.73828125,-20.99609375
-140.13671875,-49.31640625,-45.41015625,-27.83203125
108.3984375,-44.921875,-47.8515625,6.8359375
224.609375,-43.45703125,-43.45703125,41.015625
68.359375,-42.96875,-41.9921875,30.2734375
-158.69140625,-51.26953125,-40.52734375,-11.71875
-167.48046875,-52.24609375,-41.015625,-20.99609375
73.73046875,-46.875,-41.9921875,10.25390625
206.0546875,-44.921875,-41.015625,50.78125
49.31640625,-48.33984375,-43.9453125,30.76171875
-144.53125,-55.6640625,-46.38671875,-13.18359375
-159.1796875,-50.78125,-43.9453125,-25.87890625
30.76171875,-45.41015625,-41.50390625,11.23046875
187.5,-49.31640625,-37.59765625,47.36328125
89.35546875,-45.8984375,-40.52734375,25.390625
-153.3203125,-48.828125,-49.31640625,-31.73828125
-245.1171875,-59.5703125,-45.41015625,-54.6875
-49.31640625,-55.6640625,-45.41015625,-13.18359375
160.15625,-51.26953125,-42.48046875,17.08984375
76.66015625,-47.36328125,-32.71484375,8.7890625
-155.76171875,-49.8046875,-41.015625,-17.08984375
-246.58203125,-56.15234375,-52.734375,-58.10546875
-75.1953125,-50.78125,-49.31640625,-32.71484375
123.53515625,-48.33984375,-41.50390625,21.97265625
93.75,-47.8515625,-38.0859375,20.99609375
-111.328125,-54.19921875,-42.96875,-24.90234375
-258.30078125,-56.15234375,-43.45703125,-67.87109375
-122.0703125,-56.640625,-43.9453125,-58.59375
101.07421875,-52.734375,-46.875,-9.27734375
78.61328125,-48.828125,-47.36328125,2.9296875
-114.74609375,-54.19921875,-47.36328125,-31.73828125
-253.90625,-50.29296875,-44.921875,-66.89453125
-142.08984375,-48.828125,-47.8515625,-68.359375
43.45703125,-47.8515625,-42.96875,-2.9296875
0.9765625,-42.96875,-44.43359375,-0.9765625
-182.6171875,-45.8984375,-50.29296875,-49.8046875
-333.984375,-48.828125,-46.875,-74.70703125
-264.16015625,-49.31640625,-43.9453125,-73.73046875
-23.92578125,-51.26953125,-43.9453125,-22.94921875
45.8984375,-50.29296875,-48.33984375,23.92578125
-146.484375,-49.8046875,-54.6875,-28.80859375
-327.1484375,-52.24609375,-59.5703125,-98.6328125
-261.71875,-51.7578125,-56.15234375,-102.5390625
-22.4609375,-51.7578125,-49.8046875,-67.3828125
43.9453125,-61.5234375,-55.6640625,-21.97265625
-117.67578125,-67.3828125,-53.22265625,-14.6484375
-300.78125,-54.6875,-40.0390625,-76.171875
-309.5703125,-53.22265625,-47.36328125,-116.69921875
-97.65625,-44.921875,-65.4296875,-95.703125
32.2265625,-41.50390625,-64.453125,-47.36328125
-95.703125,-49.8046875,-52.734375,-40.0390625
-304.19921875,-46.875,-58.59375,-99.609375
-355.95703125,-51.26953125,-63.4765625,-135.7421875
-135.7421875,-48.828125,-59.08203125,-97.16796875
63.4765625,-38.57421875,-53.7109375,-50.78125
-24.4140625,-48.33984375,-55.17578125,-57.6171875
-243.65234375,-62.01171875,-65.91796875,-87.40234375
-305.17578125,-52.24609375,-68.359375,-97.65625
-83.984375,-52.24609375,-60.05859375,-77.1484375
112.79296875,-56.640625,-56.15234375,-44.43359375
3.90625,-56.15234375,-50.78125,-42.96875
-224.609375,-50.29296875,-49.31640625,-78.125
-321.77734375,-50.78125,-58.10546875,-105.95703125
-178.22265625,-49.31640625,-54.19921875,-81.54296875
0.0,-45.41015625,-42.96875,-53.7109375
-8.7890625,-44.921875,-48.828125,-50.29296875
-192.87109375,-44.43359375,-56.15234375,-83.49609375
-322.265625,-56.640625,-53.22265625,-132.32421875
-176.26953125,-61.03515625,-58.59375,-108.3984375
46.38671875,-44.921875,-58.10546875,-62.5
35.15625,-44.921875,-51.26953125,-75.68359375
-156.73828125,-58.10546875,-56.15234375,-105.46875
-336.42578125,-63.4765625,-60.546875,-109.86328125
-218.26171875,-60.546875,-53.22265625,-100.5859375
59.08203125,-57.6171875,-46.875,-61.03515625
98.14453125,-46.875,-49.31640625,-42.48046875
-87.890625,-48.33984375,-56.640625,-92.7734375
-259.765625,-55.6640625,-57.12890625,-143.06640625
-200.1953125,-62.01171875,-54.6875,-138.671875
39.0625,-60.05859375,-63.4765625,-120.1171875
117.67578125,-53.7109375,-64.94140625,-104.98046875
-83.49609375,-52.24609375,-57.12890625,-91.796875
-305.6640625,-52.734375,-61.03515625,-130.859375
-244.62890625,-59.08203125,-68.84765625,-134.27734375
0.0,-52.24609375,-53.7109375,-86.9140625
118.65234375,-42.48046875,-49.31640625,-62.98828125
-35.64453125,-46.875,-49.8046875,-90.33203125
-275.390625,-47.8515625,-51.26953125,-148.4375
-270.01953125,-47.36328125,-51.7578125,-146.97265625
-36.1328125,-43.9453125,-50.29296875,-97.65625
80.078125,-51.7578125,-61.5234375,-69.3359375
-47.36328125,-55.17578125,-59.5703125,-83.984375
-237.79296875,-43.9453125,-47.36328125,-123.046875
-239.74609375,-44.43359375,-46.38671875,-150.87890625
-26.85546875,-42.96875,-44.43359375,-125.0
106.4453125,-43.9453125,-43.45703125,-88.8671875
-2.44140625,-50.78125,-47.8515625,-90.33203125
-188.96484375,-52.734375,-47.36328125,-110.83984375
-227.5390625,-50.29296875,-44.921875,-139.6484375
-36.1328125,-48.33984375,-39.55078125,-93.26171875
144.04296875,-45.41015625,-35.15625,-48.33984375
58.59375,-46.38671875,-40.52734375,-66.89453125
-161.62109375,-48.828125,-47.8515625,-94.23828125
-261.23046875,-52.734375,-50.78125,-118.1640625
-87.40234375,-52.24609375,-50.78125,-107.91015625
113.76953125,-56.15234375,-44.43359375,-72.265625
47.8515625,-55.17578125,-38.57421875,-63.96484375
-162.109375,-53.7109375,-44.43359375,-101.07421875
-271.484375,-57.6171875,-51.7578125,-127.44140625
-122.0703125,-64.94140625,-62.01171875,-116.69921875
92.7734375,-62.01171875,-64.453125,-79.58984375
61.5234375,-49.31640625,-54.19921875,-67.3828125
-123.53515625,-51.26953125,-56.15234375,-97.65625
-242.67578125,-52.734375,-54.19921875,-107.91015625
-144.04296875,-53.7109375,-43.45703125,-91.796875
105.46875,-49.31640625,-42.96875,-56.15234375
115.72265625,-45.41015625,-47.8515625,-42.96875
-110.83984375,-52.24609375,-47.36328125,-86.9140625
-265.13671875,-55.17578125,-45.8984375,-123.046875
-197.265625,-49.8046875,-45.41015625,-106.93359375
50.78125,-45.41015625,-43.45703125,-49.8046875
120.60546875,-49.8046875,-44.921875,-36.62109375
-87.40234375,-48.828125,-47.8515625,-80.56640625
-240.72265625,-44.43359375,-49.8046875,-122.55859375
-177.734375,-48.33984375,-46.38671875,-124.51171875
14.6484375,-46.875,-48.828125,-81.54296875
111.328125,-40.52734375,-46.38671875,-43.9453125
-51.7578125,-44.43359375,-38.0859375,-62.01171875
-246.58203125,-55.17578125,-43.45703125,-105.46875
-234.86328125,-62.01171875,-41.9921875,-119.62890625
13.18359375,-50.29296875,-30.2734375,-75.68359375
148.4375,-41.9921875,-32.71484375,-37.109375
-17.578125,-53.7109375,-44.43359375,-47.36328125
-244.140625,-56.640625,-51.7578125,-95.21484375
-274.4140625,-55.17578125,-52.734375,-121.09375
-61.03515625,-58.59375,-54.6875,-91.30859375
94.7265625,-53.22265625,-48.828125,-23.92578125
-11.23046875,-53.7109375,-43.45703125,-23.4375
-217.28515625,-58.10546875,-45.41015625,-83.0078125
-289.0625,-57.12890625,-49.31640625,-103.515625
-91.30859375,-57.12890625,-47.8515625,-78.61328125
99.12109375,-54.19921875,-49.8046875,-44.921875
41.9921875,-51.7578125,-51.26953125,-49.8046875
-129.39453125,-48.828125,-52.734375,-72.265625
-233.3984375,-61.5234375,-61.5234375,-93.75
-68.359375,-62.98828125,-58.59375,-74.70703125
133.7890625,-50.29296875,-55.6640625,-50.29296875
64.453125,-49.31640625,-51.7578125,-50.78125
-134.27734375,-50.78125,-50.78125,-86.42578125
-219.23828125,-55.17578125,-57.6171875,-119.62890625
-63.96484375,-53.7109375,-56.15234375,-98.6328125
106.93359375,-50.29296875,-50.78125,-48.33984375
77.63671875,-51.7578125,-50.78125,-33.69140625
-92.7734375,-54.6875,-51.26953125,-79.58984375
-250.0,-59.08203125,-53.7109375,-119.140625
-124.0234375,-57.12890625,-56.640625,-103.515625
124.0234375,-52.734375,-52.734375,-66.89453125
115.72265625,-49.31640625,-52.24609375,-59.5703125
-61.03515625,-56.15234375,-56.640625,-69.82421875
-240.234375,-65.4296875,-57.12890625,-93.75
-195.80078125,-62.98828125,-59.08203125,-136.23046875
82.03125,-53.22265625,-53.22265625,-99.12109375
125.48828125,-50.78125,-41.50390625,-41.015625
-86.42578125,-53.22265625,-43.9453125,-61.5234375
-244.140625,-52.24609375,-48.828125,-123.53515625
-180.17578125,-50.29296875,-48.33984375,-135.25390625
25.87890625,-46.38671875,-50.29296875,-99.609375
89.84375,-43.9453125,-45.8984375,-60.546875
-62.98828125,-45.8984375,-39.0625,-47.8515625
-280.76171875,-52.24609375,-40.0390625,-75.68359375
-275.87890625,-54.6875,-43.9453125,-122.55859375
-22.4609375,-50.78125,-48.33984375,-83.49609375
131.34765625,-46.875,-50.29296875,-34.1796875
2.44140625,-47.8515625,-49.31640625,-54.19921875
-215.8203125,-49.8046875,-49.31640625,-91.796875
-227.5390625,-55.6640625,-47.36328125,-109.375
-30.2734375,-56.640625,-41.9921875,-83.0078125
98.6328125,-54.6875,-41.50390625,-39.0625
-20.5078125,-57.12890625,-47.8515625,-43.45703125
-205.56640625,-50.78125,-54.6875,-84.9609375
-249.0234375,-52.734375,-46.875,-95.21484375
-72.75390625,-55.17578125,-36.1328125,-64.94140625
100.5859375,-56.15234375,-27.34375,-15.13671875
28.3203125,-59.08203125,-25.390625,-5.37109375
-183.59375,-61.03515625,-26.3671875,-79.58984375
-290.52734375,-69.82421875,-27.34375,-155.2734375
-96.19140625,-67.87109375,-27.34375,-135.25390625
114.74609375,-60.546875,-24.90234375,-86.9140625
40.52734375,-60.546875,-26.3671875,-80.56640625
-152.34375,-64.94140625,-24.90234375,-105.46875
-266.11328125,-75.1953125,-25.390625,-131.8359375
-128.41796875,-77.63671875,-19.04296875,-108.3984375
94.7265625,-64.453125,-15.625,-62.5
67.3828125,-60.05859375,-20.01953125,-34.66796875
-130.859375,-65.4296875,-19.53125,-40.0390625
-262.20703125,-62.98828125,-25.390625,-93.75
-161.62109375,-61.5234375,-29.296875,-122.0703125
62.5,-56.15234375,-24.4140625,-100.5859375
64.453125,-53.7109375,-27.83203125,-83.984375
-138.671875,-57.6171875,-29.78515625,-111.81640625
-285.15625,-56.640625,-26.85546875,-141.6015625
-203.61328125,-59.5703125,-29.296875,-144.04296875
13.18359375,-66.40625,-37.109375,-85.9375
47.36328125,-58.10546875,-33.203125,-33.203125
-123.046875,-55.6640625,-26.85546875,-85.9375
-299.31640625,-61.03515625,-29.296875,-132.8125
-267.08984375,-60.546875,-28.80859375,-143.5546875
-25.87890625,-56.15234375,-30.76171875,-116.2109375
55.6640625,-52.24609375,-37.59765625,-66.89453125
-125.0,-54.6875,-43.9453125,-79.58984375
-288.0859375,-56.640625,-41.50390625,-119.140625
-237.3046875,-56.15234375,-41.015625,-129.39453125
-25.87890625,-52.24609375,-36.62109375,-99.12109375
61.03515625,-51.26953125,-26.85546875,-59.08203125
-89.35546875,-53.22265625,-32.2265625,-59.08203125
-264.6484375,-55.17578125,-33.69140625,-83.984375
-267.08984375,-57.6171875,-30.76171875,-110.83984375
-73.73046875,-64.94140625,-36.1328125,-100.09765625
66.40625,-57.6171875,-36.1328125,-87.890625
-38.0859375,-46.38671875,-31.73828125,-88.8671875
-251.953125,-55.6640625,-31.25,-134.765625
-266.6015625,-52.734375,-34.1796875,-161.62109375
-73.2421875,-48.33984375,-24.90234375,-104.00390625
84.47265625,-48.828125,-10.7421875,-71.77734375
11.23046875,-50.78125,-12.20703125,-90.8203125
-221.19140625,-57.6171875,-15.625,-111.81640625
-309.08203125,-53.7109375,-17.578125,-136.71875
-123.53515625,-51.26953125,-17.08984375,-127.44140625
69.3359375,-49.8046875,-13.18359375,-72.265625
0.0,-47.8515625,-19.04296875,-69.82421875
-208.984375,-51.26953125,-19.53125,-110.3515625
-298.828125,-50.29296875,-25.390625,-150.87890625
-130.859375,-44.43359375,-32.71484375,-138.671875
66.89453125,-38.57421875,-25.87890625,-68.84765625
24.90234375,-41.50390625,-22.94921875,-57.12890625
-165.52734375,-47.8515625,-29.296875,-106.4453125
-261.71875,-49.8046875,-34.1796875,-130.859375
-136.23046875,-46.38671875,-34.66796875,-124.0234375
53.7109375,-37.109375,-32.2265625,-77.1484375
76.66015625,-36.1328125,-30.76171875,-47.36328125
-78.125,-44.43359375,-31.25,-95.21484375
-219.23828125,-47.8515625,-33.69140625,-133.30078125
-144.53125,-45.8984375,-33.203125,-126.46484375
88.8671875,-45.41015625,-30.76171875,-84.9609375
84.9609375,-43.9453125,-27.83203125,-60.546875
-147.94921875,-47.8515625,-25.87890625,-95.21484375
-306.15234375,-53.22265625,-32.71484375,-146.97265625
-236.328125,-53.22265625,-38.57421875,-145.5078125
7.8125,-47.8515625,-37.109375,-94.23828125
85.9375,-41.9921875,-35.15625,-69.82421875
-83.49609375,-46.875,-35.15625,-87.40234375
-253.90625,-54.19921875,-31.73828125,-121.58203125
-238.28125,-53.7109375,-29.78515625,-118.65234375
2.44140625,-51.7578125,-29.296875,-96.6796875
156.25,-55.17578125,-27.83203125,-59.08203125
9.765625,-57.6171875,-33.203125,-55.6640625
-212.40234375,-50.78125,-39.0625,-86.42578125
-250.9765625,-56.15234375,-42.48046875,-96.19140625
-17.08984375,-61.03515625,-41.015625,-71.77734375
142.578125,-55.6640625,-44.43359375,-60.05859375
-0.48828125,-55.6640625,-48.33984375,-77.1484375
-245.60546875,-52.734375,-41.50390625,-98.14453125
-296.875,-57.12890625,-41.50390625,-112.3046875
-100.09765625,-58.10546875,-43.45703125,-90.8203125
68.84765625,-52.734375,-39.0625,-41.50390625
-54.6875,-50.78125,-34.66796875,-29.296875
-271.484375,-53.7109375,-43.9453125,-69.82421875
-295.8984375,-61.5234375,-53.7109375,-97.16796875
-134.27734375,-57.6171875,-50.29296875,-94.7265625
8.7890625,-47.8515625,-47.8515625,-59.08203125
-100.09765625,-45.8984375,-48.33984375,-51.7578125
-313.96484375,-51.26953125,-47.8515625,-83.49609375
-435.546875,-52.24609375,-42.48046875,-100.5859375
-305.17578125,-49.31640625,-38.57421875,-80.56640625
-78.125,-50.78125,-40.52734375,-26.85546875
-75.1953125,-53.7109375,-40.0390625,-19.04296875
-254.8828125,-47.8515625,-35.64453125,-47.8515625
-391.6015625,-48.33984375,-37.59765625,-74.21875
-269.04296875,-50.29296875,-33.203125,-65.91796875
-52.24609375,-45.8984375,-32.71484375,-19.53125
-56.640625,-44.43359375,-41.9921875,-12.20703125
-263.671875,-44.921875,-43.9453125,-50.29296875
-436.5234375,-49.8046875,-42.48046875,-79.58984375
-319.3359375,-54.19921875,-45.41015625,-76.66015625
-27.83203125,-46.875,-38.57421875,-15.625
17.578125,-44.921875,-30.2734375,27.34375
-225.5859375,-57.6171875,-40.0390625,-33.69140625
-379.8828125,-52.24609375,-41.50390625,-85.9375
-295.8984375,-42.96875,-29.78515625,-67.87109375
-106.93359375,-46.875,-34.66796875,-16.6015625
3.41796875,-47.8515625,-44.921875,-19.04296875
-119.140625,-49.8046875,-38.57421875,-48.33984375
-352.05078125,-54.6875,-34.66796875,-71.2890625
-311.03515625,-57.12890625,-36.62109375,-90.33203125
-37.109375,-57.6171875,-34.1796875,-56.15234375
97.65625,-44.921875,-34.66796875,-22.4609375
-1.953125,-33.69140625,-42.48046875,-45.41015625
-211.9140625,-45.41015625,-49.8046875,-82.03125
-244.140625,-60.546875,-50.78125,-71.2890625
0.0,-51.26953125,-43.45703125,-28.80859375
163.0859375,-34.66796875,-41.50390625,-25.390625
16.6015625,-37.59765625,-38.0859375,-58.10546875
-196.2890625,-50.29296875,-39.55078125,-88.37890625
-203.125,-49.8046875,-37.109375,-85.44921875
-9.27734375,-43.9453125,-36.1328125,-52.734375
134.765625,-42.48046875,-45.41015625,-22.94921875
60.546875,-43.9453125,-41.015625,-23.92578125
-160.64453125,-47.8515625,-33.203125,-49.8046875
-259.27734375,-49.31640625,-37.59765625,-99.609375
-40.0390625,-48.828125,-38.57421875,-86.42578125
128.90625,-41.015625,-40.0390625,-38.57421875
25.390625,-44.43359375,-44.43359375,-62.01171875
-174.31640625,-52.734375,-37.109375,-67.3828125
-308.10546875,-51.26953125,-41.015625,-68.84765625
-157.71484375,-49.31640625,-46.875,-69.3359375
67.3828125,-44.43359375,-44.921875,-30.2734375
41.9921875,-37.109375,-46.38671875,-31.73828125
-170.8984375,-37.59765625,-51.7578125,-74.21875
-285.64453125,-36.1328125,-52.734375,-86.42578125
-184.5703125,-36.62109375,-44.921875,-57.6171875
3.90625,-38.0859375,-46.875,-30.76171875
-12.20703125,-45.8984375,-44.921875,-21.97265625
-244.62890625,-52.734375,-44.43359375,-64.94140625
-380.37109375,-48.828125,-54.6875,-100.09765625
-272.94921875,-46.875,-52.24609375,-93.75
-3.41796875,-33.69140625,-48.33984375,-54.6875
33.69140625,-36.62109375,-40.52734375,-5.859375
-197.265625,-46.875,-42.48046875,-63.4765625
-350.5859375,-46.38671875,-51.26953125,-119.62890625
-253.90625,-41.015625,-55.6640625,-96.6796875
-37.109375,-38.57421875,-47.36328125,-136.23046875
11.23046875,-42.48046875,-46.875,-148.92578125
-144.53125,-35.15625,-56.15234375,-55.17578125
-323.73046875,-36.62109375,-45.8984375,-33.203125
-333.0078125,-54.19921875,-36.1328125,-100.5859375
-125.0,-52.734375,-39.55078125,-91.796875
7.8125,-35.15625,-40.52734375,-39.55078125
-145.5078125,-43.9453125,-46.875,-54.19921875
-391.11328125,-61.03515625,-51.7578125,-91.30859375
-407.2265625,-54.19921875,-46.875,-119.62890625
-112.3046875,-45.41015625,-44.921875,-115.72265625
57.12890625,-48.828125,-41.9921875,-77.63671875
-87.40234375,-53.22265625,-46.875,-91.30859375
-283.203125,-46.38671875,-58.59375,-111.328125
-322.75390625,-48.33984375,-45.8984375,-95.703125
-126.46484375,-52.734375,-37.109375,-73.2421875
62.01171875,-43.45703125,-36.1328125,-32.71484375
-17.578125,-48.828125,-32.71484375,-45.41015625
-249.51171875,-55.6640625,-49.8046875,-92.7734375
-300.78125,-47.36328125,-69.3359375,-94.23828125
-77.63671875,-45.41015625,-54.6875,-49.8046875
94.7265625,-51.26953125,-50.78125,-15.625
-10.7421875,-59.08203125,-54.19921875,-39.0625
-213.37890625,-55.17578125,-43.45703125,-70.3125
-300.78125,-49.31640625,-41.015625,-54.6875
-149.4140625,-56.640625,-54.19921875,-45.41015625
76.66015625,-48.33984375,-58.59375,-27.83203125
53.22265625,-41.9921875,-46.38671875,-11.23046875
-188.4765625,-48.828125,-43.9453125,-62.5
-325.68359375,-49.31640625,-49.8046875,-107.91015625
-171.875,-51.7578125,-49.31640625,-74.21875
85.9375,-46.875,-44.921875,-0.9765625
110.83984375,-42.48046875,-43.45703125,27.83203125
-117.67578125,-45.41015625,-47.8515625,-52.24609375
-276.3671875,-47.8515625,-57.6171875,-105.46875
-167.96875,-43.45703125,-59.5703125,-81.0546875
72.75390625,-46.38671875,-50.78125,-41.015625
107.91015625,-47.36328125,-47.8515625,-36.1328125
-74.21875,-35.64453125,-57.6171875,-50.78125
-250.9765625,-38.0859375,-60.546875,-67.3828125
-170.8984375,-44.921875,-54.6875,-62.01171875
89.84375,-41.015625,-51.7578125,-54.19921875
150.390625,-33.203125,-49.8046875,-66.89453125
-19.53125,-34.1796875,-47.8515625,-65.4296875
-188.96484375,-45.41015625,-50.29296875,-99.12109375
-155.2734375,-41.50390625,-56.640625,-108.3984375
72.265625,-36.1328125,-51.7578125,-77.63671875
147.94921875,-39.55078125,-50.78125,-48.828125
-20.01953125,-42.96875,-47.36328125,-67.87109375
-196.77734375,-48.33984375,-42.48046875,-106.4453125
-165.52734375,-42.48046875,-49.31640625,-123.53515625
40.0390625,-37.59765625,-51.7578125,-93.26171875
140.625,-39.55078125,-44.43359375,-40.52734375
36.1328125,-36.1328125,-43.45703125,-31.25
-222.16796875,-44.43359375,-41.50390625,-102.5390625
-297.8515625,-48.828125,-42.48046875,-127.9296875
-45.41015625,-39.55078125,-52.24609375,-66.40625
159.66796875,-29.78515625,-56.640625,-42.96875
80.078125,-31.25,-59.5703125,-49.31640625
-141.11328125,-42.48046875,-46.38671875,-68.359375
-187.98828125,-41.015625,-45.41015625,-92.28515625
15.625,-39.55078125,-51.26953125,-71.2890625
181.15234375,-44.43359375,-43.45703125,-49.31640625
95.21484375,-43.9453125,-45.8984375,-76.171875
-169.921875,-46.38671875,-47.36328125,-99.12109375
-291.9921875,-49.31640625,-49.8046875,-111.328125
-96.6796875,-42.48046875,-48.33984375,-78.61328125
110.3515625,-40.52734375,-47.8515625,-23.4375
20.5078125,-39.55078125,-45.41015625,-44.921875
-171.38671875,-41.015625,-38.0859375,-73.73046875
-267.08984375,-47.8515625,-44.921875,-90.33203125
-192.3828125,-49.31640625,-48.33984375,-95.21484375
50.78125,-43.45703125,-49.31640625,-66.40625
119.62890625,-36.1328125,-45.41015625,-30.76171875
-104.98046875,-42.48046875,-40.0390625,-55.6640625
-282.71484375,-49.31640625,-42.96875,-99.609375
-164.0625,-48.33984375,-44.921875,-87.890625
81.54296875,-43.45703125,-43.45703125,-51.26953125
110.3515625,-37.109375,-41.50390625,-41.50390625
-52.734375,-38.0859375,-40.52734375,-49.8046875
-264.6484375,-52.734375,-41.9921875,-70.3125
-242.1875,-53.7109375,-42.48046875,-48.828125
25.390625,-42.96875,-36.62109375,-4.39453125
132.32421875,-44.921875,-40.52734375,10.7421875
-78.125,-43.9453125,-49.8046875,2.44140625
-271.484375,-48.33984375,-53.7109375,-41.9921875
-242.67578125,-59.08203125,-62.98828125,-67.3828125
-22.94921875,-53.7109375,-58.10546875,-31.25
130.859375,-37.59765625,-39.55078125,29.78515625
-41.50390625,-35.64453125,-40.52734375,12.6953125
-256.34765625,-43.45703125,-49.31640625,-51.26953125
-244.62890625,-45.8984375,-51.26953125,-76.171875
-40.52734375,-42.96875,-43.45703125,-20.5078125
82.03125,-36.1328125,-38.0859375,14.6484375
-15.625,-39.55078125,-43.45703125,-14.16015625
-187.98828125,-49.8046875,-54.19921875,-53.7109375
-219.23828125,-54.19921875,-54.6875,-78.61328125
-20.99609375,-51.7578125,-52.24609375,-47.36328125
119.140625,-50.78125,-55.17578125,-14.6484375
11.23046875,-45.8984375,-60.05859375,-33.69140625
-190.91796875,-47.36328125,-62.01171875,-75.1953125
-266.11328125,-54.6875,-56.15234375,-69.82421875
-101.07421875,-49.8046875,-53.22265625,-38.0859375
97.65625,-44.43359375,-48.828125,-20.99609375
47.36328125,-42.96875,-47.8515625,-28.3203125
-162.109375,-48.33984375,-51.26953125,-48.33984375
-235.3515625,-54.6875,-55.6640625,-71.77734375
-61.5234375,-46.38671875,-53.7109375,-51.26953125
89.84375,-40.52734375,-44.921875,3.90625
14.6484375,-49.31640625,-41.015625,4.8828125
-187.98828125,-59.08203125,-46.38671875,-42.48046875
-309.08203125,-50.78125,-53.7109375,-93.26171875
-168.9453125,-39.55078125,-52.734375,-102.05078125
44.43359375,-38.0859375,-49.31640625,-67.87109375
20.99609375,-38.57421875,-46.875,-37.59765625
-157.71484375,-39.55078125,-51.26953125,-60.05859375
-257.8125,-41.015625,-60.546875,-98.14453125
-139.16015625,-38.57421875,-58.10546875,-83.0078125
43.45703125,-39.0625,-53.22265625,-44.43359375
46.38671875,-38.57421875,-56.640625,-37.109375
-109.375,-35.64453125,-58.59375,-51.7578125
-270.99609375,-45.8984375,-63.4765625,-73.73046875
-212.40234375,-43.45703125,-61.03515625,-69.82421875
22.4609375,-30.76171875,-52.24609375,-28.3203125
63.96484375,-31.25,-50.78125,-2.9296875
-130.859375,-38.57421875,-54.6875,-54.6875
-275.390625,-41.50390625,-55.17578125,-81.54296875
-235.83984375,-43.9453125,-48.33984375,-70.3125
-52.734375,-41.50390625,-41.9921875,-41.015625
33.203125,-36.1328125,-48.828125,-8.7890625
-94.7265625,-37.109375,-54.19921875,-45.41015625
-257.8125,-38.0859375,-45.41015625,-71.2890625
-252.44140625,-39.0625,-44.43359375,-46.875
-86.42578125,-43.45703125,-51.7578125,-45.41015625
24.4140625,-38.57421875,-51.7578125,-26.3671875
-60.546875,-34.1796875,-47.8515625,1.953125
-262.6953125,-41.50390625,-47.8515625,-45.8984375
-294.43359375,-47.8515625,-44.921875,-50.29296875
-88.37890625,-41.50390625,-38.0859375,-12.6953125
76.66015625,-36.1328125,-38.57421875,-7.32421875
-33.69140625,-39.55078125,-44.43359375,-2.9296875
-246.58203125,-40.0390625,-47.36328125,-45.8984375
-288.57421875,-39.0625,-41.9921875,-52.24609375
-114.2578125,-37.109375,-43.45703125,-47.8515625
56.15234375,-37.59765625,-49.8046875,-25.87890625
-14.16015625,-36.62109375,-46.875,-18.5546875
-185.546875,-33.69140625,-50.78125,-51.7578125
-267.08984375,-32.2265625,-52.24609375,-66.89453125
-115.234375,-44.921875,-57.6171875,-82.03125
87.890625,-54.6875,-52.734375,-29.296875
39.55078125,-41.015625,-38.0859375,23.4375
-206.0546875,-29.296875,-44.43359375,-33.203125
-333.49609375,-31.25,-55.6640625,-103.02734375
-157.71484375,-28.80859375,-57.6171875,-96.6796875
16.11328125,-27.34375,-57.12890625,-50.29296875
-22.94921875,-30.2734375,-62.98828125,-48.33984375
-187.98828125,-31.25,-66.89453125,-69.82421875
-318.359375,-34.1796875,-75.68359375,-99.609375
-198.73046875,-35.15625,-76.171875,-111.328125
20.01953125,-30.2734375,-71.77734375,-78.125
23.4375,-26.85546875,-73.73046875,-55.6640625
-142.578125,-30.76171875,-75.1953125,-77.63671875
-256.34765625,-29.296875,-76.171875,-105.95703125
-189.453125,-31.25,-77.63671875,-92.28515625
77.63671875,-34.1796875,-78.125,-44.43359375
162.59765625,-32.71484375,-69.3359375,-27.34375
-54.19921875,-32.71484375,-68.84765625,-34.66796875
-245.1171875,-39.0625,-65.4296875,-59.08203125
-226.07421875,-43.45703125,-58.10546875,-77.1484375
33.203125,-36.1328125,-57.12890625,-49.31640625
143.5546875,-28.3203125,-52.734375,-20.5078125
-29.78515625,-34.1796875,-56.640625,-34.66796875
-194.3359375,-37.59765625,-63.4765625,-50.78125
-177.24609375,-35.15625,-64.94140625,-55.17578125
35.15625,-33.69140625,-62.98828125,-50.78125
173.33984375,-26.85546875,-57.12890625,-7.32421875
16.11328125,-29.296875,-53.22265625,-18.06640625
-205.078125,-43.9453125,-61.5234375,-90.8203125
-218.75,-48.828125,-63.96484375,-120.60546875
-4.8828125,-44.921875,-60.05859375,-87.890625
129.39453125,-43.45703125,-59.5703125,-48.828125
-14.16015625,-45.8984375,-56.15234375,-44.921875
-209.47265625,-46.875,-55.17578125,-53.7109375
-254.8828125,-41.50390625,-59.08203125,-89.84375
-79.1015625,-39.0625,-59.08203125,-77.1484375
126.46484375,-36.1328125,-57.12890625,-47.36328125
50.29296875,-35.15625,-61.03515625,-51.26953125
-166.50390625,-43.45703125,-63.4765625,-61.5234375
-248.53515625,-45.8984375,-62.5,-72.75390625
-93.26171875,-42.96875,-51.26953125,-58.59375
106.4453125,-42.48046875,-44.921875,-31.73828125
78.125,-40.0390625,-48.828125,-25.390625
-137.6953125,-36.62109375,-50.29296875,-56.15234375
-258.7890625,-37.59765625,-53.22265625,-95.703125
-99.609375,-40.52734375,-55.6640625,-77.1484375
116.2109375,-34.66796875,-46.875,-20.99609375
93.26171875,-28.3203125,-37.109375,-15.13671875
-89.35546875,-33.203125,-49.8046875,-60.05859375
-231.4453125,-41.9921875,-60.546875,-89.84375
-138.18359375,-41.50390625,-57.6171875,-86.9140625
99.12109375,-35.15625,-56.640625,-30.76171875
129.39453125,-40.0390625,-58.59375,2.9296875
-78.125,-49.31640625,-60.546875,-37.109375
-235.83984375,-53.7109375,-56.640625,-70.80078125
-165.0390625,-47.36328125,-57.12890625,-93.26171875
70.3125,-37.109375,-49.8046875,-52.734375
150.87890625,-41.9921875,-44.921875,-21.97265625
-44.921875,-46.875,-49.31640625,-40.52734375
-229.00390625,-46.38671875,-48.828125,-71.2890625
-169.921875,-43.9453125,-48.828125,-87.890625
26.85546875,-39.55078125,-46.38671875,-39.55078125
114.74609375,-35.64453125,-38.57421875,1.46484375
-16.11328125,-41.9921875,-44.43359375,-14.6484375
-192.87109375,-49.31640625,-52.24609375,-62.5
-185.546875,-47.8515625,-55.17578125,-83.49609375
31.73828125,-40.52734375,-47.36328125,-47.8515625
145.5078125,-36.62109375,-40.0390625,-2.9296875
-13.671875,-42.48046875,-39.55078125,-22.94921875
-209.47265625,-49.8046875,-42.96875,-62.98828125
-239.2578125,-47.8515625,-48.828125,-81.0546875
-58.10546875,-37.109375,-59.08203125,-94.23828125
118.65234375,-28.3203125,-60.546875,-87.40234375
24.90234375,-31.73828125,-56.640625,-55.6640625
-166.015625,-37.59765625,-64.94140625,-83.984375
-186.5234375,-39.0625,-66.89453125,-136.71875
-16.11328125,-36.62109375,-62.01171875,-106.93359375
164.0625,-32.2265625,-63.4765625,-58.10546875
118.65234375,-34.1796875,-67.87109375,-47.8515625
-127.9296875,-36.62109375,-63.4765625,-81.0546875
-259.765625,-39.0625,-59.08203125,-102.05078125
-93.75,-42.48046875,-56.15234375,-89.84375
114.74609375,-41.015625,-52.734375,-55.6640625
53.22265625,-33.69140625,-47.8515625,-36.62109375
-134.27734375,-37.109375,-49.31640625,-48.33984375
-226.5625,-38.57421875,-49.8046875,-63.96484375
-127.9296875,-37.109375,-46.38671875,-75.68359375
72.265625,-43.45703125,-50.29296875,-44.43359375
67.3828125,-43.9453125,-50.29296875,-32.71484375
-137.6953125,-39.55078125,-47.36328125,-68.359375
-256.34765625,-39.55078125,-49.8046875,-92.28515625
-156.73828125,-36.62109375,-52.24609375,-83.984375
43.45703125,-33.203125,-48.33984375,-45.41015625
48.33984375,-31.25,-53.7109375,-30.76171875
-119.62890625,-29.296875,-57.6171875,-53.22265625
-267.578125,-38.0859375,-57.6171875,-64.94140625
-195.3125,-41.015625,-59.5703125,-61.5234375
33.203125,-39.55078125,-56.640625,-52.24609375
78.61328125,-46.38671875,-56.640625,-45.8984375
-93.75,-53.22265625,-54.19921875,-53.22265625
-242.67578125,-50.78125,-49.31640625,-75.68359375
-190.91796875,-46.38671875,-44.43359375,-91.30859375
24.4140625,-45.41015625,-42.96875,-70.80078125
95.703125,-40.52734375,-42.96875,-41.50390625
-73.2421875,-37.59765625,-42.48046875,-22.94921875
-232.421875,-36.62109375,-46.38671875,-77.1484375
-191.40625,-42.96875,-53.7109375,-99.12109375
-1.46484375,-48.33984375,-53.7109375,-47.36328125
92.28515625,-38.0859375,-47.36328125,-5.859375
-29.78515625,-34.66796875,-45.41015625,-16.11328125
-218.26171875,-44.921875,-44.921875,-68.359375
-243.1640625,-51.7578125,-48.828125,-92.28515625
-26.3671875,-44.921875,-49.31640625,-52.734375
123.046875,-37.59765625,-41.50390625,-8.30078125
6.8359375,-41.50390625,-43.9453125,-14.16015625
-203.125,-50.29296875,-49.31640625,-59.5703125
-254.39453125,-49.8046875,-51.26953125,-85.9375
-57.6171875,-37.109375,-48.828125,-48.828125
118.65234375,-32.2265625,-44.43359375,7.32421875
41.015625,-41.9921875,-44.921875,-0.9765625
-173.33984375,-47.8515625,-46.38671875,-68.359375
-259.765625,-46.38671875,-46.38671875,-92.7734375
-88.37890625,-42.96875,-46.38671875,-75.68359375
101.07421875,-41.015625,-41.50390625,-42.96875
38.0859375,-41.50390625,-37.109375,-27.34375
-187.5,-46.875,-43.9453125,-50.78125
-277.34375,-50.78125,-50.29296875,-93.26171875
-86.42578125,-43.45703125,-46.875,-95.21484375
117.67578125,-35.15625,-44.921875,-43.9453125
97.65625,-30.76171875,-44.43359375,-20.01953125
-83.49609375,-34.66796875,-45.41015625,-46.38671875
-207.03125,-38.57421875,-48.828125,-75.68359375
-91.30859375,-36.1328125,-45.41015625,-65.4296875
127.44140625,-38.0859375,-44.921875,-7.32421875
134.765625,-47.36328125,-40.52734375,2.9296875
-58.59375,-41.9921875,-34.1796875,-49.31640625
-198.73046875,-37.59765625,-38.57421875,-87.890625
-127.9296875,-44.43359375,-42.48046875,-69.82421875
106.4453125,-43.9453125,-38.57421875,-17.08984375
154.78515625,-41.50390625,-27.34375,-5.37109375
-31.73828125,-41.9921875,-27.34375,-22.94921875
-208.0078125,-63.4765625,-43.45703125,-63.4765625
-174.31640625,-62.5,-48.33984375,-76.171875
62.98828125,-39.55078125,-30.76171875,-12.6953125
157.71484375,-39.0625,-26.3671875,25.390625
-2.9296875,-40.52734375,-32.2265625,-26.3671875
-181.15234375,-48.828125,-38.57421875,-73.73046875
-138.671875,-51.26953125,-42.96875,-71.77734375
73.73046875,-44.921875,-41.50390625,-33.69140625
180.17578125,-42.48046875,-37.59765625,-0.48828125
33.69140625,-43.45703125,-41.50390625,-12.6953125
-164.0625,-48.33984375,-49.31640625,-50.78125
-167.96875,-49.31640625,-50.78125,-63.96484375
22.94921875,-45.41015625,-44.921875,-39.0625
166.9921875,-38.0859375,-41.015625,14.16015625
71.77734375,-34.66796875,-36.62109375,8.7890625
-132.32421875,-44.43359375,-42.96875,-51.7578125
-186.03515625,-51.26953125,-55.6640625,-87.40234375
-8.7890625,-44.43359375,-51.26953125,-68.84765625
138.18359375,-38.0859375,-44.43359375,-32.2265625
58.59375,-42.96875,-49.8046875,-46.38671875
-141.11328125,-50.29296875,-55.17578125,-83.0078125
-191.40625,-47.36328125,-49.8046875,-110.3515625
-36.62109375,-45.8984375,-45.8984375,-72.265625
124.0234375,-46.875,-42.96875,-26.85546875
77.1484375,-44.921875,-47.8515625,-28.80859375
-117.67578125,-41.9921875,-47.8515625,-72.75390625
-220.21484375,-47.8515625,-47.36328125,-110.83984375
-84.47265625,-50.29296875,-47.8515625,-101.07421875
102.5390625,-45.41015625,-40.0390625,-53.22265625
65.91796875,-42.48046875,-33.69140625,-33.69140625
-105.95703125,-46.38671875,-40.0390625,-78.125
-222.65625,-50.29296875,-49.31640625,-103.515625
-116.69921875,-51.26953125,-47.8515625,-87.40234375
102.5390625,-45.41015625,-39.55078125,-54.19921875
124.51171875,-46.875,-43.45703125,-23.92578125
-44.43359375,-53.22265625,-47.8515625,-9.27734375
-216.30859375,-56.640625,-41.50390625,-64.94140625
-173.828125,-57.6171875,-39.55078125,-125.9765625
64.453125,-56.640625,-42.48046875,-70.3125
121.09375,-56.640625,-39.0625,-25.87890625
-34.66796875,-51.26953125,-28.80859375,-49.8046875
-177.734375,-56.15234375,-31.25,-83.984375
-119.62890625,-62.01171875,-30.76171875,-61.03515625
100.5859375,-59.08203125,-23.4375,-16.11328125
179.19921875,-60.546875,-26.3671875,-24.4140625
39.55078125,-61.03515625,-25.87890625,-32.71484375
-123.046875,-62.5,-25.390625,-51.26953125
-119.62890625,-63.96484375,-23.92578125,-74.70703125
86.9140625,-56.640625,-19.04296875,-33.203125
207.51953125,-53.22265625,-14.16015625,39.55078125
51.7578125,-66.89453125,-22.94921875,-2.9296875
-128.90625,-70.3125,-34.1796875,-89.84375
-133.30078125,-57.12890625,-33.203125,-94.7265625
49.8046875,-53.22265625,-31.73828125,-60.546875
159.1796875,-51.7578125,-37.109375,-22.4609375
45.41015625,-48.33984375,-40.0390625,-36.1328125
-127.44140625,-51.7578125,-37.59765625,-89.84375
-175.29296875,-58.59375,-44.43359375,-121.09375
14.16015625,-61.03515625,-41.015625,-80.56640625
185.546875,-55.6640625,-34.1796875,-19.53125
91.30859375,-51.26953125,-32.2265625,-17.08984375
-104.98046875,-57.12890625,-36.1328125,-66.40625
-161.1328125,-59.5703125,-42.96875,-115.72265625
21.97265625,-53.22265625,-39.55078125,-96.6796875
192.87109375,-51.7578125,-37.109375,-48.828125
123.53515625,-55.6640625,-40.52734375,-48.828125
-71.77734375,-64.453125,-46.875,-81.54296875
-163.0859375,-69.82421875,-49.31640625,-100.09765625
-32.71484375,-66.40625,-47.8515625,-89.84375
140.625,-59.08203125,-46.38671875,-58.10546875
123.53515625,-56.640625,-45.8984375,-55.6640625
-77.1484375,-63.4765625,-49.31640625,-86.42578125
-229.00390625,-64.94140625,-51.26953125,-111.328125
-123.046875,-71.77734375,-54.6875,-107.91015625
83.49609375,-67.87109375,-54.19921875,-76.66015625
88.37890625,-55.17578125,-46.38671875,-68.84765625
-103.515625,-60.05859375,-51.26953125,-111.81640625
-245.1171875,-67.3828125,-60.05859375,-143.06640625
-153.3203125,-67.3828125,-58.59375,-129.39453125
70.80078125,-60.546875,-54.19921875,-84.47265625
114.2578125,-56.640625,-57.12890625,-68.359375
-55.17578125,-61.03515625,-56.640625,-87.890625
-220.21484375,-69.82421875,-52.734375,-111.328125
-172.8515625,-75.68359375,-58.59375,-120.60546875
46.38671875,-76.66015625,-62.01171875,-101.5625
109.375,-74.21875,-57.12890625,-74.21875
-30.76171875,-67.87109375,-54.6875,-87.890625
-207.51953125,-68.84765625,-57.12890625,-110.3515625
-196.77734375,-76.171875,-57.12890625,-99.12109375
12.6953125,-72.75390625,-54.6875,-69.82421875
91.30859375,-62.98828125,-56.640625,-62.5
-27.34375,-66.89453125,-53.7109375,-69.3359375
-190.91796875,-71.77734375,-54.6875,-118.1640625
-194.82421875,-64.453125,-56.640625,-148.4375
-13.18359375,-63.96484375,-56.15234375,-119.62890625
90.8203125,-75.68359375,-58.59375,-76.171875
-12.6953125,-73.2421875,-57.12890625,-69.3359375
-195.80078125,-69.82421875,-67.3828125,-126.953125
-227.5390625,-68.359375,-78.125,-158.203125
-51.26953125,-59.5703125,-74.21875,-124.51171875
95.703125,-58.10546875,-72.75390625,-93.26171875
20.99609375,-62.01171875,-69.82421875,-106.93359375
-171.875,-67.3828125,-67.3828125,-126.953125
-229.98046875,-71.2890625,-75.68359375,-143.06640625
-51.7578125,-67.87109375,-69.3359375,-119.140625
104.4921875,-64.453125,-61.5234375,-71.77734375
29.78515625,-62.5,-62.98828125,-80.078125
-132.8125,-66.89453125,-66.89453125,-104.98046875
-212.890625,-79.1015625,-73.2421875,-138.18359375
-77.1484375,-74.21875,-70.80078125,-133.30078125
124.0234375,-62.5,-70.3125,-102.5390625
83.0078125,-63.4765625,-73.73046875,-98.6328125
-130.37109375,-73.73046875,-78.61328125,-139.16015625
-252.9296875,-78.61328125,-83.0078125,-159.1796875
-143.06640625,-74.21875,-82.03125,-125.9765625
67.3828125,-70.3125,-79.58984375,-75.68359375
60.546875,-75.68359375,-78.125,-78.61328125
-121.58203125,-78.125,-74.70703125,-134.765625
-248.53515625,-74.21875,-72.75390625,-160.64453125
-160.15625,-73.73046875,-72.75390625,-145.99609375
34.1796875,-73.73046875,-73.73046875,-130.859375
61.03515625,-78.125,-78.61328125,-104.4921875
-99.609375,-82.03125,-78.61328125,-98.6328125
-266.11328125,-81.0546875,-76.66015625,-143.06640625
-196.2890625,-76.66015625,-79.1015625,-138.671875
5.37109375,-75.68359375,-81.0546875,-97.65625
59.5703125,-75.68359375,-76.66015625,-105.46875
-114.74609375,-82.51953125,-81.54296875,-130.859375
-294.43359375,-88.8671875,-86.42578125,-152.34375
-259.27734375,-88.37890625,-83.49609375,-160.15625
-65.91796875,-88.37890625,-84.9609375,-138.671875
57.12890625,-84.47265625,-85.9375,-109.375
-50.29296875,-83.49609375,-81.54296875,-111.81640625
-207.51953125,-86.42578125,-76.66015625,-146.484375
-218.75,-94.7265625,-85.44921875,-170.41015625
-43.9453125,-96.6796875,-90.33203125,-162.109375
65.91796875,-86.9140625,-82.51953125,-112.79296875
-61.5234375,-87.890625,-81.54296875,-103.02734375
-248.53515625,-90.33203125,-81.0546875,-142.578125
-274.4140625,-91.30859375,-80.078125,-156.25
-98.14453125,-88.8671875,-72.75390625,-148.92578125
31.25,-89.35546875,-70.3125,-121.09375
-22.4609375,-91.30859375,-73.2421875,-92.28515625
-196.77734375,-96.6796875,-74.70703125,-110.3515625
-279.296875,-101.07421875,-77.1484375,-178.22265625
-100.09765625,-92.28515625,-74.70703125,-181.15234375
56.640625,-83.0078125,-70.3125,-118.65234375
0.48828125,-78.61328125,-66.89453125,-114.2578125
-171.875,-83.984375,-67.3828125,-127.44140625
-280.76171875,-87.890625,-73.2421875,-140.13671875
-142.08984375,-86.42578125,-77.1484375,-138.18359375
42.96875,-85.9375,-72.265625,-91.796875
10.25390625,-83.984375,-64.453125,-73.73046875
-149.4140625,-83.49609375,-65.91796875,-108.3984375
-265.13671875,-85.9375,-73.73046875,-162.59765625
-156.73828125,-81.54296875,-75.68359375,-161.62109375
65.4296875,-78.61328125,-73.73046875,-113.76953125
44.921875,-81.0546875,-78.125,-115.72265625
-165.52734375,-82.03125,-81.0546875,-142.578125
-290.52734375,-79.58984375,-82.03125,-166.9921875
-194.82421875,-78.61328125,-82.51953125,-154.78515625
5.37109375,-75.1953125,-75.68359375,-90.33203125
36.1328125,-72.265625,-71.2890625,-80.56640625
-93.75,-74.70703125,-73.73046875,-127.44140625
-220.703125,-74.21875,-81.0546875,-167.96875
-198.2421875,-80.56640625,-86.42578125,-183.59375
14.6484375,-83.984375,-85.44921875,-150.390625
95.21484375,-80.078125,-85.44921875,-113.76953125
-78.125,-81.54296875,-86.9140625,-118.65234375
-259.765625,-86.9140625,-89.35546875,-159.1796875
-234.375,-89.35546875,-87.40234375,-166.015625
-17.578125,-84.9609375,-81.0546875,-108.88671875
92.28515625,-83.984375,-74.21875,-70.80078125
-43.9453125,-86.9140625,-75.1953125,-102.5390625
-218.26171875,-89.35546875,-81.0546875,-153.80859375
-237.3046875,-89.35546875,-79.58984375,-152.83203125
-35.64453125,-84.9609375,-78.61328125,-107.421875
123.53515625,-80.56640625,-78.61328125,-70.80078125
29.296875,-73.73046875,-79.1015625,-104.4921875
-166.9921875,-79.58984375,-83.0078125,-148.4375
-209.9609375,-89.84375,-80.078125,-147.94921875
-32.2265625,-96.19140625,-75.1953125,-113.28125
98.6328125,-92.7734375,-69.82421875,-73.73046875
34.66796875,-87.40234375,-67.3828125,-74.21875
-118.1640625,-86.9140625,-64.94140625,-106.93359375
-187.5,-87.40234375,-63.4765625,-126.46484375
-64.453125,-83.984375,-66.89453125,-106.4453125
79.58984375,-78.61328125,-63.96484375,-66.40625
33.69140625,-83.0078125,-62.01171875,-72.265625
-119.62890625,-89.84375,-66.40625,-121.09375
-181.640625,-84.47265625,-67.87109375,-150.87890625
-48.33984375,-82.03125,-70.80078125,-126.953125
126.46484375,-82.03125,-68.359375,-79.58984375
79.58984375,-80.078125,-61.03515625,-62.01171875
-102.5390625,-83.49609375,-60.05859375,-94.23828125
-212.40234375,-86.42578125,-65.91796875,-131.34765625
-100.09765625,-85.44921875,-69.82421875,-128.41796875
82.03125,-79.1015625,-67.3828125,-97.16796875
84.47265625,-78.125,-71.2890625,-90.8203125
-73.2421875,-80.078125,-71.77734375,-98.6328125
-197.75390625,-80.078125,-69.82421875,-108.88671875
-124.0234375,-83.984375,-70.3125,-136.23046875
59.5703125,-80.078125,-68.359375,-110.83984375
99.12109375,-74.21875,-64.94140625,-79.58984375
-76.171875,-76.66015625,-69.3359375,-100.09765625
-233.88671875,-80.078125,-70.3125,-124.0234375
-186.03515625,-81.54296875,-64.94140625,-133.30078125
17.578125,-73.73046875,-59.5703125,-101.5625
83.49609375,-74.21875,-59.5703125,-68.359375
-69.82421875,-73.73046875,-62.98828125,-94.23828125
-228.02734375,-78.125,-68.359375,-139.6484375
-175.78125,-87.40234375,-66.40625,-146.97265625
28.80859375,-81.54296875,-62.98828125,-118.1640625
86.42578125,-72.75390625,-64.453125,-98.14453125
-78.125,-76.171875,-60.546875,-77.63671875
-253.90625,-78.61328125,-60.05859375,-116.2109375
-241.2109375,-73.2421875,-66.40625,-168.9453125
-62.01171875,-70.3125,-70.3125,-141.11328125
47.36328125,-68.359375,-73.2421875,-101.5625
-56.640625,-70.3125,-74.21875,-94.7265625
-230.46875,-73.73046875,-70.3125,-121.09375
-259.27734375,-80.56640625,-71.2890625,-156.25
-89.84375,-77.63671875,-67.87109375,-135.25390625
42.48046875,-72.265625,-62.5,-96.19140625
-28.3203125,-71.77734375,-61.03515625,-105.46875
-182.6171875,-71.77734375,-58.10546875,-104.4921875
-228.515625,-72.265625,-58.59375,-119.62890625
-72.265625,-72.265625,-60.546875,-125.48828125
88.37890625,-70.80078125,-62.5,-87.890625
36.62109375,-67.3828125,-62.98828125,-71.2890625
-153.3203125,-67.3828125,-63.96484375,-104.4921875
-229.4921875,-72.265625,-66.40625,-133.30078125
-97.16796875,-73.73046875,-64.453125,-108.3984375
78.61328125,-71.2890625,-64.453125,-74.70703125
61.5234375,-72.75390625,-66.89453125,-62.98828125
-118.65234375,-79.1015625,-64.94140625,-76.171875
-207.03125,-80.078125,-62.5,-106.93359375
-103.02734375,-76.171875,-61.5234375,-117.1875
82.03125,-71.77734375,-62.98828125,-87.40234375
87.890625,-70.80078125,-62.5,-63.96484375
-107.91015625,-75.1953125,-62.01171875,-77.63671875
-254.8828125,-79.1015625,-64.94140625,-114.74609375
-150.390625,-78.125,-63.96484375,-102.05078125
47.8515625,-74.21875,-61.5234375,-81.0546875
65.4296875,-67.87109375,-57.6171875,-74.70703125
-85.44921875,-75.1953125,-60.546875,-85.44921875
-215.33203125,-78.61328125,-66.89453125,-122.55859375
-163.0859375,-74.21875,-62.98828125,-130.859375
26.85546875,-70.3125,-61.5234375,-94.7265625
66.89453125,-69.82421875,-63.96484375,-62.98828125
-91.30859375,-74.70703125,-58.59375,-83.0078125
-246.58203125,-80.56640625,-59.08203125,-125.9765625
-199.21875,-83.0078125,-59.08203125,-129.39453125
23.92578125,-78.125,-50.29296875,-62.01171875
99.12109375,-74.70703125,-53.7109375,-47.36328125
-42.48046875,-75.68359375,-62.5,-87.890625
-213.37890625,-79.58984375,-65.4296875,-110.3515625
-208.0078125,-74.70703125,-64.453125,-123.53515625
-9.27734375,-68.84765625,-59.08203125,-84.47265625
93.75,-67.3828125,-61.5234375,-41.50390625
-8.7890625,-65.4296875,-62.5,-54.19921875
-165.0390625,-69.3359375,-57.6171875,-96.6796875
-195.80078125,-73.2421875,-55.6640625,-110.3515625
-36.1328125,-73.73046875,-58.59375,-95.703125
104.4921875,-69.82421875,-54.19921875,-76.171875
12.20703125,-72.265625,-50.78125,-56.640625
-160.15625,-77.1484375,-56.640625,-77.1484375
-209.9609375,-76.66015625,-61.5234375,-97.65625
-55.17578125,-72.75390625,-62.01171875,-91.30859375
90.8203125,-68.359375,-55.6640625,-51.7578125
14.6484375,-63.4765625,-43.9453125,-20.99609375
-158.203125,-62.01171875,-48.33984375,-72.265625
-217.28515625,-67.87109375,-63.4765625,-117.1875
-61.5234375,-68.359375,-59.5703125,-94.23828125
104.98046875,-60.05859375,-49.31640625,-52.24609375
36.1328125,-62.5,-49.31640625,-44.921875
-155.76171875,-71.2890625,-52.24609375,-74.70703125
-252.44140625,-68.84765625,-49.8046875,-94.23828125
-138.671875,-64.453125,-53.22265625,-83.0078125
45.41015625,-60.546875,-51.26953125,-29.296875
39.55078125,-61.5234375,-45.41015625,-20.99609375
-105.46875,-62.98828125,-47.8515625,-78.125
-220.21484375,-65.4296875,-48.828125,-126.953125
-121.09375,-64.453125,-48.33984375,-116.2109375
68.359375,-60.546875,-48.828125,-58.59375
78.61328125,-64.453125,-43.9453125,-29.78515625
-80.078125,-62.01171875,-43.45703125,-49.8046875
-226.07421875,-64.453125,-50.29296875,-83.984375
-167.96875,-70.3125,-54.6875,-85.9375
32.71484375,-61.5234375,-56.640625,-40.0390625
81.0546875,-55.17578125,-56.15234375,-28.3203125
-86.42578125,-58.59375,-57.6171875,-35.64453125
-249.0234375,-62.01171875,-62.01171875,-83.49609375
-198.2421875,-59.5703125,-58.10546875,-121.09375
-2.44140625,-55.17578125,-55.17578125,-74.70703125
76.171875,-52.734375,-50.78125,-44.43359375
-64.94140625,-54.19921875,-45.41015625,-51.26953125
-229.4921875,-56.15234375,-53.7109375,-83.49609375
-207.03125,-56.15234375,-58.10546875,-104.4921875
-20.5078125,-56.640625,-53.22265625,-77.1484375
71.2890625,-55.6640625,-53.7109375,-54.6875
-40.0390625,-55.6640625,-56.15234375,-73.73046875
-210.9375,-59.5703125,-55.6640625,-98.14453125
-244.140625,-62.5,-56.640625,-105.95703125
-64.94140625,-65.4296875,-54.19921875,-65.91796875
63.96484375,-64.94140625,-48.828125,-39.0625
-14.6484375,-61.5234375,-49.8046875,-37.109375
-203.61328125,-59.08203125,-53.22265625,-60.546875
-255.859375,-57.12890625,-58.10546875,-110.83984375
-79.58984375,-55.6640625,-53.22265625,-83.49609375
54.6875,-52.734375,-42.48046875,-46.38671875
-14.16015625,-55.6640625,-47.36328125,-41.9921875
-197.265625,-63.96484375,-53.7109375,-65.91796875
-267.08984375,-63.96484375,-48.828125,-91.30859375
-110.3515625,-63.4765625,-42.48046875,-70.80078125
57.6171875,-54.6875,-31.25,-29.78515625
-7.32421875,-52.734375,-28.80859375,10.25390625
-189.453125,-67.3828125,-44.43359375,-35.15625
-263.671875,-68.359375,-51.26953125,-113.28125
-140.625,-62.98828125,-57.6171875,-102.5390625
46.875,-56.640625,-59.5703125,-55.6640625
52.734375,-57.12890625,-50.78125,-35.64453125
-119.62890625,-61.03515625,-45.8984375,-38.57421875
-248.046875,-64.453125,-45.41015625,-72.75390625
-165.0390625,-73.2421875,-49.31640625,-79.58984375
29.78515625,-70.3125,-51.26953125,-41.015625
53.7109375,-60.05859375,-51.26953125,-7.8125
-99.609375,-59.08203125,-51.7578125,-25.87890625
-190.4296875,-60.05859375,-52.734375,-88.37890625
-111.328125,-54.6875,-49.8046875,-89.35546875
66.89453125,-48.33984375,-42.48046875,-32.71484375
100.5859375,-50.29296875,-39.0625,-10.7421875
-78.61328125,-54.6875,-40.0390625,-43.45703125
-209.47265625,-57.6171875,-44.43359375,-77.63671875
-183.10546875,-51.26953125,-42.48046875,-49.8046875
-10.7421875,-45.8984375,-37.109375,-2.44140625
75.1953125,-45.8984375,-35.15625,-6.8359375
-57.6171875,-47.8515625,-37.109375,-47.8515625
-196.2890625,-49.31640625,-46.875,-81.54296875
-167.48046875,-45.8984375,-50.29296875,-68.84765625
18.06640625,-51.7578125,-45.41015625,-41.9921875
91.796875,-53.7109375,-41.9921875,-27.34375
-55.17578125,-52.24609375,-41.015625,-43.45703125
-206.0546875,-58.10546875,-43.45703125,-82.51953125
-188.4765625,-61.5234375,-42.96875,-83.49609375
-22.4609375,-57.6171875,-36.62109375,-55.17578125
89.35546875,-52.734375,-31.73828125,-36.1328125
4.8828125,-59.08203125,-36.1328125,-43.45703125
-181.640625,-63.4765625,-47.8515625,-81.0546875
-230.46875,-59.08203125,-46.38671875,-102.05078125
-45.8984375,-54.19921875,-37.109375,-67.87109375
91.796875,-50.78125,-32.71484375,-18.06640625
20.5078125,-47.36328125,-31.25,-4.8828125
-122.55859375,-50.29296875,-35.15625,-34.66796875
-179.19921875,-55.6640625,-33.69140625,-67.87109375
-51.7578125,-54.19921875,-36.62109375,-60.546875
109.375,-46.875,-39.55078125,-21.97265625
81.0546875,-43.45703125,-41.015625,-20.99609375
-85.44921875,-51.26953125,-42.48046875,-41.9921875
-184.5703125,-52.734375,-43.45703125,-63.4765625
-83.984375,-48.828125,-39.55078125,-55.17578125
98.6328125,-49.31640625,-30.76171875,-8.7890625
98.6328125,-46.875,-29.296875,6.34765625
-65.91796875,-46.875,-32.71484375,-19.53125
-182.6171875,-51.7578125,-39.55078125,-57.6171875
-73.2421875,-51.7578125,-37.59765625,-39.0625
111.81640625,-47.36328125,-31.73828125,1.953125
111.81640625,-45.41015625,-38.0859375,-0.48828125
-38.0859375,-42.96875,-43.9453125,-18.06640625
-168.45703125,-47.36328125,-44.43359375,-55.6640625
-96.19140625,-53.22265625,-46.38671875,-69.3359375
88.8671875,-52.734375,-48.33984375,-43.9453125
126.46484375,-47.36328125,-41.50390625,-9.765625
-27.34375,-44.43359375,-35.15625,-22.4609375
-184.5703125,-49.31640625,-41.015625,-74.70703125
-145.01953125,-50.78125,-42.96875,-83.49609375
49.31640625,-46.38671875,-38.57421875,-48.828125
113.76953125,-42.48046875,-37.59765625,-21.97265625
-45.41015625,-41.50390625,-40.0390625,-29.296875
-206.0546875,-47.8515625,-41.9921875,-71.77734375
-191.40625,-52.24609375,-39.55078125,-85.9375
-7.8125,-44.921875,-33.203125,-47.36328125
85.9375,-40.52734375,-32.71484375,-11.23046875
-41.015625,-46.875,-39.0625,-22.94921875
-187.5,-48.828125,-38.57421875,-52.24609375
-187.98828125,-48.828125,-38.0859375,-60.546875
-9.765625,-48.33984375,-38.0859375,-37.59765625
126.953125,-48.33984375,-38.57421875,-12.20703125
41.50390625,-44.43359375,-42.96875,-13.18359375
-131.8359375,-43.45703125,-45.41015625,-34.66796875
-166.9921875,-52.24609375,-43.9453125,-53.7109375
-13.671875,-48.33984375,-37.59765625,-38.0859375
126.46484375,-39.0625,-32.2265625,5.859375
58.59375,-41.50390625,-30.76171875,11.71875
-120.60546875,-43.9453125,-37.59765625,-40.52734375
-201.66015625,-43.9453125,-41.015625,-60.546875
-68.84765625,-41.50390625,-36.1328125,-25.390625
78.125,-38.0859375,-36.1328125,8.30078125
38.57421875,-41.015625,-35.15625,9.765625
-115.234375,-40.0390625,-33.69140625,-8.7890625
-181.640625,-34.66796875,-36.62109375,-34.1796875
-63.4765625,-38.0859375,-40.52734375,-48.33984375
72.265625,-39.0625,-42.96875,-18.5546875
36.62109375,-43.45703125,-41.50390625,-5.37109375
-119.62890625,-47.8515625,-41.015625,-40.0390625
-231.4453125,-47.36328125,-42.96875,-50.29296875
-133.7890625,-46.38671875,-36.62109375,-32.71484375
50.78125,-45.8984375,-39.0625,-2.44140625
58.10546875,-44.43359375,-45.41015625,4.39453125
-93.75,-42.96875,-46.38671875,-28.80859375
-222.16796875,-47.8515625,-49.31640625,-51.26953125
-157.71484375,-44.921875,-48.828125,-52.24609375
40.0390625,-41.015625,-47.36328125,-20.5078125
75.68359375,-45.41015625,-46.875,5.37109375
-84.9609375,-47.36328125,-49.31640625,-28.3203125
-208.49609375,-41.9921875,-53.7109375,-71.77734375
-166.015625,-44.921875,-57.12890625,-81.54296875
20.99609375,-43.9453125,-46.38671875,-37.109375
109.375,-40.52734375,-36.62109375,3.41796875
-26.85546875,-43.45703125,-40.52734375,-20.99609375
-195.3125,-46.875,-42.48046875,-40.52734375
-187.01171875,-50.29296875,-46.38671875,-54.6875
-2.9296875,-39.0625,-46.875,-49.8046875
100.5859375,-28.80859375,-40.52734375,1.46484375
-43.9453125,-32.2265625,-45.8984375,-17.578125
-222.65625,-37.59765625,-47.36328125,-52.734375
-224.12109375,-39.55078125,-43.45703125,-61.03515625
-49.8046875,-33.203125,-43.45703125,-51.7578125
78.61328125,-30.2734375,-39.0625,-10.25390625
-8.7890625,-36.1328125,-40.52734375,-20.01953125
-153.3203125,-40.52734375,-42.96875,-61.5234375
-179.19921875,-37.59765625,-43.45703125,-71.2890625
-38.57421875,-34.66796875,-41.9921875,-50.78125
98.14453125,-31.73828125,-36.1328125,-15.13671875
23.4375,-33.203125,-40.0390625,24.90234375
-152.83203125,-39.55078125,-43.45703125,-10.25390625
-207.03125,-38.0859375,-40.52734375,-62.01171875
-68.84765625,-32.71484375,-43.45703125,-33.69140625
90.8203125,-32.2265625,-39.55078125,4.39453125
71.2890625,-33.203125,-38.0859375,7.32421875
-87.40234375,-35.15625,-39.55078125,-7.32421875
-185.05859375,-36.62109375,-42.48046875,-25.390625
-69.82421875,-31.73828125,-42.96875,-20.99609375
85.44921875,-24.90234375,-38.0859375,8.30078125
55.17578125,-28.80859375,-34.66796875,31.73828125
-90.8203125,-33.203125,-34.66796875,-0.9765625
-207.03125,-36.1328125,-38.0859375,-40.52734375
-108.3984375,-34.1796875,-39.55078125,5.859375
103.02734375,-31.73828125,-36.1328125,54.19921875
90.33203125,-35.15625,-36.62109375,34.66796875
-72.265625,-39.0625,-39.55078125,5.37109375
-194.3359375,-37.59765625,-40.0390625,-22.94921875
-113.76953125,-35.15625,-38.57421875,-24.4140625
78.61328125,-31.25,-33.69140625,5.37109375
97.65625,-27.83203125,-33.69140625,27.34375
-45.41015625,-30.2734375,-35.64453125,13.18359375
-167.96875,-30.76171875,-38.0859375,-30.2734375
-143.06640625,-31.73828125,-39.0625,-31.73828125
11.71875,-29.296875,-32.71484375,5.859375
89.35546875,-20.5078125,-28.80859375,47.8515625
-34.66796875,-20.5078125,-33.69140625,37.109375
-180.6640625,-26.85546875,-36.1328125,-13.671875
-145.99609375,-30.2734375,-37.59765625,-35.15625
41.015625,-27.83203125,-34.66796875,-15.13671875
97.16796875,-26.3671875,-32.2265625,24.4140625
-27.83203125,-29.78515625,-38.57421875,10.7421875
-149.90234375,-29.78515625,-41.015625,-40.0390625
-162.59765625,-31.25,-37.59765625,-42.96875
-3.41796875,-30.2734375,-35.15625,-9.27734375
106.4453125,-28.3203125,-32.71484375,6.34765625
-10.7421875,-33.69140625,-37.59765625,1.46484375
-180.17578125,-34.1796875,-38.57421875,-27.83203125
-198.2421875,-31.73828125,-32.2265625,-51.26953125
-25.390625,-31.73828125,-34.1796875,-12.6953125
108.3984375,-26.3671875,-32.71484375,32.2265625
24.4140625,-27.34375,-33.203125,22.4609375
-143.06640625,-34.1796875,-36.62109375,-29.296875
-196.2890625,-33.69140625,-41.015625,-72.75390625
-48.828125,-24.4140625,-35.15625,-41.015625
101.5625,-21.484375,-23.4375,4.8828125
50.78125,-35.15625,-31.73828125,-6.8359375
-111.328125,-44.921875,-40.52734375,-44.43359375
-193.84765625,-35.64453125,-40.0390625,-69.82421875
-71.77734375,-30.76171875,-41.015625,-44.43359375
83.984375,-29.296875,-38.0859375,4.8828125
57.6171875,-25.390625,-33.69140625,19.04296875
-113.76953125,-25.87890625,-38.0859375,-16.11328125
-236.328125,-29.78515625,-44.43359375,-50.78125
-94.23828125,-28.3203125,-42.96875,-35.64453125
112.3046875,-20.99609375,-34.66796875,-6.8359375
80.078125,-25.87890625,-32.2265625,8.7890625
-98.6328125,-33.69140625,-27.83203125,-3.41796875
-218.75,-35.15625,-29.296875,-27.83203125
-134.765625,-35.64453125,-34.1796875,-15.13671875
47.36328125,-33.69140625,-41.015625,10.25390625
89.84375,-34.66796875,-47.36328125,-0.48828125
-59.08203125,-34.66796875,-49.8046875,-21.484375
-217.28515625,-40.52734375,-51.7578125,-51.26953125
-156.25,-40.0390625,-43.9453125,-63.4765625
35.64453125,-29.296875,-34.66796875,-21.484375
94.7265625,-28.3203125,-30.76171875,24.4140625
-47.36328125,-34.66796875,-31.73828125,12.6953125
-162.59765625,-32.71484375,-40.52734375,-21.484375
-140.13671875,-34.1796875,-46.38671875,-46.875
-1.953125,-30.2734375,-41.9921875,-24.4140625
96.6796875,-23.92578125,-35.15625,17.08984375
-11.71875,-27.34375,-37.59765625,0.48828125
-159.1796875,-31.25,-44.921875,-35.15625
-152.34375,-29.296875,-43.9453125,-30.2734375
6.34765625,-27.34375,-34.1796875,11.23046875
96.6796875,-30.76171875,-35.15625,32.71484375
-24.4140625,-36.62109375,-40.52734375,7.8125
-172.8515625,-37.59765625,-39.55078125,-32.71484375
-175.29296875,-35.64453125,-38.0859375,-47.8515625
-24.90234375,-34.66796875,-40.0390625,-14.6484375
100.5859375,-28.3203125,-38.57421875,14.16015625
29.78515625,-22.4609375,-35.15625,-1.46484375
-130.37109375,-23.4375,-36.62109375,-19.53125
-194.3359375,-24.90234375,-30.76171875,-33.203125
-45.41015625,-22.94921875,-28.3203125,-23.92578125
107.421875,-21.97265625,-32.2265625,4.39453125
65.4296875,-27.83203125,-38.0859375,-0.48828125
-90.8203125,-30.2734375,-41.015625,-30.2734375
-179.6875,-26.85546875,-40.52734375,-55.17578125
-54.19921875,-31.25,-39.0625,-37.109375
134.765625,-30.76171875,-35.15625,9.765625
134.27734375,-26.85546875,-37.109375,10.7421875
1.46484375,-29.296875,-37.59765625,-20.01953125
-99.609375,-33.203125,-39.55078125,-59.5703125
-50.29296875,-30.76171875,-41.015625,-46.38671875
111.328125,-23.92578125,-37.109375,1.953125
133.30078125,-23.92578125,-34.1796875,14.6484375
-4.8828125,-24.90234375,-36.62109375,-8.7890625
-109.86328125,-24.90234375,-36.1328125,-22.94921875
-57.12890625,-28.3203125,-22.94921875,-10.7421875
110.3515625,-29.296875,-18.06640625,0.48828125
137.6953125,-26.3671875,-20.5078125,18.06640625
-3.41796875,-32.71484375,-20.01953125,-1.46484375
-141.11328125,-37.109375,-19.04296875,-42.48046875
-138.671875,-35.15625,-20.01953125,-41.015625
41.9921875,-40.0390625,-15.13671875,-2.9296875
124.0234375,-40.52734375,-14.6484375,32.2265625
6.8359375,-37.109375,-17.578125,21.484375
-124.0234375,-42.48046875,-22.94921875,-27.34375
-53.22265625,-37.109375,-26.85546875,-42.96875
160.15625,-21.484375,-14.16015625,-4.8828125
197.265625,-17.08984375,-10.7421875,33.69140625
63.96484375,-24.4140625,-22.4609375,11.71875
-75.68359375,-30.76171875,-29.296875,-23.92578125
-94.23828125,-32.2265625,-28.80859375,-24.90234375
59.5703125,-29.296875,-25.390625,-23.92578125
174.8046875,-27.34375,-22.94921875,13.18359375
80.56640625,-30.2734375,-23.4375,22.4609375
-92.28515625,-31.25,-24.4140625,-3.90625
-107.421875,-29.296875,-20.99609375,-12.20703125
62.01171875,-28.80859375,-18.5546875,10.25390625
184.5703125,-27.34375,-16.6015625,41.015625
111.81640625,-23.4375,-17.08984375,27.34375
-61.5234375,-24.4140625,-23.4375,-11.23046875
-110.3515625,-27.34375,-34.1796875,-43.45703125
47.36328125,-26.3671875,-40.52734375,-29.296875
185.05859375,-26.85546875,-33.69140625,2.44140625
124.51171875,-26.3671875,-30.76171875,18.5546875
-55.6640625,-34.66796875,-38.0859375,-1.953125
-104.4921875,-41.015625,-40.52734375,-36.1328125
2.9296875,-36.62109375,-36.62109375,-13.671875
133.30078125,-36.1328125,-36.62109375,0.9765625
128.90625,-32.2265625,-35.64453125,4.39453125
-41.9921875,-30.76171875,-35.15625,6.34765625
-150.390625,-33.69140625,-39.0625,-38.57421875
-79.58984375,-28.80859375,-40.52734375,-45.41015625
87.40234375,-24.90234375,-37.59765625,14.16015625
84.47265625,-25.390625,-32.71484375,14.6484375
-73.2421875,-23.92578125,-34.66796875,-25.390625
-195.3125,-22.4609375,-37.109375,-33.203125
-138.18359375,-26.3671875,-36.1328125,-47.36328125
47.8515625,-25.87890625,-32.71484375,-32.71484375
66.89453125,-26.85546875,-27.34375,-9.27734375
-67.87109375,-32.2265625,-23.92578125,-15.625
-177.24609375,-30.76171875,-29.296875,-27.83203125
-147.4609375,-23.4375,-31.73828125,-32.2265625
38.0859375,-16.6015625,-23.92578125,-12.20703125
134.765625,-18.06640625,-27.83203125,19.53125
-14.6484375,-20.01953125,-33.69140625,26.85546875
-181.15234375,-26.85546875,-37.109375,-30.76171875
-128.41796875,-29.78515625,-39.55078125,-65.91796875
63.4765625,-21.484375,-34.1796875,-18.5546875
136.23046875,-21.97265625,-32.71484375,31.73828125
24.90234375,-29.78515625,-36.1328125,13.671875
-128.41796875,-27.83203125,-34.66796875,-36.1328125
-128.90625,-21.97265625,-30.2734375,-40.0390625
45.41015625,-22.4609375,-32.2265625,0.0
116.2109375,-29.296875,-33.69140625,37.109375
17.578125,-34.1796875,-32.2265625,10.7421875
-141.6015625,-35.15625,-36.1328125,-33.69140625
-156.73828125,-35.15625,-37.109375,-33.69140625
0.9765625,-29.78515625,-35.15625,-8.7890625
98.14453125,-27.34375,-35.15625,18.5546875
27.83203125,-26.3671875,-33.69140625,-2.9296875
-130.37109375,-19.53125,-29.78515625,-38.57421875
-177.734375,-17.578125,-29.78515625,-21.484375
-36.1328125,-18.5546875,-33.69140625,-2.44140625
96.19140625,-20.01953125,-38.0859375,-0.9765625
39.55078125,-21.97265625,-39.0625,11.71875
-120.1171875,-26.3671875,-39.55078125,-21.97265625
-183.59375,-35.15625,-41.9921875,-60.546875
-47.36328125,-32.2265625,-41.9921875,-40.0390625
96.19140625,-33.69140625,-39.0625,3.41796875
67.87109375,-37.59765625,-36.1328125,24.4140625
-77.1484375,-33.203125,-38.57421875,-3.90625
-157.71484375,-32.71484375,-41.015625,-49.31640625
-54.19921875,-25.87890625,-39.0625,-32.2265625
105.46875,-29.78515625,-38.57421875,21.484375
88.37890625,-36.62109375,-40.0390625,35.15625
-74.70703125,-37.109375,-47.36328125,-27.83203125
-191.40625,-49.31640625,-53.22265625,-69.82421875
-111.328125,-52.24609375,-51.26953125,-57.6171875
74.70703125,-40.52734375,-46.38671875,-20.99609375
83.984375,-31.73828125,-40.52734375,4.39453125
-77.63671875,-32.2265625,-32.2265625,-11.23046875
-197.75390625,-29.296875,-33.203125,-38.57421875
-142.578125,-23.4375,-39.0625,-65.4296875
49.8046875,-25.390625,-33.203125,-14.6484375
107.421875,-29.78515625,-32.2265625,37.109375
-40.0390625,-32.2265625,-40.52734375,-7.32421875
-152.83203125,-29.296875,-44.921875,-69.82421875
-126.46484375,-28.80859375,-47.8515625,-71.77734375
23.92578125,-28.80859375,-47.36328125,-29.296875
112.79296875,-22.94921875,-44.921875,1.953125
-18.06640625,-24.4140625,-44.921875,-6.34765625
-171.875,-25.87890625,-46.38671875,-45.8984375
-161.62109375,-27.83203125,-47.8515625,-74.21875
-9.27734375,-30.2734375,-46.38671875,-38.57421875
89.84375,-23.4375,-41.50390625,2.44140625
8.30078125,-17.08984375,-33.203125,22.4609375
-151.3671875,-19.04296875,-32.2265625,8.7890625
-207.51953125,-29.78515625,-36.1328125,-43.9453125
-55.6640625,-35.15625,-32.71484375,-34.1796875
92.7734375,-39.0625,-24.4140625,15.13671875
10.7421875,-42.48046875,-25.87890625,7.32421875
-144.04296875,-41.9921875,-30.76171875,-44.921875
-178.7109375,-40.0390625,-35.64453125,-61.03515625
-25.87890625,-40.0390625,-37.59765625,-26.85546875
111.81640625,-39.0625,-39.55078125,4.8828125
24.90234375,-37.109375,-43.45703125,-2.9296875
-128.90625,-41.50390625,-38.57421875,-16.6015625
-197.265625,-42.48046875,-37.109375,-33.69140625
-70.80078125,-41.50390625,-39.0625,-41.9921875
80.56640625,-39.0625,-32.71484375,-5.37109375
70.80078125,-38.0859375,-31.25,1.953125
-73.73046875,-38.0859375,-38.0859375,-39.55078125
-174.8046875,-36.1328125,-40.52734375,-69.3359375
-83.49609375,-35.64453125,-39.55078125,-42.96875
65.4296875,-32.71484375,-32.2265625,17.08984375
93.26171875,-30.2734375,-24.90234375,52.24609375
-33.69140625,-31.25,-29.296875,10.25390625
-145.01953125,-39.0625,-39.55078125,-51.7578125
-64.94140625,-39.0625,-41.50390625,-51.26953125
94.7265625,-24.4140625,-36.1328125,-34.1796875
85.44921875,-25.390625,-36.62109375,-10.7421875
-96.19140625,-42.96875,-39.55078125,-7.32421875
-204.1015625,-50.78125,-48.33984375,-57.12890625
-104.00390625,-46.875,-51.26953125,-74.21875
58.10546875,-37.59765625,-40.52734375,-30.76171875
116.69921875,-36.62109375,-35.15625,5.859375
-1.953125,-35.15625,-33.69140625,3.41796875
-146.484375,-30.76171875,-28.80859375,-39.0625
-122.0703125,-29.78515625,-25.390625,-41.9921875
52.734375,-28.3203125,-27.34375,-12.6953125
123.046875,-27.34375,-31.25,3.90625
11.23046875,-27.34375,-32.2265625,-16.11328125
-136.23046875,-29.296875,-33.69140625,-52.734375
-154.78515625,-33.69140625,-43.45703125,-62.98828125
26.3671875,-28.3203125,-42.48046875,-59.08203125
139.6484375,-19.53125,-33.69140625,-28.80859375
29.296875,-20.99609375,-32.2265625,-34.1796875
-129.8828125,-31.73828125,-43.45703125,-71.77734375
-129.8828125,-34.1796875,-50.29296875,-69.3359375
9.765625,-27.34375,-42.96875,-56.15234375
121.58203125,-26.3671875,-44.921875,-50.78125
72.75390625,-25.390625,-46.875,-53.7109375
-95.21484375,-29.78515625,-39.55078125,-53.22265625
-140.13671875,-31.73828125,-34.1796875,-64.453125
-3.90625,-28.3203125,-39.55078125,-55.17578125
136.71875,-24.4140625,-45.41015625,-13.18359375
101.07421875,-23.92578125,-43.9453125,-5.37109375
-53.22265625,-24.90234375,-46.38671875,-43.45703125
-116.69921875,-27.83203125,-52.734375,-76.66015625
28.80859375,-29.296875,-44.921875,-34.66796875
164.55078125,-27.34375,-36.62109375,6.8359375
95.703125,-24.90234375,-37.109375,-6.34765625
-52.734375,-25.87890625,-38.0859375,-36.1328125
-140.13671875,-32.71484375,-41.9921875,-59.08203125
-37.59765625,-32.2265625,-37.59765625,-35.64453125
125.9765625,-27.83203125,-31.25,-3.41796875
92.28515625,-31.25,-33.69140625,7.32421875
-73.73046875,-31.73828125,-38.0859375,-12.6953125
-177.24609375,-32.71484375,-40.52734375,-66.40625
-115.234375,-34.1796875,-33.203125,-52.734375
41.50390625,-32.71484375,-29.296875,0.9765625
58.10546875,-37.59765625,-41.9921875,-7.8125
-87.890625,-41.015625,-47.36328125,-39.55078125
-178.7109375,-43.9453125,-43.45703125,-70.3125
-83.49609375,-37.109375,-38.57421875,-61.03515625
82.51953125,-29.78515625,-33.203125,-0.48828125
113.76953125,-38.0859375,-31.73828125,4.8828125
-10.25390625,-39.55078125,-34.66796875,-33.203125
-140.13671875,-38.0859375,-35.15625,-41.015625
-104.00390625,-38.57421875,-33.69140625,-29.296875
63.4765625,-32.2265625,-34.1796875,-19.04296875
131.34765625,-31.25,-33.69140625,4.8828125
10.7421875,-33.203125,-29.78515625,0.0
-138.18359375,-31.73828125,-31.25,-51.7578125
-124.0234375,-32.2265625,-36.62109375,-62.5
53.22265625,-30.2734375,-31.73828125,-38.57421875
131.8359375,-25.390625,-30.76171875,-30.2734375
14.6484375,-22.4609375,-33.69140625,-20.99609375
-128.90625,-26.3671875,-37.109375,-44.921875
-145.99609375,-30.2734375,-37.59765625,-79.58984375
23.92578125,-28.3203125,-37.109375,-29.296875
133.30078125,-28.80859375,-35.15625,0.9765625
49.31640625,-30.76171875,-29.296875,-21.484375
-106.93359375,-33.69140625,-28.3203125,-48.828125
-151.85546875,-35.15625,-32.71484375,-61.03515625
-10.7421875,-33.203125,-40.0390625,-36.1328125
98.6328125,-27.83203125,-43.45703125,-5.859375
30.76171875,-29.78515625,-36.1328125,12.6953125
-127.9296875,-31.25,-34.66796875,-35.15625
-171.38671875,-33.203125,-44.43359375,-75.1953125
-15.13671875,-30.2734375,-41.9921875,-22.4609375
140.625,-24.4140625,-32.71484375,24.90234375
70.80078125,-25.87890625,-37.109375,3.90625
-100.5859375,-29.296875,-44.43359375,-43.45703125
-177.734375,-28.80859375,-40.52734375,-71.2890625
-77.63671875,-30.2734375,-40.52734375,-57.6171875
85.44921875,-28.80859375,-39.55078125,-3.90625
100.09765625,-23.92578125,-33.203125,26.85546875
-27.83203125,-26.85546875,-39.55078125,-29.296875
-152.83203125,-29.78515625,-47.36328125,-84.9609375
-90.8203125,-32.2265625,-43.45703125,-65.91796875
64.453125,-28.3203125,-40.0390625,-13.18359375
67.3828125,-21.97265625,-39.0625,-3.90625
-55.6640625,-21.97265625,-40.0390625,-25.87890625
-151.85546875,-29.296875,-43.9453125,-53.22265625
-96.19140625,-39.55078125,-39.0625,-55.6640625
69.82421875,-38.57421875,-34.1796875,-8.30078125
99.609375,-26.85546875,-40.0390625,2.9296875
-56.15234375,-25.390625,-50.29296875,-36.1328125
-177.734375,-27.34375,-59.5703125,-71.77734375
-131.8359375,-24.4140625,-59.5703125,-85.44921875
36.1328125,-20.99609375,-54.19921875,-47.36328125
117.1875,-18.5546875,-56.15234375,-20.01953125
6.34765625,-14.6484375,-57.12890625,-37.109375
-118.1640625,-17.08984375,-57.6171875,-62.01171875
-111.328125,-23.92578125,-55.6640625,-71.2890625
47.36328125,-22.94921875,-48.33984375,-32.2265625
121.58203125,-21.484375,-46.38671875,9.27734375
22.4609375,-19.04296875,-44.43359375,-5.37109375
-111.328125,-24.4140625,-48.828125,-52.24609375
-121.09375,-27.83203125,-53.7109375,-68.359375
41.50390625,-24.90234375,-52.734375,-52.24609375
148.4375,-20.5078125,-49.8046875,-7.32421875
65.4296875,-19.04296875,-44.43359375,4.8828125
-119.62890625,-23.4375,-44.43359375,-45.8984375
-197.265625,-25.87890625,-47.8515625,-69.3359375
-48.828125,-20.01953125,-41.9921875,-46.875
90.8203125,-20.01953125,-38.0859375,-25.390625
38.57421875,-27.83203125,-42.48046875,-20.99609375
-107.91015625,-32.2265625,-50.29296875,-20.01953125
-165.0390625,-28.80859375,-53.22265625,-50.29296875
-40.52734375,-24.4140625,-53.7109375,-83.984375
105.95703125,-20.99609375,-49.8046875,-20.5078125
59.5703125,-23.4375,-49.31640625,14.6484375
-104.98046875,-28.80859375,-49.31640625,-22.4609375
-197.265625,-27.34375,-47.8515625,-61.03515625
-83.49609375,-27.83203125,-47.8515625,-64.453125
72.75390625,-29.296875,-43.45703125,-31.25
66.89453125,-25.87890625,-36.62109375,7.8125
-67.3828125,-24.4140625,-38.57421875,-10.7421875
-183.59375,-24.4140625,-41.9921875,-66.89453125
-89.84375,-18.5546875,-39.55078125,-64.453125
95.21484375,-19.04296875,-42.48046875,-16.11328125
131.34765625,-21.97265625,-41.9921875,0.0
-12.6953125,-20.5078125,-33.69140625,-1.953125
-163.57421875,-24.90234375,-32.71484375,-34.1796875
-91.796875,-29.78515625,-40.52734375,-83.49609375
83.0078125,-30.2734375,-44.43359375,-41.50390625
104.4921875,-23.4375,-39.55078125,30.2734375
-38.0859375,-22.94921875,-38.57421875,-14.6484375
-169.43359375,-29.296875,-42.96875,-79.1015625
-129.39453125,-32.71484375,-39.55078125,-71.2890625
44.43359375,-29.296875,-31.25,-20.99609375
96.6796875,-28.80859375,-31.25,5.37109375
-25.87890625,-39.0625,-40.0390625,-1.953125
-159.66796875,-43.45703125,-43.45703125,-23.4375
-144.04296875,-43.45703125,-45.8984375,-66.89453125
31.73828125,-40.0390625,-47.8515625,-36.1328125
105.46875,-35.64453125,-45.41015625,26.3671875
-19.53125,-38.57421875,-43.45703125,-7.32421875
-171.875,-37.109375,-45.41015625,-70.3125
-165.52734375,-33.69140625,-47.36328125,-65.91796875
-10.25390625,-39.0625,-47.36328125,-44.43359375
89.84375,-41.50390625,-39.55078125,-18.06640625
-0.48828125,-43.9453125,-37.109375,-10.25390625
-148.4375,-45.41015625,-47.8515625,-47.8515625
-171.38671875,-45.41015625,-51.26953125,-57.6171875
-27.34375,-41.50390625,-45.8984375,-41.9921875
92.7734375,-35.64453125,-41.50390625,-12.6953125
16.6015625,-33.69140625,-43.45703125,-17.578125
-140.13671875,-33.203125,-46.38671875,-53.22265625
-190.91796875,-36.1328125,-47.36328125,-65.4296875
-51.26953125,-37.109375,-48.828125,-39.55078125
93.26171875,-33.203125,-46.38671875,8.7890625
44.43359375,-35.15625,-41.015625,-6.34765625
-96.6796875,-35.15625,-34.66796875,-16.6015625
-168.9453125,-34.1796875,-35.64453125,-12.20703125
-67.3828125,-33.203125,-43.45703125,-37.59765625
82.51953125,-33.203125,-45.41015625,-20.99609375
62.5,-34.66796875,-45.8984375,-8.30078125
-82.03125,-35.64453125,-45.41015625,-29.296875
-194.3359375,-39.0625,-49.31640625,-53.7109375
-114.74609375,-39.55078125,-50.29296875,-50.78125
58.10546875,-35.15625,-43.9453125,-16.11328125
57.12890625,-34.1796875,-42.96875,0.0
-82.51953125,-36.62109375,-48.828125,-34.66796875
-195.80078125,-35.64453125,-52.24609375,-78.125
-157.2265625,-37.109375,-52.734375,-70.80078125
-11.71875,-41.015625,-55.17578125,-43.45703125
22.4609375,-39.0625,-52.24609375,-21.484375
-97.65625,-36.1328125,-51.7578125,-41.9921875
-214.35546875,-38.57421875,-51.7578125,-86.9140625
-168.45703125,-40.52734375,-50.29296875,-77.63671875
22.94921875,-34.66796875,-50.78125,-42.96875
79.58984375,-27.83203125,-48.828125,-6.8359375
-51.7578125,-27.83203125,-46.875,4.39453125
-172.8515625,-36.62109375,-49.31640625,-44.921875
-176.7578125,-41.015625,-48.33984375,-58.10546875
-31.25,-43.45703125,-46.38671875,-29.78515625
74.21875,-44.921875,-45.41015625,-21.484375
-23.92578125,-41.015625,-45.8984375,-37.59765625
-173.33984375,-41.015625,-50.29296875,-73.2421875
-167.96875,-40.52734375,-44.921875,-65.91796875
2.44140625,-35.64453125,-36.62109375,-15.13671875
88.8671875,-38.57421875,-36.1328125,4.8828125
-8.30078125,-36.62109375,-30.2734375,11.71875
-146.97265625,-33.203125,-33.69140625,-18.5546875
-176.7578125,-40.52734375,-46.875,-60.546875
-23.4375,-40.52734375,-50.78125,-27.34375
87.890625,-36.1328125,-46.875,19.04296875
6.8359375,-34.1796875,-43.9453125,23.92578125
-136.23046875,-34.66796875,-45.41015625,-7.8125
-193.359375,-40.0390625,-42.48046875,-44.43359375
-67.87109375,-38.57421875,-34.1796875,-45.41015625
82.03125,-27.83203125,-34.1796875,-10.7421875
42.48046875,-27.34375,-41.9921875,-6.8359375
-120.60546875,-31.25,-48.33984375,-33.69140625
-186.5234375,-31.25,-51.26953125,-62.01171875
-56.15234375,-35.64453125,-48.33984375,-54.19921875
80.56640625,-35.15625,-42.96875,-17.578125
45.8984375,-33.69140625,-41.9921875,-14.6484375
-100.5859375,-37.59765625,-36.62109375,-22.94921875
-197.75390625,-43.45703125,-35.64453125,-54.6875
-110.83984375,-44.921875,-41.015625,-65.4296875
50.29296875,-42.96875,-41.9921875,-32.2265625
62.98828125,-34.66796875,-37.109375,-11.71875
-89.35546875,-32.71484375,-35.15625,-31.25
-205.078125,-37.109375,-38.57421875,-69.82421875
-117.67578125,-39.0625,-36.1328125,-61.5234375
40.52734375,-39.55078125,-33.69140625,-25.390625
57.6171875,-38.0859375,-35.64453125,-6.34765625
-74.21875,-45.41015625,-46.875,-41.015625
-169.43359375,-47.36328125,-52.24609375,-97.16796875
-132.8125,-41.015625,-45.41015625,-94.7265625
6.34765625,-40.52734375,-44.921875,-41.015625
88.8671875,-38.0859375,-46.38671875,-7.32421875
-42.96875,-34.1796875,-41.50390625,-31.25
-193.359375,-37.109375,-42.96875,-70.3125
-159.1796875,-45.41015625,-44.43359375,-72.265625
27.34375,-37.59765625,-34.66796875,-28.80859375
115.234375,-32.2265625,-33.69140625,14.16015625
-4.39453125,-41.015625,-39.55078125,-14.6484375
-160.15625,-42.48046875,-44.43359375,-88.37890625
-171.38671875,-42.96875,-48.33984375,-88.8671875
-5.37109375,-39.0625,-50.78125,-55.6640625
85.9375,-36.62109375,-47.36328125,-11.71875
-8.7890625,-38.57421875,-44.43359375,-21.97265625
-158.203125,-32.2265625,-42.48046875,-84.47265625
-184.5703125,-34.1796875,-42.96875,-91.30859375
-21.97265625,-35.64453125,-43.45703125,-48.33984375
112.79296875,-29.78515625,-41.9921875,-2.44140625
51.26953125,-31.73828125,-47.36328125,-6.8359375
-80.078125,-34.1796875,-50.78125,-54.6875
-131.8359375,-32.2265625,-48.828125,-69.82421875
-21.97265625,-31.25,-45.41015625,-46.875
146.97265625,-24.90234375,-43.45703125,-19.53125
108.88671875,-23.4375,-49.8046875,-20.01953125
-67.87109375,-27.83203125,-54.6875,-58.10546875
-168.45703125,-27.83203125,-50.29296875,-86.9140625
-68.359375,-34.1796875,-44.43359375,-73.2421875
92.7734375,-29.296875,-40.52734375,-22.94921875
64.453125,-22.4609375,-36.62109375,1.953125
-73.2421875,-31.25,-34.66796875,-28.80859375
-127.44140625,-34.1796875,-35.64453125,-69.3359375
-52.24609375,-30.2734375,-36.62109375,-62.98828125
86.42578125,-25.390625,-40.0390625,-16.6015625
98.14453125,-25.87890625,-41.015625,-1.953125
-59.08203125,-27.34375,-40.52734375,-10.25390625
-167.48046875,-27.83203125,-41.50390625,-47.8515625
-97.16796875,-36.1328125,-45.8984375,-67.3828125
57.12890625,-37.59765625,-44.921875,-31.73828125
88.8671875,-36.62109375,-42.96875,-12.20703125
-55.6640625,-42.48046875,-47.8515625,-43.45703125
-169.921875,-41.50390625,-50.78125,-84.9609375
-113.76953125,-37.109375,-42.48046875,-66.40625
56.640625,-37.59765625,-35.15625,-22.94921875
100.5859375,-36.62109375,-35.64453125,-6.34765625
-29.78515625,-36.62109375,-39.55078125,-21.97265625
-145.99609375,-38.0859375,-42.48046875,-65.4296875
-130.859375,-39.55078125,-38.57421875,-72.75390625
11.71875,-38.0859375,-37.59765625,-28.80859375
89.35546875,-34.1796875,-34.66796875,-8.7890625
-29.78515625,-37.59765625,-35.15625,-33.69140625
-165.52734375,-40.52734375,-46.38671875,-80.078125
-167.48046875,-44.43359375,-53.22265625,-99.609375
2.44140625,-43.45703125,-42.96875,-61.03515625
121.58203125,-43.9453125,-36.1328125,-30.76171875
26.3671875,-46.38671875,-45.41015625,-22.4609375
-117.67578125,-38.57421875,-47.8515625,-40.0390625
-158.69140625,-41.9921875,-48.33984375,-62.5
-46.875,-53.22265625,-49.31640625,-53.7109375
64.453125,-50.78125,-45.8984375,-11.71875
10.25390625,-49.8046875,-43.45703125,-20.5078125
-144.04296875,-50.78125,-42.48046875,-68.84765625
-200.1953125,-46.38671875,-41.50390625,-92.28515625
-61.03515625,-38.0859375,-41.015625,-72.75390625
69.82421875,-38.0859375,-43.45703125,-23.4375
32.71484375,-38.0859375,-42.48046875,-14.6484375
-99.609375,-39.0625,-46.875,-48.33984375
-159.1796875,-36.1328125,-53.22265625,-69.82421875
-53.22265625,-34.1796875,-47.36328125,-50.29296875
84.9609375,-41.015625,-42.96875,-8.7890625
73.2421875,-39.55078125,-44.921875,-8.30078125
-72.265625,-40.52734375,-47.8515625,-54.6875
-169.921875,-39.0625,-43.9453125,-79.58984375
-89.35546875,-35.64453125,-41.9921875,-58.10546875
71.77734375,-36.62109375,-43.45703125,-20.5078125
76.171875,-36.1328125,-40.0390625,0.0
-73.73046875,-38.0859375,-40.52734375,-37.59765625
-183.10546875,-42.96875,-45.8984375,-79.1015625
-109.375,-50.78125,-47.36328125,-59.08203125
67.3828125,-45.8984375,-41.9921875,-21.484375
77.63671875,-40.0390625,-38.0859375,-12.6953125
-62.01171875,-39.0625,-42.48046875,-38.57421875
-184.08203125,-37.109375,-45.41015625,-84.47265625
-138.671875,-35.64453125,-44.921875,-77.63671875
40.52734375,-35.64453125,-45.8984375,-24.4140625
77.63671875,-39.0625,-46.875,-21.97265625
-38.0859375,-40.0390625,-45.8984375,-49.31640625
-168.9453125,-42.96875,-48.33984375,-81.0546875
-166.015625,-46.875,-48.33984375,-82.51953125
-20.99609375,-47.8515625,-47.36328125,-43.45703125
75.1953125,-49.31640625,-44.921875,-14.16015625
-13.18359375,-45.8984375,-43.45703125,-20.5078125
-159.66796875,-48.33984375,-47.8515625,-66.40625
-158.203125,-47.36328125,-43.9453125,-82.03125
3.41796875,-38.57421875,-37.109375,-48.828125
101.07421875,-35.64453125,-35.64453125,-2.9296875
3.90625,-36.1328125,-41.50390625,-6.8359375
-150.390625,-42.48046875,-47.8515625,-63.4765625
-196.2890625,-44.921875,-45.8984375,-83.0078125
-44.921875,-40.0390625,-43.9453125,-44.43359375
84.9609375,-43.9453125,-47.36328125,-16.11328125
3.90625,-49.8046875,-46.38671875,-39.55078125
-145.99609375,-43.45703125,-42.48046875,-63.96484375
-177.734375,-42.48046875,-43.45703125,-71.77734375
-39.0625,-42.96875,-42.48046875,-56.640625
70.3125,-44.921875,-43.9453125,-26.85546875
23.92578125,-42.96875,-44.43359375,-17.08984375
-114.2578125,-39.55078125,-42.96875,-52.24609375
-185.546875,-45.8984375,-41.015625,-75.68359375
-69.3359375,-46.875,-43.45703125,-50.78125
73.73046875,-41.50390625,-44.43359375,-32.2265625
45.8984375,-36.1328125,-39.55078125,-33.69140625
-105.46875,-41.015625,-42.48046875,-53.7109375
-198.2421875,-45.8984375,-49.8046875,-66.40625
-93.75,-41.015625,-48.828125,-66.40625
55.17578125,-38.57421875,-42.96875,-48.828125
33.203125,-35.64453125,-41.50390625,-19.53125
-109.86328125,-33.203125,-47.8515625,-49.31640625
-205.078125,-37.59765625,-49.31640625,-101.5625
-118.65234375,-41.9921875,-45.41015625,-86.9140625
60.05859375,-41.50390625,-42.96875,-32.71484375
80.56640625,-41.015625,-41.015625,3.90625
-61.03515625,-35.64453125,-41.9921875,-29.78515625
-191.40625,-35.64453125,-48.33984375,-85.9375
-165.0390625,-41.9921875,-57.6171875,-113.28125
7.8125,-39.0625,-57.12890625,-82.03125
83.0078125,-31.73828125,-50.29296875,-29.296875
-49.8046875,-31.25,-54.6875,-61.03515625
-194.3359375,-35.64453125,-53.7109375,-104.4921875
-180.6640625,-39.55078125,-48.828125,-103.02734375
-27.83203125,-40.0390625,-53.7109375,-62.5
49.31640625,-39.55078125,-51.26953125,-21.97265625
-49.31640625,-40.0390625,-51.26953125,-42.96875
-183.10546875,-38.57421875,-57.12890625,-68.84765625
-168.9453125,-40.52734375,-51.7578125,-72.265625
2.44140625,-43.9453125,-42.48046875,-46.38671875
83.984375,-38.57421875,-42.96875,-21.97265625
-13.671875,-36.62109375,-44.43359375,-22.4609375
-148.92578125,-40.52734375,-46.875,-69.3359375
-180.6640625,-39.55078125,-47.8515625,-76.66015625
-27.83203125,-34.66796875,-41.015625,-45.8984375
83.984375,-30.2734375,-39.55078125,-30.76171875
-2.44140625,-32.71484375,-38.0859375,-20.5078125
-131.8359375,-32.71484375,-32.2265625,-44.921875
-192.87109375,-36.62109375,-41.015625,-93.75
-65.4296875,-36.62109375,-41.015625,-92.28515625
101.5625,-31.73828125,-37.109375,-39.0625
56.15234375,-37.109375,-42.96875,-23.92578125
-100.09765625,-41.015625,-45.8984375,-68.359375
-154.78515625,-46.38671875,-53.7109375,-82.51953125
-41.9921875,-44.921875,-56.15234375,-47.36328125
74.70703125,-37.109375,-53.7109375,-41.50390625
72.265625,-36.62109375,-47.8515625,-37.109375
-73.73046875,-41.9921875,-45.8984375,-55.6640625
-188.96484375,-41.9921875,-45.8984375,-83.0078125
-75.68359375,-42.96875,-42.48046875,-62.01171875
69.82421875,-40.52734375,-43.45703125,-32.71484375
51.26953125,-34.1796875,-44.921875,-21.484375
-77.1484375,-40.0390625,-46.875,-39.0625
-166.9921875,-44.43359375,-47.36328125,-75.68359375
-109.375,-43.45703125,-45.8984375,-80.078125
43.9453125,-42.48046875,-41.9921875,-25.390625
67.3828125,-40.0390625,-40.52734375,4.8828125
-76.66015625,-36.1328125,-39.0625,-12.20703125
-181.640625,-38.0859375,-43.45703125,-65.4296875
-120.60546875,-38.57421875,-49.31640625,-78.125
25.87890625,-37.59765625,-49.8046875,-25.87890625
49.31640625,-38.57421875,-47.8515625,-23.92578125
-52.24609375,-35.64453125,-44.43359375,-44.921875
-164.55078125,-39.55078125,-44.43359375,-53.7109375
-107.421875,-41.50390625,-40.0390625,-53.7109375
66.40625,-35.15625,-37.59765625,-37.59765625
113.28125,-31.73828125,-39.55078125,-6.8359375
-27.34375,-31.25,-43.9453125,-23.92578125
-173.33984375,-33.69140625,-50.29296875,-74.21875
-178.22265625,-41.9921875,-45.8984375,-62.98828125
-42.48046875,-42.96875,-37.59765625,-28.80859375
73.2421875,-36.62109375,-35.64453125,-29.78515625
1.953125,-36.1328125,-35.64453125,-33.203125
-146.484375,-37.59765625,-36.62109375,-57.12890625
-150.390625,-34.1796875,-34.1796875,-82.03125
13.671875,-31.73828125,-39.55078125,-53.7109375
123.53515625,-30.76171875,-42.48046875,-8.7890625
53.22265625,-29.78515625,-38.57421875,-5.859375
-114.2578125,-41.50390625,-41.50390625,-43.9453125
-159.1796875,-47.8515625,-41.9921875,-74.21875
-16.6015625,-43.9453125,-38.0859375,-59.5703125
106.4453125,-41.015625,-37.109375,-27.34375
68.84765625,-40.0390625,-40.52734375,-9.27734375
-74.21875,-42.48046875,-44.43359375,-18.06640625
-169.43359375,-44.921875,-45.8984375,-59.5703125
-41.9921875,-36.62109375,-45.41015625,-49.31640625
145.01953125,-29.78515625,-39.55078125,11.23046875
88.8671875,-41.015625,-29.78515625,4.39453125
-135.25390625,-55.17578125,-33.69140625,-56.15234375
-231.4453125,-61.5234375,-32.2265625,-77.1484375
-92.28515625,-64.94140625,-24.4140625,-56.15234375
67.3828125,-65.4296875,-15.625,-6.34765625
58.59375,-57.6171875,-9.765625,10.25390625
-70.80078125,-57.6171875,-13.671875,-39.55078125
-172.36328125,-63.96484375,-14.16015625,-73.2421875
-89.35546875,-59.5703125,-8.30078125,-39.55078125
78.61328125,-60.546875,-3.41796875,42.48046875
68.84765625,-60.546875,-8.30078125,40.52734375
-65.91796875,-54.19921875,-13.18359375,-36.1328125
-172.8515625,-50.78125,-14.6484375,-57.12890625
-138.18359375,-50.29296875,-16.11328125,-45.41015625
45.41015625,-43.9453125,-15.625,-14.6484375
97.65625,-42.96875,-10.7421875,31.25
-60.546875,-51.26953125,-9.27734375,12.6953125
-186.5234375,-53.22265625,-14.16015625,-51.26953125
-127.44140625,-48.828125,-18.5546875,-55.6640625
20.99609375,-43.45703125,-21.484375,-23.4375
90.33203125,-44.43359375,-21.484375,9.27734375
-17.578125,-47.36328125,-24.90234375,-3.41796875
-189.453125,-52.24609375,-33.203125,-45.41015625
-182.6171875,-54.6875,-34.66796875,-55.6640625
-11.23046875,-52.734375,-34.1796875,-19.53125
80.56640625,-54.6875,-30.76171875,1.46484375
-16.6015625,-48.33984375,-26.85546875,0.0
-192.87109375,-43.45703125,-32.71484375,-34.1796875
-232.91015625,-50.29296875,-40.0390625,-72.265625
-94.7265625,-49.8046875,-37.109375,-44.921875
19.53125,-43.45703125,-28.3203125,10.25390625
-22.94921875,-40.0390625,-30.76171875,-12.20703125
-152.83203125,-39.0625,-37.59765625,-62.98828125
-198.2421875,-41.50390625,-36.1328125,-67.87109375
-55.6640625,-45.8984375,-34.1796875,-20.5078125
74.21875,-43.45703125,-36.62109375,-2.9296875
29.78515625,-37.109375,-39.55078125,-31.25
-118.1640625,-34.66796875,-39.0625,-49.31640625
-195.3125,-37.59765625,-38.57421875,-62.5
-58.59375,-43.45703125,-42.96875,-48.828125
93.26171875,-43.45703125,-39.0625,-10.7421875
41.9921875,-44.43359375,-35.15625,-8.7890625
-86.9140625,-43.9453125,-41.9921875,-48.828125
-156.25,-41.50390625,-40.52734375,-77.1484375
-46.38671875,-38.57421875,-36.62109375,-68.84765625
102.05078125,-37.109375,-38.0859375,-14.6484375
67.3828125,-40.0390625,-35.64453125,2.9296875
-79.58984375,-37.59765625,-40.0390625,-59.08203125
-183.10546875,-39.0625,-44.921875,-83.0078125
-96.6796875,-40.0390625,-42.96875,-67.3828125
63.96484375,-34.1796875,-39.0625,-22.4609375
68.359375,-27.34375,-39.0625,-1.953125
-61.5234375,-30.2734375,-44.921875,-37.109375
-166.50390625,-35.15625,-41.015625,-66.89453125
-91.30859375,-33.203125,-29.78515625,-75.68359375
68.84765625,-34.1796875,-30.2734375,-38.57421875
105.46875,-32.2265625,-31.25,-4.39453125
-23.4375,-34.66796875,-29.78515625,-33.69140625
-166.015625,-42.48046875,-39.0625,-73.2421875
-111.81640625,-36.1328125,-42.96875,-80.56640625
74.21875,-30.2734375,-39.0625,-52.734375
149.90234375,-29.296875,-39.0625,-26.3671875
22.4609375,-31.25,-38.57421875,-42.96875
-146.97265625,-36.1328125,-39.0625,-57.12890625
-130.37109375,-36.62109375,-41.015625,-60.546875
33.69140625,-36.1328125,-37.59765625,-58.59375
113.28125,-32.2265625,-36.1328125,-29.78515625
12.6953125,-30.76171875,-31.25,-26.85546875
-142.08984375,-34.1796875,-32.2265625,-59.5703125
-166.50390625,-38.0859375,-35.64453125,-74.70703125
-1.46484375,-39.0625,-31.73828125,-20.5078125
102.5390625,-33.69140625,-31.25,0.9765625
10.7421875,-33.69140625,-32.71484375,-32.2265625
-149.4140625,-40.0390625,-37.59765625,-56.15234375
-158.69140625,-37.59765625,-40.52734375,-80.078125
-1.46484375,-31.25,-41.50390625,-72.75390625
105.95703125,-33.69140625,-41.50390625,-46.875
45.41015625,-37.109375,-36.62109375,-31.25
-107.421875,-42.48046875,-43.45703125,-71.2890625
-168.9453125,-47.8515625,-45.8984375,-83.0078125
-40.0390625,-36.1328125,-38.57421875,-51.7578125
120.60546875,-26.85546875,-40.52734375,-52.24609375
79.58984375,-29.296875,-48.828125,-62.5
-79.58984375,-31.25,-52.734375,-71.77734375
-159.66796875,-33.69140625,-52.734375,-75.1953125
-68.359375,-33.203125,-53.7109375,-77.63671875
74.70703125,-31.25,-47.36328125,-51.26953125
46.875,-30.2734375,-40.52734375,-30.2734375
-77.1484375,-37.59765625,-46.38671875,-62.98828125
-145.01953125,-40.0390625,-55.6640625,-113.76953125
-66.89453125,-31.25,-52.24609375,-92.28515625
84.9609375,-30.2734375,-47.36328125,-25.390625
78.61328125,-33.203125,-53.22265625,-25.87890625
-76.171875,-35.15625,-55.17578125,-43.9453125
-193.84765625,-38.0859375,-56.15234375,-51.26953125
-125.48828125,-37.59765625,-57.12890625,-72.75390625
64.453125,-37.109375,-54.19921875,-52.734375
97.65625,-39.0625,-46.38671875,-6.34765625
-78.61328125,-41.9921875,-48.33984375,-16.6015625
-207.03125,-46.38671875,-52.734375,-64.94140625
-169.43359375,-48.828125,-52.24609375,-83.0078125
4.8828125,-39.55078125,-50.29296875,-41.50390625
97.65625,-33.203125,-46.875,-16.11328125
-14.16015625,-45.8984375,-52.24609375,-41.9921875
-152.34375,-53.7109375,-56.15234375,-69.82421875
-137.20703125,-47.36328125,-49.8046875,-69.3359375
25.87890625,-41.015625,-41.015625,-39.55078125
86.9140625,-36.1328125,-38.57421875,12.6953125
-7.32421875,-35.64453125,-38.57421875,-9.27734375
-131.34765625,-38.57421875,-43.9453125,-99.609375
-134.765625,-36.1328125,-45.8984375,-99.12109375
8.7890625,-36.62109375,-45.41015625,-62.98828125
100.5859375,-40.52734375,-45.8984375,-45.41015625
44.921875,-40.0390625,-40.0390625,-44.921875
-101.07421875,-45.41015625,-39.0625,-65.91796875
-150.390625,-47.8515625,-42.96875,-96.6796875
-9.765625,-39.55078125,-40.52734375,-80.56640625
106.93359375,-34.66796875,-40.52734375,-34.66796875
50.29296875,-31.73828125,-39.55078125,-28.3203125
-102.5390625,-35.64453125,-39.55078125,-48.33984375
-169.43359375,-37.109375,-45.41015625,-78.125
-42.48046875,-27.83203125,-52.24609375,-90.8203125
104.98046875,-25.87890625,-49.8046875,-68.84765625
80.078125,-32.71484375,-46.38671875,-40.0390625
-74.70703125,-34.66796875,-47.8515625,-67.3828125
-178.7109375,-37.59765625,-46.875,-104.98046875
-70.3125,-37.59765625,-43.9453125,-84.47265625
110.3515625,-34.66796875,-38.0859375,-42.96875
87.890625,-32.71484375,-38.0859375,-37.109375
-56.640625,-33.203125,-44.43359375,-60.05859375
-155.76171875,-38.0859375,-47.8515625,-81.0546875
-82.03125,-39.55078125,-45.8984375,-78.61328125
89.84375,-40.0390625,-46.38671875,-59.08203125
88.37890625,-39.0625,-48.33984375,-46.38671875
-63.4765625,-42.96875,-55.6640625,-62.01171875
-178.7109375,-48.828125,-58.59375,-94.7265625
-115.72265625,-44.921875,-52.24609375,-83.984375
58.10546875,-34.66796875,-43.9453125,-35.64453125
114.2578125,-30.76171875,-41.50390625,-5.859375
-34.66796875,-43.45703125,-44.43359375,-12.20703125
-200.1953125,-48.828125,-45.41015625,-74.70703125
-162.109375,-46.875,-41.9921875,-97.65625
15.13671875,-47.8515625,-41.015625,-49.31640625
70.80078125,-48.33984375,-43.9453125,-23.4375
-41.50390625,-47.36328125,-39.55078125,-41.50390625
-166.9921875,-43.45703125,-45.41015625,-96.6796875
-158.203125,-41.50390625,-56.15234375,-106.93359375
29.78515625,-38.0859375,-53.7109375,-54.6875
114.74609375,-30.2734375,-50.29296875,-40.52734375
-24.90234375,-33.69140625,-58.10546875,-55.6640625
-197.265625,-41.9921875,-65.4296875,-77.63671875
-217.7734375,-38.57421875,-55.17578125,-98.6328125
-39.0625,-33.203125,-49.8046875,-70.80078125
68.84765625,-31.25,-52.734375,-36.1328125
-22.94921875,-32.2265625,-46.38671875,-34.66796875
-169.921875,-35.64453125,-41.50390625,-71.2890625
-175.78125,-34.66796875,-47.8515625,-70.80078125
-16.11328125,-32.2265625,-48.828125,-36.62109375
93.26171875,-34.1796875,-44.43359375,-28.80859375
41.50390625,-33.69140625,-47.36328125,-30.76171875
-124.51171875,-37.109375,-50.29296875,-56.15234375
-185.05859375,-40.52734375,-47.8515625,-70.3125
-33.69140625,-41.015625,-42.96875,-50.29296875
99.609375,-38.57421875,-40.52734375,-22.94921875
45.41015625,-35.64453125,-39.55078125,-29.78515625
-92.28515625,-34.1796875,-44.921875,-58.59375
-151.85546875,-34.1796875,-47.8515625,-64.453125
-45.41015625,-35.15625,-48.33984375,-63.4765625
71.2890625,-36.1328125,-50.78125,-41.9921875
74.70703125,-41.50390625,-50.29296875,-22.94921875
-43.9453125,-43.9453125,-46.875,-22.4609375
-168.45703125,-43.45703125,-45.41015625,-53.7109375
-90.8203125,-44.43359375,-49.31640625,-79.58984375
62.98828125,-37.109375,-44.921875,-51.7578125
66.40625,-29.296875,-40.0390625,-35.15625
-60.05859375,-34.66796875,-40.52734375,-52.24609375
-151.85546875,-39.55078125,-42.48046875,-82.51953125
-83.0078125,-37.109375,-42.96875,-78.125
70.80078125,-36.62109375,-48.33984375,-31.25
101.07421875,-37.109375,-50.78125,-6.34765625
-51.7578125,-39.0625,-49.31640625,-15.625
-187.98828125,-41.9921875,-49.8046875,-57.12890625
-120.1171875,-37.59765625,-48.33984375,-77.1484375
20.01953125,-35.15625,-47.8515625,-61.5234375
56.15234375,-34.66796875,-45.8984375,-48.33984375
-35.64453125,-36.62109375,-43.9453125,-44.921875
-177.24609375,-45.41015625,-44.43359375,-84.9609375
-150.87890625,-42.96875,-41.9921875,-90.8203125
-10.7421875,-40.52734375,-42.48046875,-50.78125
44.43359375,-42.96875,-46.875,-28.80859375
-21.97265625,-44.43359375,-49.8046875,-41.50390625
-155.2734375,-53.7109375,-48.33984375,-69.82421875
-146.97265625,-51.26953125,-43.9453125,-70.80078125
4.39453125,-45.8984375,-43.45703125,-58.10546875
81.54296875,-46.875,-43.45703125,-56.15234375
6.34765625,-46.875,-43.9453125,-42.48046875
-141.11328125,-54.19921875,-48.33984375,-84.47265625
-154.78515625,-56.15234375,-51.7578125,-120.60546875
1.953125,-46.38671875,-51.26953125,-84.9609375
106.93359375,-39.55078125,-44.43359375,-46.38671875
6.8359375,-44.921875,-41.50390625,-23.4375
-130.859375,-50.78125,-46.875,-51.26953125
-168.45703125,-46.38671875,-45.8984375,-84.47265625
-59.08203125,-43.9453125,-44.921875,-64.453125
62.98828125,-44.921875,-46.38671875,-23.4375
15.13671875,-41.50390625,-47.36328125,-8.7890625
-103.515625,-38.57421875,-52.24609375,-56.640625
-190.4296875,-43.45703125,-54.19921875,-84.9609375
-101.07421875,-42.48046875,-42.96875,-62.01171875
78.61328125,-38.57421875,-40.0390625,-20.99609375
64.453125,-46.38671875,-46.38671875,2.44140625
-97.16796875,-51.7578125,-47.8515625,-28.80859375
-204.1015625,-53.22265625,-54.19921875,-82.51953125
-94.23828125,-50.29296875,-53.22265625,-83.49609375
99.12109375,-41.9921875,-45.41015625,-40.0390625
85.44921875,-36.62109375,-38.57421875,-8.30078125
-91.796875,-42.48046875,-40.0390625,-30.2734375
-213.8671875,-45.8984375,-45.41015625,-88.8671875
-131.8359375,-42.96875,-45.8984375,-89.84375
52.24609375,-39.55078125,-45.8984375,-36.1328125
62.01171875,-40.52734375,-44.43359375,-12.20703125
-62.98828125,-48.33984375,-46.875,-30.2734375
-166.50390625,-47.36328125,-47.36328125,-69.3359375
-127.44140625,-43.45703125,-43.45703125,-71.77734375
30.2734375,-44.921875,-45.41015625,-36.62109375
82.03125,-43.9453125,-47.8515625,-2.9296875
-26.85546875,-36.1328125,-45.41015625,-16.11328125
-163.0859375,-29.296875,-40.0390625,-65.4296875
-150.87890625,-40.0390625,-44.921875,-82.03125
9.765625,-39.55078125,-45.41015625,-56.640625
98.6328125,-31.25,-34.1796875,-10.7421875
-9.765625,-40.0390625,-37.109375,-8.30078125
-178.7109375,-48.33984375,-42.48046875,-51.26953125
-203.61328125,-50.29296875,-41.015625,-73.73046875
-37.109375,-45.8984375,-39.0625,-36.62109375
68.84765625,-37.59765625,-38.0859375,11.71875
-17.578125,-35.15625,-44.43359375,-5.37109375
-157.2265625,-40.52734375,-49.8046875,-60.05859375
-179.19921875,-46.38671875,-50.29296875,-93.26171875
-21.484375,-45.8984375,-48.33984375,-67.3828125
65.91796875,-44.43359375,-45.8984375,-16.11328125
-14.16015625,-48.33984375,-44.921875,-18.06640625
-156.73828125,-52.734375,-44.43359375,-54.19921875
-208.0078125,-50.29296875,-46.38671875,-75.68359375
-68.359375,-43.9453125,-50.29296875,-55.6640625
73.73046875,-37.59765625,-44.43359375,-12.6953125
35.15625,-34.66796875,-40.0390625,-14.6484375
-121.58203125,-40.0390625,-47.8515625,-64.453125
-188.4765625,-46.875,-55.6640625,-104.00390625
-56.640625,-37.109375,-43.9453125,-65.91796875
104.00390625,-16.11328125,-26.3671875,2.44140625
48.828125,-25.87890625,-38.0859375,-6.8359375
-125.0,-39.55078125,-46.38671875,-49.31640625
-214.35546875,-33.69140625,-41.015625,-65.91796875
-133.7890625,-29.78515625,-39.0625,-43.9453125
28.80859375,-33.203125,-41.015625,-15.13671875
55.6640625,-33.203125,-46.875,-22.4609375
-73.2421875,-33.203125,-51.7578125,-56.15234375
-165.52734375,-35.64453125,-52.734375,-80.56640625
-97.65625,-34.66796875,-51.26953125,-81.0546875
39.55078125,-29.78515625,-45.41015625,-53.22265625
62.5,-16.6015625,-33.203125,-4.39453125
-82.03125,-22.4609375,-32.2265625,-25.390625
-209.9609375,-41.50390625,-41.50390625,-81.0546875
-173.33984375,-41.015625,-44.921875,-70.3125
-6.34765625,-38.57421875,-44.43359375,-31.25
80.078125,-40.52734375,-39.55078125,-3.90625
-51.26953125,-44.43359375,-42.96875,-18.06640625
-167.48046875,-46.875,-48.828125,-71.77734375
-140.625,-38.0859375,-43.45703125,-98.14453125
6.34765625,-37.109375,-46.875,-59.08203125
77.1484375,-39.0625,-49.31640625,-30.76171875
-50.78125,-39.0625,-42.48046875,-41.015625
-184.5703125,-46.38671875,-46.38671875,-69.82421875
-176.7578125,-49.8046875,-50.29296875,-97.16796875
-10.25390625,-41.50390625,-43.45703125,-67.3828125
89.84375,-40.52734375,-40.52734375,-23.92578125
-9.27734375,-43.9453125,-43.45703125,-34.66796875
-139.6484375,-44.921875,-45.41015625,-79.1015625
-168.45703125,-43.9453125,-48.33984375,-102.05078125
-38.0859375,-43.45703125,-47.8515625,-62.98828125
89.35546875,-44.921875,-43.9453125,-12.6953125
4.39453125,-42.96875,-45.41015625,-12.20703125
-140.625,-45.8984375,-50.29296875,-61.5234375
-190.4296875,-44.921875,-52.24609375,-98.14453125
-82.51953125,-46.38671875,-48.33984375,-42.48046875
49.31640625,-49.31640625,-44.921875,-0.9765625
32.2265625,-43.9453125,-43.9453125,-19.53125
-91.796875,-35.64453125,-35.15625,-22.94921875
-155.76171875,-38.57421875,-40.52734375,-59.08203125
-16.11328125,-39.55078125,-50.78125,-51.7578125
124.51171875,-37.59765625,-44.921875,-12.6953125
102.05078125,-38.57421875,-38.0859375,3.41796875
-31.73828125,-41.9921875,-45.8984375,-26.3671875
-122.0703125,-44.921875,-50.29296875,-80.078125
-22.4609375,-39.0625,-44.921875,-78.61328125
106.93359375,-35.15625,-44.921875,-34.1796875
112.3046875,-41.015625,-47.8515625,-13.18359375
-12.6953125,-45.41015625,-45.41015625,-41.015625
-110.3515625,-43.45703125,-41.50390625,-67.3828125
-40.52734375,-41.50390625,-43.45703125,-61.5234375
83.49609375,-35.64453125,-41.50390625,-30.2734375
119.62890625,-27.83203125,-39.55078125,-11.71875
9.27734375,-28.3203125,-39.0625,-41.9921875
-117.67578125,-34.66796875,-36.62109375,-68.359375
-81.54296875,-34.1796875,-40.0390625,-72.265625
69.3359375,-31.73828125,-41.50390625,-52.734375
135.7421875,-21.484375,-27.83203125,-13.18359375
15.625,-20.5078125,-24.4140625,-25.390625
-140.625,-38.0859375,-38.57421875,-82.03125
-128.90625,-41.50390625,-42.96875,-80.078125
8.30078125,-35.15625,-32.71484375,-37.109375
59.5703125,-34.1796875,-25.390625,-15.13671875
-54.6875,-39.0625,-35.15625,-32.71484375
-152.34375,-32.71484375,-41.015625,-76.66015625
-136.71875,-26.85546875,-36.62109375,-83.984375
-18.5546875,-33.69140625,-41.50390625,-53.22265625
71.2890625,-39.0625,-44.921875,-13.18359375
-21.484375,-38.0859375,-43.45703125,-18.5546875
-175.78125,-37.59765625,-45.41015625,-68.84765625
-180.6640625,-38.57421875,-49.8046875,-90.8203125
-25.87890625,-36.62109375,-47.36328125,-66.40625
77.63671875,-29.296875,-39.0625,-18.06640625
1.46484375,-27.83203125,-38.0859375,-22.94921875
-137.20703125,-32.71484375,-46.38671875,-65.91796875
-151.3671875,-33.69140625,-45.8984375,-70.3125
-28.3203125,-33.69140625,-34.66796875,-46.38671875
46.38671875,-36.1328125,-30.2734375,-29.296875
-13.671875,-45.41015625,-33.203125,-45.8984375
-140.13671875,-49.31640625,-35.15625,-78.61328125
-187.01171875,-47.8515625,-30.2734375,-94.7265625
-70.80078125,-49.8046875,-19.53125,-58.10546875
52.24609375,-52.24609375,-20.01953125,-25.390625
29.78515625,-50.29296875,-22.94921875,-33.69140625
-91.796875,-48.33984375,-25.390625,-75.68359375
-176.7578125,-47.8515625,-32.2265625,-101.5625
-78.61328125,-43.9453125,-38.0859375,-83.0078125
80.078125,-38.57421875,-29.296875,-18.5546875
57.12890625,-24.4140625,-10.25390625,13.18359375
-84.47265625,-30.2734375,-22.94921875,-49.8046875
-162.109375,-48.828125,-37.59765625,-99.609375
-89.35546875,-49.8046875,-33.69140625,-91.796875
74.21875,-45.8984375,-33.203125,-50.29296875
85.44921875,-45.41015625,-31.73828125,-23.4375
-59.5703125,-50.78125,-29.296875,-25.87890625
-182.6171875,-55.6640625,-37.59765625,-74.70703125
-138.18359375,-60.546875,-49.31640625,-110.83984375
47.36328125,-55.17578125,-46.38671875,-67.3828125
93.26171875,-47.8515625,-42.48046875,-30.76171875
-44.43359375,-47.8515625,-40.52734375,-50.29296875
-166.9921875,-45.41015625,-37.109375,-81.54296875
-124.0234375,-46.38671875,-38.0859375,-82.51953125
41.50390625,-44.921875,-38.57421875,-53.22265625
105.95703125,-41.015625,-35.64453125,-8.30078125
-21.97265625,-42.48046875,-37.59765625,-15.625
-157.2265625,-45.41015625,-48.828125,-77.1484375
-153.80859375,-45.8984375,-50.78125,-100.5859375
17.578125,-42.96875,-40.52734375,-62.01171875
87.890625,-41.50390625,-34.66796875,-23.92578125
-32.2265625,-45.8984375,-41.015625,-32.2265625
-160.64453125,-50.29296875,-46.38671875,-63.4765625
-172.36328125,-46.875,-46.38671875,-77.63671875
-23.92578125,-46.38671875,-44.43359375,-54.6875
82.51953125,-45.8984375,-41.9921875,-24.90234375
12.20703125,-42.96875,-38.0859375,-40.52734375
-107.421875,-41.015625,-35.15625,-67.3828125
-145.01953125,-43.9453125,-38.57421875,-86.9140625
-26.3671875,-47.36328125,-43.45703125,-78.61328125
104.4921875,-48.828125,-41.015625,-43.45703125
51.26953125,-47.8515625,-41.50390625,-43.45703125
-103.02734375,-45.8984375,-46.875,-65.4296875
-171.875,-53.7109375,-54.6875,-101.5625
-40.52734375,-55.6640625,-54.6875,-80.56640625
94.23828125,-51.7578125,-48.33984375,-26.3671875
37.59765625,-51.7578125,-43.9453125,-28.3203125
-99.609375,-53.22265625,-44.921875,-60.05859375
-187.01171875,-48.828125,-45.41015625,-90.33203125
-107.421875,-46.38671875,-46.875,-101.07421875
51.26953125,-44.921875,-46.875,-60.546875
66.89453125,-41.015625,-47.36328125,-33.203125
-74.21875,-45.8984375,-48.828125,-53.22265625
-207.51953125,-47.36328125,-46.38671875,-89.84375
-127.9296875,-41.9921875,-41.015625,-86.42578125
29.296875,-41.9921875,-33.69140625,-45.8984375
22.4609375,-43.9453125,-39.0625,-22.94921875
-95.703125,-48.33984375,-46.38671875,-44.43359375
-170.8984375,-48.828125,-49.31640625,-90.8203125
-144.53125,-43.9453125,-49.31640625,-94.23828125
1.953125,-41.9921875,-45.41015625,-63.96484375
58.59375,-39.55078125,-43.9453125,-42.48046875
-62.01171875,-36.62109375,-42.96875,-46.38671875
-171.875,-44.43359375,-45.41015625,-82.03125
-154.78515625,-50.78125,-50.29296875,-106.4453125
15.13671875,-43.9453125,-53.7109375,-83.49609375
103.515625,-40.52734375,-50.29296875,-48.33984375
-20.5078125,-38.57421875,-38.57421875,-41.9921875
-160.15625,-38.57421875,-38.57421875,-69.82421875
-151.85546875,-44.921875,-46.38671875,-92.7734375
5.37109375,-46.875,-46.38671875,-65.91796875
98.14453125,-41.50390625,-39.55078125,-36.1328125
14.16015625,-31.73828125,-34.66796875,-35.64453125
-128.90625,-38.0859375,-41.50390625,-72.75390625
-141.11328125,-43.9453125,-44.921875,-96.6796875
-0.9765625,-45.8984375,-47.36328125,-77.1484375
84.47265625,-46.38671875,-45.8984375,-43.45703125
-7.8125,-51.7578125,-47.8515625,-43.45703125
-150.87890625,-53.22265625,-57.6171875,-97.16796875
-154.296875,-49.31640625,-57.6171875,-112.3046875
-31.25,-47.36328125,-54.6875,-101.5625
77.63671875,-42.48046875,-55.17578125,-72.265625
47.8515625,-37.109375,-50.29296875,-51.7578125
-94.7265625,-36.62109375,-48.33984375,-87.890625
-177.24609375,-42.96875,-51.7578125,-114.74609375
-74.21875,-46.875,-54.6875,-86.9140625
86.9140625,-46.38671875,-50.29296875,-45.8984375
43.9453125,-37.109375,-44.43359375,-47.8515625
-114.74609375,-41.015625,-48.33984375,-79.1015625
-182.12890625,-51.26953125,-48.828125,-104.00390625
-76.66015625,-47.36328125,-46.38671875,-91.796875
41.9921875,-39.0625,-45.41015625,-52.24609375
0.9765625,-43.45703125,-45.41015625,-39.0625
-117.67578125,-49.31640625,-45.8984375,-61.03515625
-216.796875,-42.96875,-40.52734375,-104.4921875
-135.25390625,-41.015625,-41.50390625,-86.9140625
47.36328125,-41.015625,-40.0390625,-31.73828125
50.29296875,-41.015625,-40.52734375,-43.9453125
-100.5859375,-47.36328125,-46.38671875,-68.359375
-196.2890625,-52.24609375,-47.8515625,-109.375
-114.2578125,-46.875,-48.828125,-107.91015625
38.57421875,-38.0859375,-43.9453125,-57.12890625
56.15234375,-33.69140625,-35.64453125,-42.48046875
-64.94140625,-35.15625,-41.9921875,-61.5234375
-183.59375,-45.8984375,-52.24609375,-96.19140625
-130.859375,-48.33984375,-55.17578125,-82.03125
37.109375,-41.9921875,-49.8046875,-48.33984375
86.42578125,-43.45703125,-46.38671875,-45.8984375
-43.9453125,-51.26953125,-51.7578125,-72.75390625
-162.109375,-54.19921875,-53.22265625,-94.23828125
-145.5078125,-51.26953125,-57.12890625,-104.00390625
-0.9765625,-46.875,-51.7578125,-73.73046875
91.30859375,-45.41015625,-43.45703125,-34.66796875
-8.30078125,-48.33984375,-43.45703125,-39.55078125
-166.9921875,-48.33984375,-44.43359375,-84.47265625
-167.96875,-46.875,-46.875,-93.26171875
-1.953125,-44.921875,-48.828125,-51.7578125
97.16796875,-44.921875,-50.78125,-43.9453125
15.625,-44.921875,-48.828125,-39.0625
-147.4609375,-48.33984375,-54.19921875,-69.3359375
-198.2421875,-51.7578125,-60.546875,-96.19140625
-47.36328125,-45.8984375,-54.6875,-75.68359375
86.9140625,-42.96875,-50.78125,-43.45703125
-17.08984375,-47.36328125,-49.31640625,-39.0625
-161.62109375,-44.921875,-49.31640625,-74.21875
-208.0078125,-42.96875,-51.26953125,-73.73046875
-65.91796875,-39.0625,-49.31640625,-49.31640625
111.328125,-30.2734375,-50.29296875,-53.7109375
65.4296875,-32.2265625,-41.9921875,-83.984375
-78.125,-38.57421875,-36.62109375,-88.8671875
-137.6953125,-36.62109375,-39.0625,-53.7109375
-29.78515625,-29.296875,-37.59765625,-32.2265625
84.47265625,-29.78515625,-41.50390625,-54.19921875
32.2265625,-37.109375,-49.8046875,-97.65625
-90.33203125,-41.50390625,-51.26953125,-109.86328125
-177.734375,-46.38671875,-47.8515625,-63.96484375
-113.28125,-46.38671875,-44.43359375,-37.109375
41.50390625,-38.57421875,-40.0390625,-61.5234375
61.5234375,-40.0390625,-41.015625,-93.26171875
-76.66015625,-47.36328125,-44.921875,-98.14453125
-199.70703125,-42.96875,-43.45703125,-65.4296875
-154.78515625,-42.96875,-39.0625,-29.78515625
32.2265625,-45.41015625,-37.109375,-27.83203125
70.80078125,-40.52734375,-40.0390625,-73.2421875
-63.96484375,-44.43359375,-31.25,-92.28515625
-163.0859375,-49.31640625,-33.203125,-62.5
-133.30078125,-47.36328125,-47.36328125,-42.96875
23.4375,-44.921875,-48.33984375,-40.0390625
82.03125,-47.8515625,-49.31640625,-57.6171875
