TP9,AF7,AF8,TP10
158.203125,-56.15234375,-114.74609375,-285.64453125
-77.63671875,-65.91796875,-116.2109375,-345.703125
-208.984375,-75.1953125,-104.4921875,-363.76953125
-37.59765625,-76.66015625,-100.5859375,-335.9375
192.87109375,-77.63671875,-105.95703125,-295.8984375
137.6953125,-81.54296875,-111.81640625,-294.921875
-125.48828125,-92.7734375,-116.69921875,-318.359375
-311.03515625,-101.07421875,-118.65234375,-364.2578125
-184.5703125,-104.00390625,-120.60546875,-364.74609375
84.9609375,-110.3515625,-121.09375,-327.63671875
112.3046875,-108.88671875,-111.81640625,-218.26171875
-128.90625,-113.76953125,-108.3984375,-129.8828125
-322.75390625,-119.140625,-111.81640625,-211.9140625
-188.96484375,-114.74609375,-107.91015625,-73.2421875
98.6328125,-109.375,-101.5625,-28.3203125
151.85546875,-105.95703125,-94.7265625,-140.13671875
-80.078125,-110.3515625,-93.26171875,-190.91796875
-288.0859375,-112.79296875,-95.21484375,-244.62890625
-232.421875,-110.83984375,-97.16796875,-173.33984375
58.10546875,-106.93359375,-100.09765625,105.46875
177.24609375,-103.515625,-97.16796875,272.94921875
-26.85546875,-99.609375,-97.16796875,139.16015625
-222.65625,-96.19140625,-99.609375,39.55078125
-180.17578125,-94.7265625,-99.12109375,92.28515625
79.58984375,-88.8671875,-93.75,187.98828125
223.6328125,-82.03125,-89.35546875,237.79296875
60.546875,-81.54296875,-93.26171875,203.125
-185.05859375,-83.0078125,-98.6328125,20.99609375
-196.77734375,-80.56640625,-102.5390625,-145.5078125
80.56640625,-79.58984375,-101.07421875,-144.53125
272.4609375,-75.1953125,-100.5859375,-149.90234375
133.30078125,-76.66015625,-103.02734375,-208.984375
-121.58203125,-83.0078125,-104.98046875,-204.1015625
-176.26953125,-82.03125,-104.98046875,-232.91015625
91.796875,-75.1953125,-99.609375,-61.5234375
293.9453125,-66.40625,-95.21484375,185.546875
152.34375,-68.84765625,-97.65625,-4.39453125
-106.93359375,-74.21875,-106.4453125,-168.9453125
-195.80078125,-74.70703125,-112.3046875,-226.5625
34.1796875,-77.1484375,-113.76953125,-264.16015625
274.4140625,-69.82421875,-109.375,-197.75390625
224.12109375,-69.82421875,-106.93359375,-127.44140625
-0.48828125,-74.70703125,-107.91015625,51.7578125
-149.90234375,-79.1015625,-108.88671875,212.890625
-5.859375,-78.61328125,-112.3046875,6.8359375
270.01953125,-69.3359375,-109.375,0.9765625
274.90234375,-63.96484375,-99.609375,283.69140625
-9.27734375,-69.3359375,-105.46875,201.66015625
-212.890625,-77.63671875,-116.2109375,20.01953125
-76.171875,-77.63671875,-113.28125,-56.640625
208.49609375,-72.75390625,-108.88671875,15.625
227.5390625,-67.87109375,-109.375,51.26953125
-15.625,-70.3125,-114.2578125,-5.859375
-197.265625,-67.3828125,-117.1875,-17.578125
-105.46875,-64.94140625,-124.51171875,-48.828125
158.203125,-74.21875,-126.46484375,-56.15234375
212.890625,-74.70703125,-114.74609375,-116.2109375
-8.7890625,-73.73046875,-113.76953125,-189.453125
-226.5625,-73.2421875,-116.69921875,-218.26171875
-158.203125,-70.80078125,-112.79296875,-205.56640625
141.11328125,-71.77734375,-113.76953125,-147.4609375
264.6484375,-67.87109375,-113.28125,-110.3515625
42.96875,-62.01171875,-110.3515625,-112.3046875
-220.703125,-62.5,-111.328125,-170.8984375
-170.41015625,-61.5234375,-113.28125,-142.578125
127.9296875,-58.10546875,-110.83984375,-104.00390625
302.734375,-56.640625,-107.421875,48.33984375
121.58203125,-56.640625,-107.91015625,158.69140625
-185.546875,-61.03515625,-108.3984375,5.37109375
-206.0546875,-67.3828125,-107.421875,60.546875
69.3359375,-68.359375,-104.4921875,179.6875
249.0234375,-63.4765625,-101.5625,61.5234375
116.69921875,-55.6640625,-102.5390625,-119.62890625
-137.6953125,-53.22265625,-104.4921875,-155.76171875
-175.29296875,-56.640625,-104.00390625,-74.70703125
100.09765625,-55.6640625,-107.421875,124.51171875
300.29296875,-52.24609375,-105.95703125,224.609375
172.36328125,-51.26953125,-104.98046875,116.2109375
-111.81640625,-53.7109375,-109.86328125,-82.51953125
-215.33203125,-57.12890625,-108.88671875,-149.4140625
20.01953125,-53.7109375,-102.5390625,-156.73828125
284.66796875,-52.734375,-101.5625,-134.27734375
238.76953125,-52.24609375,-103.515625,57.12890625
-27.34375,-54.6875,-103.515625,136.23046875
-177.734375,-52.24609375,-107.91015625,73.2421875
21.97265625,-43.9453125,-104.00390625,118.1640625
295.8984375,-44.921875,-95.21484375,103.515625
264.6484375,-46.875,-98.6328125,-11.71875
12.20703125,-48.33984375,-103.515625,32.71484375
-180.17578125,-51.7578125,-103.515625,9.27734375
-23.92578125,-49.31640625,-103.02734375,-23.4375
295.8984375,-46.875,-100.09765625,136.23046875
319.82421875,-47.8515625,-99.12109375,255.37109375
51.7578125,-47.36328125,-104.00390625,208.49609375
-173.828125,-51.7578125,-103.515625,136.71875
-69.82421875,-56.640625,-100.09765625,136.23046875
245.60546875,-50.78125,-98.14453125,225.5859375
317.3828125,-49.31640625,-93.26171875,301.26953125
60.546875,-53.7109375,-91.796875,278.80859375
-192.87109375,-59.5703125,-96.6796875,204.1015625
-130.859375,-67.87109375,-101.07421875,187.5
182.12890625,-64.94140625,-96.6796875,267.08984375
308.59375,-58.10546875,-93.26171875,332.03125
86.9140625,-58.10546875,-94.23828125,265.625
-155.2734375,-60.546875,-99.609375,179.6875
-139.6484375,-63.4765625,-97.65625,38.57421875
138.671875,-54.19921875,-93.26171875,-62.98828125
314.94140625,-49.31640625,-96.6796875,-5.859375
128.90625,-50.29296875,-97.65625,-58.10546875
-152.34375,-51.26953125,-99.12109375,-177.734375
-176.7578125,-57.12890625,-100.5859375,-239.2578125
94.23828125,-57.12890625,-94.7265625,-322.75390625
314.453125,-48.33984375,-89.84375,-84.47265625
182.12890625,-41.50390625,-90.8203125,103.515625
-123.046875,-44.43359375,-94.7265625,-84.9609375
-213.37890625,-55.17578125,-101.07421875,-197.265625
71.2890625,-55.6640625,-98.6328125,22.94921875
298.33984375,-43.9453125,-84.47265625,220.21484375
172.8515625,-38.57421875,-81.0546875,30.2734375
-122.55859375,-41.015625,-87.890625,-189.94140625
-243.1640625,-47.8515625,-92.28515625,-317.87109375
16.6015625,-46.875,-87.890625,-170.8984375
284.1796875,-40.52734375,-80.56640625,159.66796875
190.4296875,-43.9453125,-83.49609375,226.5625
-123.53515625,-53.22265625,-86.9140625,85.44921875
-273.4375,-54.6875,-85.44921875,-43.45703125
-81.0546875,-50.29296875,-84.47265625,-150.87890625
197.265625,-48.828125,-87.40234375,-199.70703125
204.58984375,-48.828125,-88.8671875,-56.15234375
-84.9609375,-51.26953125,-90.33203125,-130.859375
-295.41015625,-58.59375,-96.19140625,-234.375
-128.90625,-61.03515625,-94.23828125,-264.16015625
199.70703125,-57.12890625,-87.40234375,-139.6484375
219.7265625,-51.7578125,-87.40234375,-53.7109375
-51.7578125,-53.22265625,-85.9375,-139.16015625
-270.5078125,-59.5703125,-84.47265625,-125.48828125
-171.875,-62.01171875,-86.9140625,13.671875
139.16015625,-57.6171875,-85.44921875,231.93359375
205.56640625,-53.22265625,-80.56640625,282.2265625
-51.7578125,-57.12890625,-84.47265625,242.67578125
-293.45703125,-58.10546875,-88.8671875,153.80859375
-209.9609375,-60.546875,-87.890625,167.96875
121.09375,-51.26953125,-81.54296875,354.98046875
231.4453125,-41.015625,-75.68359375,447.265625
-8.7890625,-54.19921875,-77.63671875,411.62109375
-233.3984375,-65.4296875,-81.0546875,339.35546875
-193.359375,-62.01171875,-85.44921875,289.0625
101.07421875,-54.19921875,-86.9140625,252.44140625
291.50390625,-52.24609375,-83.49609375,286.1328125
79.1015625,-51.26953125,-83.49609375,89.35546875
-220.21484375,-55.17578125,-88.37890625,-110.3515625
-212.890625,-60.546875,-89.84375,24.4140625
71.2890625,-53.7109375,-90.8203125,174.31640625
260.25390625,-49.31640625,-85.44921875,219.23828125
95.703125,-52.24609375,-75.68359375,116.2109375
-187.5,-54.19921875,-82.03125,-123.046875
-228.515625,-49.8046875,-91.796875,-232.421875
30.76171875,-41.9921875,-88.8671875,-319.3359375
259.765625,-33.69140625,-82.03125,-309.5703125
139.16015625,-38.0859375,-83.49609375,-265.13671875
-151.85546875,-50.78125,-87.40234375,-343.26171875
-250.0,-54.19921875,-83.984375,-171.38671875
-37.109375,-47.8515625,-72.75390625,-41.9921875
197.265625,-45.41015625,-71.2890625,-50.78125
142.578125,-45.41015625,-78.61328125,41.50390625
-138.671875,-44.43359375,-76.171875,-51.26953125
-300.78125,-43.9453125,-79.58984375,-356.93359375
-72.75390625,-39.0625,-87.40234375,-431.15234375
204.1015625,-34.1796875,-79.58984375,-455.078125
165.52734375,-37.109375,-76.66015625,-488.28125
-54.6875,-35.15625,-81.0546875,-336.9140625
-187.98828125,-25.87890625,-76.171875,-198.2421875
-62.01171875,-25.87890625,-71.77734375,-217.7734375
193.84765625,-22.94921875,-76.66015625,-276.3671875
203.125,-21.97265625,-74.21875,-239.74609375
-42.96875,-30.2734375,-72.265625,-214.84375
-228.02734375,-37.109375,-75.1953125,-228.515625
-120.60546875,-36.1328125,-71.77734375,-204.1015625
161.1328125,-29.296875,-66.40625,-153.3203125
229.4921875,-27.34375,-54.19921875,-138.18359375
15.13671875,-29.78515625,-56.15234375,-179.6875
-194.3359375,-26.3671875,-63.96484375,-233.88671875
-134.27734375,-23.4375,-68.359375,-254.8828125
149.90234375,-26.3671875,-66.89453125,-183.59375
250.0,-24.90234375,-60.05859375,-92.7734375
29.78515625,-28.80859375,-59.5703125,-118.65234375
-201.171875,-36.62109375,-58.10546875,-178.7109375
-165.52734375,-36.1328125,-57.6171875,-85.44921875
100.09765625,-27.83203125,-55.6640625,-20.01953125
249.51171875,-24.90234375,-56.640625,-3.90625
75.68359375,-26.85546875,-59.08203125,-14.6484375
-166.50390625,-25.87890625,-65.4296875,-79.58984375
-177.734375,-27.83203125,-70.80078125,-102.05078125
60.546875,-28.3203125,-62.01171875,-50.29296875
246.09375,-29.296875,-51.26953125,-3.90625
112.3046875,-29.78515625,-55.17578125,36.1328125
-153.3203125,-32.2265625,-57.6171875,203.125
-198.73046875,-32.71484375,-55.6640625,310.05859375
36.1328125,-27.34375,-58.59375,199.21875
243.65234375,-27.34375,-56.15234375,181.640625
128.41796875,-36.62109375,-57.12890625,166.9921875
-134.765625,-47.8515625,-59.5703125,195.80078125
-212.40234375,-49.8046875,-61.03515625,405.2734375
5.37109375,-43.45703125,-63.96484375,422.36328125
211.42578125,-45.41015625,-62.5,186.03515625
154.78515625,-48.33984375,-59.5703125,292.96875
-83.984375,-44.921875,-58.59375,539.55078125
-232.421875,-43.45703125,-59.5703125,534.1796875
-50.29296875,-40.52734375,-59.08203125,587.40234375
209.9609375,-32.71484375,-50.78125,700.68359375
171.875,-26.3671875,-49.8046875,716.30859375
-73.2421875,-28.3203125,-55.17578125,648.4375
-237.79296875,-36.1328125,-50.29296875,586.9140625
-97.16796875,-40.0390625,-41.015625,595.703125
159.66796875,-37.59765625,-40.52734375,639.16015625
148.92578125,-37.59765625,-40.0390625,668.9453125
-75.1953125,-35.64453125,-36.1328125,635.25390625
-245.60546875,-35.64453125,-38.0859375,564.94140625
-147.4609375,-38.0859375,-37.109375,554.6875
128.90625,-29.78515625,-40.0390625,590.8203125
196.2890625,-22.94921875,-44.43359375,600.5859375
-21.484375,-19.04296875,-41.9921875,477.5390625
-239.74609375,-23.92578125,-44.43359375,271.484375
-163.57421875,-33.203125,-42.96875,215.33203125
132.8125,-31.25,-32.71484375,377.9296875
236.81640625,-27.34375,-27.83203125,504.8828125
24.90234375,-27.34375,-24.90234375,473.14453125
-204.58984375,-31.25,-26.3671875,328.125
-136.71875,-22.94921875,-24.90234375,328.125
133.7890625,-12.20703125,-22.4609375,470.703125
244.140625,-6.8359375,-21.97265625,491.2109375
81.0546875,-9.765625,-23.92578125,514.16015625
-156.25,-21.97265625,-21.97265625,452.1484375
-168.45703125,-21.484375,-22.4609375,383.30078125
87.890625,-12.20703125,-24.90234375,439.453125
238.76953125,-12.20703125,-20.99609375,526.3671875
69.82421875,-13.18359375,-19.04296875,356.93359375
-186.5234375,-10.25390625,-23.4375,69.3359375
-221.6796875,-12.6953125,-28.80859375,129.8828125
13.671875,-6.8359375,-32.2265625,301.26953125
192.3828125,5.859375,-29.78515625,183.10546875
89.35546875,5.37109375,-30.2734375,30.76171875
-149.90234375,1.953125,-35.15625,153.80859375
-254.39453125,3.90625,-34.66796875,0.48828125
-22.4609375,-2.9296875,-33.203125,-159.1796875
224.12109375,-0.9765625,-32.71484375,-170.41015625
116.2109375,3.90625,-32.71484375,-518.5546875
-109.86328125,-5.37109375,-36.1328125,-686.5234375
-187.01171875,-13.18359375,-40.0390625,-665.52734375
1.46484375,-13.671875,-39.55078125,-650.87890625
243.65234375,-9.765625,-38.0859375,-575.68359375
197.75390625,-3.90625,-38.57421875,-521.484375
-50.78125,-7.32421875,-40.52734375,-501.46484375
-213.8671875,-11.71875,-41.015625,-531.25
-59.08203125,-7.32421875,-32.2265625,-322.265625
212.890625,-7.32421875,-27.34375,74.21875
217.28515625,-8.30078125,-30.2734375,291.9921875
-34.1796875,-2.44140625,-31.25,259.765625
-218.75,3.90625,-29.296875,100.09765625
-85.9375,10.7421875,-28.3203125,233.3984375
157.2265625,16.6015625,-26.85546875,65.4296875
187.5,4.8828125,-29.296875,-290.52734375
-14.16015625,-3.90625,-34.1796875,-310.546875
-178.22265625,-4.39453125,-39.0625,-150.390625
-114.74609375,-14.16015625,-41.9921875,9.765625
140.13671875,-16.11328125,-44.43359375,161.1328125
246.58203125,-13.18359375,-43.45703125,294.921875
32.71484375,-14.6484375,-43.9453125,328.125
-196.2890625,-18.06640625,-46.38671875,409.1796875
-169.921875,-28.80859375,-44.921875,510.25390625
78.61328125,-31.25,-38.57421875,467.7734375
198.73046875,-26.3671875,-29.296875,228.02734375
19.04296875,-29.78515625,-30.2734375,-12.20703125
-207.51953125,-29.78515625,-35.64453125,-56.640625
-186.03515625,-26.3671875,-33.203125,134.765625
87.40234375,-19.53125,-28.3203125,606.4453125
204.58984375,-19.53125,-23.92578125,441.89453125
42.96875,-29.296875,-24.90234375,-34.1796875
-184.08203125,-32.71484375,-27.34375,-71.2890625
-207.51953125,-27.34375,-27.34375,-79.58984375
37.59765625,-22.4609375,-26.85546875,-224.12109375
235.83984375,-16.11328125,-22.4609375,-325.68359375
141.6015625,-11.23046875,-14.6484375,-273.92578125
-141.6015625,-17.08984375,-18.06640625,-444.82421875
-227.5390625,-23.4375,-25.87890625,-409.66796875
0.9765625,-20.01953125,-25.390625,-285.15625
237.79296875,-12.20703125,-16.11328125,3.90625
161.62109375,-12.6953125,-17.08984375,317.87109375
-115.72265625,-19.53125,-27.83203125,-48.828125
-238.76953125,-26.3671875,-26.3671875,-296.38671875
-56.640625,-23.4375,-20.01953125,-213.37890625
193.359375,-19.04296875,-10.7421875,-107.421875
161.1328125,-16.11328125,-4.39453125,-187.01171875
-89.84375,-16.6015625,-4.8828125,-257.32421875
-237.79296875,-19.53125,-12.20703125,-187.01171875
-89.35546875,-18.06640625,-16.11328125,-132.32421875
165.52734375,-15.625,-9.765625,6.34765625
170.41015625,-12.20703125,-6.8359375,108.88671875
-67.87109375,-9.765625,-4.39453125,-7.8125
-224.609375,-12.20703125,-5.859375,114.2578125
-106.93359375,-14.6484375,-4.8828125,413.57421875
155.2734375,-11.71875,-0.48828125,649.4140625
201.171875,-8.7890625,4.39453125,632.32421875
0.9765625,-12.20703125,3.41796875,558.59375
-210.9375,-13.671875,5.859375,312.01171875
-148.4375,-7.8125,11.23046875,118.65234375
133.7890625,0.48828125,20.01953125,220.21484375
209.9609375,6.34765625,26.85546875,48.828125
-26.85546875,8.30078125,22.94921875,-241.2109375
-246.09375,8.30078125,26.85546875,-382.8125
-189.94140625,-0.9765625,19.53125,-407.2265625
71.77734375,-9.765625,-1.46484375,-338.37890625
221.6796875,-1.953125,-7.32421875,-182.12890625
90.8203125,1.46484375,-2.44140625,9.765625
-171.38671875,-9.27734375,5.37109375,-68.84765625
-241.69921875,-23.4375,4.39453125,-234.375
-5.859375,-28.80859375,-0.48828125,-351.5625
188.96484375,-26.3671875,1.953125,-228.515625
45.8984375,-34.66796875,2.44140625,130.859375
-219.23828125,-41.50390625,-0.48828125,406.73828125
-300.78125,-45.41015625,-3.41796875,472.16796875
-86.9140625,-51.26953125,-2.44140625,437.98828125
136.23046875,-46.38671875,3.41796875,666.50390625
24.4140625,-48.828125,-0.9765625,640.625
-236.328125,-56.640625,1.46484375,541.9921875
-325.1953125,-50.29296875,8.30078125,287.109375
-64.453125,-44.43359375,11.23046875,196.2890625
173.828125,-33.203125,18.06640625,385.7421875
91.796875,-31.73828125,20.01953125,111.81640625
-115.72265625,-35.64453125,17.578125,-97.65625
-219.7265625,-39.0625,10.7421875,258.7890625
-49.31640625,-48.33984375,4.8828125,652.34375
182.12890625,-38.57421875,12.20703125,571.2890625
115.72265625,-28.3203125,16.6015625,32.2265625
-106.93359375,-29.78515625,8.7890625,-447.265625
-188.96484375,-37.109375,2.44140625,-172.36328125
-79.58984375,-35.64453125,4.8828125,-241.2109375
208.49609375,-25.390625,6.8359375,-109.375
259.27734375,-17.08984375,13.671875,638.18359375
-4.39453125,-13.671875,15.625,723.14453125
-197.75390625,-22.94921875,8.7890625,640.625
-126.46484375,-28.3203125,13.18359375,545.41015625
107.421875,-24.4140625,16.11328125,340.8203125
186.5234375,-25.87890625,15.625,411.1328125
-31.25,-25.390625,14.6484375,154.296875
-251.46484375,-20.01953125,9.765625,-460.44921875
-155.76171875,-22.94921875,5.859375,-513.18359375
120.60546875,-21.484375,0.9765625,-445.3125
241.69921875,-9.765625,3.90625,-199.70703125
48.828125,-7.8125,3.41796875,64.453125
-184.5703125,-19.53125,-5.859375,74.70703125
-147.4609375,-25.87890625,-4.39453125,174.31640625
102.5390625,-18.06640625,0.0,312.98828125
224.12109375,-7.8125,1.953125,286.62109375
62.5,-8.7890625,3.41796875,194.82421875
-178.22265625,-15.625,-1.953125,151.3671875
-203.125,-17.08984375,-4.39453125,30.76171875
43.9453125,-14.16015625,2.44140625,-102.05078125
216.796875,-14.16015625,2.44140625,-97.16796875
78.61328125,-12.6953125,1.46484375,-153.80859375
-166.9921875,-10.7421875,6.34765625,-267.578125
-207.51953125,-13.18359375,9.765625,-306.15234375
23.92578125,-15.625,14.16015625,-265.625
220.21484375,-9.765625,18.06640625,-226.07421875
136.71875,-1.46484375,22.94921875,-163.57421875
-105.46875,1.953125,20.99609375,-216.796875
-198.2421875,1.46484375,15.13671875,-355.95703125
21.97265625,-7.32421875,9.765625,-157.2265625
213.8671875,-10.7421875,8.30078125,-62.98828125
125.9765625,-10.7421875,8.7890625,-324.21875
-88.37890625,-14.16015625,5.37109375,-446.2890625
-181.15234375,-17.578125,1.46484375,-188.96484375
-43.45703125,-17.578125,5.37109375,-54.6875
144.04296875,-17.08984375,3.90625,-233.88671875
128.41796875,-13.18359375,1.953125,-280.76171875
-75.1953125,-12.6953125,7.8125,-165.0390625
-218.75,-15.625,10.25390625,-79.1015625
-67.87109375,-7.8125,11.71875,157.2265625
150.390625,-11.23046875,10.25390625,124.51171875
121.58203125,-15.625,5.859375,-365.72265625
-52.734375,-12.20703125,2.9296875,-564.453125
-215.8203125,-15.625,-0.9765625,-611.81640625
-138.18359375,-20.99609375,1.953125,-604.98046875
102.05078125,-16.6015625,9.765625,-537.59765625
144.53125,-15.625,10.25390625,-483.88671875
-64.94140625,-23.92578125,2.9296875,-483.3984375
-248.53515625,-25.87890625,-0.9765625,-514.16015625
-164.55078125,-27.34375,1.953125,-492.67578125
107.91015625,-22.94921875,2.9296875,-421.38671875
211.9140625,-11.23046875,5.37109375,-377.44140625
17.578125,-15.625,7.32421875,-351.07421875
-196.2890625,-20.5078125,2.44140625,-325.68359375
-183.10546875,-22.94921875,-8.7890625,-315.4296875
52.734375,-26.3671875,-5.859375,-183.10546875
161.62109375,-20.5078125,8.30078125,-187.01171875
-1.46484375,-19.53125,7.32421875,-266.6015625
-225.5859375,-22.94921875,2.9296875,-266.11328125
-212.890625,-23.92578125,3.90625,-180.17578125
84.9609375,-19.53125,9.27734375,218.75
251.46484375,-17.08984375,12.6953125,678.7109375
92.7734375,-21.484375,7.8125,816.89453125
-177.24609375,-23.92578125,4.39453125,749.51171875
-239.74609375,-27.83203125,3.41796875,782.71484375
21.97265625,-26.3671875,2.9296875,869.62890625
217.28515625,-23.4375,11.23046875,961.42578125
96.6796875,-26.3671875,12.20703125,962.890625
-136.23046875,-24.4140625,-0.48828125,847.65625
-213.37890625,-23.4375,-4.39453125,723.14453125
2.44140625,-22.94921875,0.0,744.62890625
215.33203125,-18.5546875,3.41796875,763.18359375
121.58203125,-20.99609375,4.8828125,737.79296875
-144.53125,-27.34375,2.9296875,670.8984375
-253.90625,-22.4609375,2.44140625,552.734375
-45.8984375,-20.99609375,5.37109375,573.2421875
194.82421875,-24.90234375,5.859375,662.109375
168.45703125,-30.76171875,6.34765625,668.9453125
-76.66015625,-32.71484375,10.7421875,597.16796875
-260.25390625,-20.01953125,-2.44140625,464.35546875
-118.1640625,-12.6953125,-10.25390625,412.109375
157.71484375,-4.39453125,-4.8828125,463.8671875
172.8515625,5.859375,-7.32421875,456.0546875
-53.7109375,4.8828125,-13.671875,370.60546875
-222.65625,6.34765625,-19.53125,197.75390625
-108.88671875,8.7890625,-25.87890625,67.3828125
175.29296875,11.23046875,-24.4140625,107.421875
229.4921875,16.6015625,-20.5078125,182.12890625
-14.16015625,13.671875,-25.390625,-2.44140625
-208.0078125,10.25390625,-28.80859375,-264.16015625
-121.58203125,19.53125,-25.390625,-422.36328125
145.99609375,29.78515625,-25.390625,-624.0234375
264.16015625,35.15625,-22.94921875,-507.8125
64.453125,29.296875,-21.484375,-438.96484375
-192.3828125,19.04296875,-27.34375,-844.7265625
-142.08984375,15.13671875,-27.83203125,-1000.0
125.48828125,18.06640625,-22.4609375,-986.328125
252.9296875,21.97265625,-15.625,-991.69921875
89.84375,16.6015625,-11.71875,-967.28515625
-142.08984375,16.11328125,-13.18359375,-955.56640625
-163.57421875,15.13671875,-11.71875,-917.96875
51.7578125,5.37109375,-12.20703125,-840.8203125
216.796875,4.8828125,-7.32421875,-759.27734375
90.8203125,5.859375,-9.27734375,-699.70703125
-158.203125,-3.90625,-15.13671875,-738.28125
-183.59375,-3.90625,-7.8125,-492.1875
42.48046875,-0.9765625,-2.9296875,-107.421875
196.2890625,-5.37109375,2.9296875,-104.98046875
110.3515625,-2.44140625,3.90625,164.0625
-150.390625,-3.41796875,-6.8359375,349.609375
-277.34375,-6.34765625,-13.671875,-4.39453125
-56.640625,-4.39453125,-13.18359375,-312.5
176.7578125,-4.8828125,-9.765625,-311.03515625
161.1328125,-6.8359375,-8.30078125,187.01171875
-71.2890625,-13.18359375,-8.30078125,609.86328125
-222.65625,-19.04296875,-9.27734375,595.703125
-55.6640625,-16.6015625,-9.27734375,506.34765625
151.3671875,-12.20703125,-9.765625,308.10546875
123.53515625,-11.23046875,-4.8828125,127.9296875
-93.75,-12.20703125,-6.34765625,202.63671875
-252.9296875,-15.625,-13.18359375,-0.48828125
-63.4765625,-20.01953125,-5.859375,195.80078125
189.94140625,-17.08984375,7.8125,418.9453125
156.25,-16.6015625,3.90625,92.28515625
-86.9140625,-24.4140625,-5.859375,-7.32421875
-266.11328125,-27.83203125,-7.32421875,107.91015625
-148.92578125,-17.08984375,0.0,218.75
121.09375,-4.39453125,7.32421875,399.90234375
147.94921875,-2.9296875,4.8828125,297.8515625
-62.01171875,-10.25390625,0.9765625,200.68359375
-250.9765625,-17.08984375,0.48828125,214.84375
-183.10546875,-16.6015625,0.9765625,237.79296875
98.14453125,-17.578125,1.46484375,400.390625
169.43359375,-12.6953125,2.9296875,354.00390625
-50.78125,-16.11328125,-3.90625,-73.2421875
-255.37109375,-24.4140625,-8.30078125,-247.55859375
-254.8828125,-21.484375,-6.34765625,-461.42578125
-9.27734375,-15.625,-10.25390625,-630.859375
136.23046875,-10.7421875,-8.30078125,-627.9296875
-3.90625,-17.08984375,-10.25390625,-429.19921875
-242.67578125,-20.5078125,-15.13671875,-380.859375
-229.00390625,-20.99609375,-12.6953125,-316.40625
33.203125,-23.4375,-9.765625,-2.9296875
171.875,-19.53125,-4.8828125,174.31640625
20.01953125,-17.578125,1.953125,-48.33984375
-223.6328125,-21.484375,-4.8828125,-521.97265625
-225.5859375,-23.92578125,-9.765625,-544.43359375
20.01953125,-19.04296875,-7.32421875,-386.71875
153.3203125,-17.08984375,-1.953125,-682.6171875
67.87109375,-19.04296875,-2.44140625,-735.83984375
-136.23046875,-25.390625,-3.90625,-429.19921875
-229.98046875,-28.3203125,-1.46484375,-66.89453125
-15.625,-23.4375,-0.48828125,326.171875
189.453125,-17.578125,0.9765625,489.2578125
83.49609375,-22.4609375,-1.46484375,250.0
-176.7578125,-30.2734375,-8.30078125,296.38671875
-329.58984375,-34.1796875,-13.671875,140.625
-119.140625,-35.15625,-11.71875,43.9453125
165.52734375,-25.87890625,-0.9765625,402.83203125
106.93359375,-23.4375,1.953125,331.54296875
-168.45703125,-31.25,-8.7890625,-179.6875
-310.546875,-37.109375,-15.13671875,-586.42578125
-107.421875,-33.69140625,-4.8828125,-211.9140625
121.09375,-29.78515625,3.90625,-109.86328125
94.7265625,-34.66796875,2.44140625,-353.515625
-125.9765625,-47.36328125,0.0,14.6484375
-367.1875,-63.4765625,-7.32421875,140.625
-267.08984375,-66.89453125,-1.953125,218.26171875
17.578125,-60.546875,6.8359375,356.93359375
66.89453125,-62.5,7.8125,408.203125
-181.640625,-75.1953125,6.8359375,448.73046875
-452.63671875,-79.1015625,7.8125,-44.43359375
-382.32421875,-80.078125,7.8125,-539.0625
-22.4609375,-80.078125,10.25390625,-188.96484375
113.28125,-76.171875,14.16015625,247.55859375
-115.72265625,-75.68359375,18.5546875,288.0859375
-339.35546875,-79.58984375,21.484375,372.55859375
-336.42578125,-81.0546875,17.578125,-102.05078125
-44.921875,-75.1953125,17.578125,-605.46875
172.8515625,-64.94140625,20.01953125,-74.70703125
-31.73828125,-67.3828125,15.625,190.4296875
-291.015625,-71.77734375,9.27734375,156.73828125
-291.015625,-64.94140625,11.71875,238.76953125
-9.765625,-59.08203125,17.08984375,337.890625
163.57421875,-57.6171875,13.18359375,387.6953125
26.85546875,-57.6171875,11.71875,362.3046875
-216.796875,-54.19921875,9.27734375,289.55078125
-274.4140625,-49.8046875,4.39453125,220.703125
-21.484375,-51.7578125,4.8828125,217.7734375
190.91796875,-48.33984375,10.7421875,243.65234375
82.03125,-42.96875,9.27734375,223.6328125
-190.91796875,-46.875,5.859375,140.13671875
-294.921875,-48.828125,1.46484375,57.12890625
-64.94140625,-43.9453125,0.48828125,-1.953125
183.10546875,-37.109375,7.8125,103.515625
90.8203125,-32.71484375,2.9296875,-139.6484375
-139.6484375,-41.015625,-9.27734375,-309.08203125
-254.39453125,-49.8046875,-10.25390625,-78.61328125
-74.21875,-46.38671875,-7.32421875,2.44140625
183.10546875,-38.0859375,-7.32421875,74.70703125
132.32421875,-41.50390625,-5.859375,86.9140625
-107.91015625,-40.0390625,-10.7421875,12.6953125
-264.6484375,-34.66796875,-15.625,-69.3359375
-143.06640625,-34.66796875,-13.671875,-141.11328125
90.33203125,-37.59765625,-16.11328125,-544.921875
141.11328125,-36.62109375,-16.11328125,-605.95703125
-70.3125,-33.69140625,-13.18359375,-240.72265625
-270.99609375,-39.0625,-18.06640625,-61.5234375
-179.6875,-46.38671875,-25.390625,0.0
65.4296875,-43.45703125,-20.99609375,-312.5
155.76171875,-33.203125,-16.6015625,-361.81640625
-65.4296875,-34.66796875,-18.06640625,-208.49609375
-324.21875,-42.48046875,-23.4375,-626.46484375
-202.63671875,-35.15625,-24.4140625,-701.171875
114.74609375,-27.83203125,-13.18359375,-315.91796875
200.68359375,-29.78515625,-11.23046875,-158.203125
-21.97265625,-32.71484375,-15.625,-223.6328125
-246.58203125,-39.0625,-18.06640625,-374.51171875
-199.70703125,-36.1328125,-14.6484375,-445.80078125
48.33984375,-38.0859375,-14.6484375,-425.29296875
164.55078125,-41.50390625,-18.5546875,-372.55859375
-13.671875,-40.52734375,-16.11328125,-396.97265625
-251.953125,-40.52734375,-20.5078125,-540.52734375
-257.8125,-43.45703125,-21.484375,-726.5625
-8.7890625,-39.55078125,-17.08984375,-784.66796875
160.15625,-33.203125,-20.5078125,-788.57421875
33.69140625,-32.71484375,-27.83203125,-786.1328125
-214.35546875,-41.50390625,-35.64453125,-794.43359375
-266.6015625,-49.31640625,-20.5078125,-749.51171875
-16.11328125,-38.57421875,2.9296875,-624.0234375
187.01171875,-31.73828125,9.765625,-522.4609375
57.6171875,-35.15625,13.671875,-509.27734375
-196.77734375,-39.55078125,8.7890625,-575.1953125
-273.4375,-43.9453125,5.859375,-589.35546875
-67.87109375,-41.9921875,4.39453125,-583.984375
161.62109375,-37.109375,3.90625,-534.1796875
103.02734375,-34.66796875,0.48828125,-479.98046875
-140.625,-39.0625,-6.8359375,-493.65234375
-267.08984375,-41.50390625,-8.30078125,-583.984375
-63.96484375,-37.59765625,-5.37109375,-396.484375
168.45703125,-34.1796875,-5.37109375,-199.70703125
95.703125,-32.2265625,-6.34765625,-387.20703125
-125.48828125,-36.1328125,-10.25390625,-446.77734375
-270.01953125,-38.57421875,-14.16015625,-447.75390625
-141.11328125,-36.62109375,-6.34765625,-515.625
138.18359375,-34.66796875,-4.39453125,-340.33203125
134.765625,-32.71484375,-8.30078125,-127.44140625
-101.07421875,-29.296875,-12.20703125,-158.203125
-239.74609375,-32.2265625,-17.08984375,-23.92578125
-142.08984375,-41.50390625,-18.5546875,146.484375
127.44140625,-37.59765625,-19.04296875,301.7578125
178.22265625,-33.69140625,-17.08984375,434.08203125
-84.47265625,-36.1328125,-16.6015625,219.23828125
-293.9453125,-39.55078125,-18.5546875,-125.0
-197.265625,-43.9453125,-21.97265625,23.92578125
66.40625,-40.52734375,-17.08984375,106.4453125
144.53125,-30.76171875,-15.625,61.5234375
-80.078125,-34.66796875,-21.97265625,-248.046875
-279.296875,-44.43359375,-21.484375,-404.296875
-204.58984375,-38.57421875,-22.4609375,62.5
40.52734375,-32.71484375,-21.97265625,408.203125
149.4140625,-31.73828125,-14.16015625,539.0625
-30.2734375,-34.66796875,-12.6953125,528.3203125
-261.23046875,-42.96875,-18.06640625,353.515625
-252.44140625,-43.9453125,-23.92578125,315.91796875
-9.27734375,-37.59765625,-13.18359375,429.6875
141.11328125,-35.64453125,-8.30078125,407.71484375
6.8359375,-36.62109375,-12.6953125,394.04296875
-256.34765625,-35.15625,-15.13671875,72.75390625
-292.96875,-40.52734375,-21.484375,-104.98046875
-37.59765625,-39.55078125,-21.97265625,-52.24609375
132.32421875,-32.2265625,-18.06640625,-388.18359375
53.7109375,-35.64453125,-20.5078125,-200.68359375
-183.10546875,-41.015625,-28.80859375,-16.6015625
-268.5546875,-41.015625,-31.25,20.5078125
-70.3125,-43.45703125,-28.3203125,162.59765625
136.71875,-35.64453125,-28.80859375,305.17578125
62.5,-32.2265625,-31.25,325.1953125
-177.24609375,-39.55078125,-32.71484375,244.62890625
-291.9921875,-42.48046875,-33.203125,180.17578125
-121.58203125,-40.52734375,-30.76171875,225.5859375
113.28125,-30.76171875,-26.85546875,273.92578125
83.984375,-27.34375,-22.4609375,133.7890625
-139.16015625,-32.71484375,-24.90234375,50.29296875
-258.30078125,-35.64453125,-26.85546875,125.0
-122.0703125,-34.66796875,-19.53125,-46.38671875
124.0234375,-28.3203125,-18.5546875,-375.48828125
153.80859375,-24.4140625,-20.01953125,-344.7265625
-107.91015625,-34.1796875,-17.08984375,-230.46875
-331.0546875,-45.8984375,-22.94921875,-271.97265625
-213.37890625,-42.48046875,-25.390625,-307.6171875
63.4765625,-38.57421875,-19.53125,-339.84375
113.28125,-40.52734375,-21.97265625,-426.7578125
-92.28515625,-41.015625,-24.4140625,-406.73828125
-266.6015625,-36.1328125,-24.4140625,-204.58984375
-208.0078125,-37.59765625,-22.4609375,-90.8203125
42.48046875,-37.59765625,-19.53125,12.6953125
98.6328125,-33.69140625,-20.01953125,-269.53125
-99.609375,-37.59765625,-20.01953125,-713.8671875
-256.8359375,-42.96875,-23.4375,-525.87890625
-247.55859375,-47.8515625,-23.4375,-405.2734375
-10.25390625,-47.8515625,-22.4609375,-375.48828125
143.5546875,-42.48046875,-21.484375,-208.0078125
-19.53125,-41.015625,-21.484375,-326.171875
-257.32421875,-47.8515625,-23.4375,-537.109375
-258.7890625,-52.734375,-25.87890625,-627.9296875
3.41796875,-51.26953125,-26.85546875,-552.734375
169.921875,-47.36328125,-21.97265625,-505.859375
38.57421875,-46.38671875,-21.97265625,-427.24609375
-218.26171875,-50.29296875,-22.4609375,-242.1875
-293.45703125,-50.78125,-20.5078125,-273.92578125
-38.57421875,-42.48046875,-21.97265625,-268.06640625
183.10546875,-39.55078125,-21.97265625,-181.640625
92.28515625,-40.52734375,-20.01953125,-190.91796875
-173.33984375,-40.0390625,-22.4609375,-254.39453125
-270.5078125,-41.50390625,-23.92578125,-341.796875
-22.94921875,-40.52734375,-18.06640625,-258.30078125
188.96484375,-38.57421875,-16.6015625,-109.86328125
87.40234375,-39.0625,-22.94921875,-124.0234375
-180.17578125,-41.50390625,-26.3671875,-273.92578125
-315.4296875,-46.38671875,-31.73828125,-324.70703125
-138.18359375,-43.45703125,-35.64453125,-285.15625
104.00390625,-37.109375,-32.2265625,-276.85546875
81.0546875,-36.1328125,-29.78515625,-324.70703125
-162.109375,-32.71484375,-30.76171875,-317.87109375
-315.91796875,-33.69140625,-32.2265625,-168.45703125
-145.01953125,-35.15625,-28.3203125,-129.8828125
125.48828125,-27.34375,-24.4140625,-325.1953125
129.39453125,-32.2265625,-27.34375,-439.94140625
-75.68359375,-35.15625,-33.203125,-227.05078125
-266.6015625,-29.296875,-32.71484375,-220.703125
-157.2265625,-31.73828125,-35.64453125,-217.7734375
138.671875,-33.203125,-34.1796875,-91.30859375
181.15234375,-32.71484375,-27.83203125,-72.75390625
-53.7109375,-38.57421875,-30.76171875,-91.30859375
-263.671875,-46.875,-36.62109375,-149.4140625
-191.89453125,-43.45703125,-35.64453125,-132.8125
99.12109375,-35.15625,-31.25,-80.56640625
220.21484375,-28.80859375,-22.4609375,132.8125
-34.66796875,-34.1796875,-20.5078125,-28.3203125
-313.4765625,-47.36328125,-34.66796875,-496.09375
-256.8359375,-46.875,-44.921875,-655.76171875
47.36328125,-36.1328125,-38.0859375,-586.42578125
197.75390625,-32.2265625,-31.25,-536.1328125
22.94921875,-35.64453125,-32.2265625,-521.484375
-224.609375,-36.1328125,-35.15625,-531.73828125
-234.86328125,-38.0859375,-39.55078125,-543.45703125
21.484375,-36.1328125,-36.62109375,-487.3046875
190.4296875,-27.34375,-28.3203125,-416.9921875
58.59375,-28.3203125,-24.90234375,-275.87890625
-181.640625,-39.0625,-28.3203125,12.20703125
-229.4921875,-42.96875,-33.203125,169.921875
-2.9296875,-40.52734375,-35.15625,263.671875
191.40625,-36.1328125,-31.25,367.1875
81.0546875,-35.64453125,-33.69140625,372.55859375
-201.66015625,-47.36328125,-38.0859375,277.83203125
-302.734375,-49.31640625,-38.0859375,207.51953125
-65.4296875,-42.96875,-36.1328125,229.98046875
181.15234375,-38.0859375,-32.71484375,291.015625
89.84375,-37.59765625,-35.15625,281.73828125
-169.921875,-41.50390625,-34.1796875,194.82421875
-288.0859375,-44.43359375,-32.71484375,124.0234375
-89.35546875,-43.9453125,-30.76171875,146.484375
172.36328125,-34.66796875,-25.390625,216.796875
109.375,-34.66796875,-28.3203125,214.84375
-147.4609375,-41.9921875,-35.64453125,118.1640625
-297.8515625,-40.0390625,-38.57421875,32.2265625
-145.01953125,-41.9921875,-38.57421875,47.36328125
125.0,-32.71484375,-33.69140625,127.9296875
127.9296875,-27.34375,-29.296875,158.69140625
-106.93359375,-33.203125,-35.15625,72.75390625
-299.8046875,-34.66796875,-41.50390625,-20.99609375
-198.2421875,-35.64453125,-44.921875,-102.5390625
89.35546875,-34.1796875,-39.55078125,-220.21484375
162.109375,-30.76171875,-30.2734375,-254.39453125
-67.3828125,-35.15625,-33.69140625,-218.75
-296.875,-39.55078125,-43.45703125,-139.6484375
-229.00390625,-39.55078125,-43.45703125,-96.6796875
70.3125,-34.66796875,-40.0390625,-13.671875
183.10546875,-28.80859375,-33.203125,60.05859375
-20.01953125,-31.73828125,-31.25,12.20703125
-238.28125,-37.59765625,-39.0625,-70.80078125
-231.4453125,-40.0390625,-41.015625,-187.98828125
20.01953125,-33.69140625,-33.69140625,-204.1015625
172.8515625,-29.296875,-31.73828125,-45.41015625
-25.390625,-37.109375,-32.2265625,-41.9921875
-290.52734375,-51.26953125,-32.71484375,-276.85546875
-266.6015625,-53.7109375,-38.0859375,-333.984375
3.41796875,-46.875,-36.62109375,-96.6796875
174.31640625,-43.45703125,-29.296875,46.38671875
44.43359375,-43.45703125,-27.83203125,47.36328125
-216.796875,-50.78125,-34.1796875,-39.55078125
-265.625,-52.24609375,-33.203125,-91.796875
-19.53125,-48.828125,-34.1796875,-51.26953125
174.8046875,-42.96875,-33.203125,7.32421875
49.31640625,-41.9921875,-30.76171875,-82.51953125
-226.07421875,-51.7578125,-41.015625,-229.98046875
-316.89453125,-55.17578125,-46.38671875,-375.9765625
-65.91796875,-49.31640625,-41.015625,-429.6875
176.26953125,-38.0859375,-35.15625,-399.90234375
110.3515625,-31.73828125,-33.69140625,-422.36328125
-133.7890625,-38.57421875,-39.55078125,-491.69921875
-269.53125,-41.015625,-44.43359375,-555.6640625
-88.37890625,-39.55078125,-41.015625,-471.6796875
172.36328125,-35.64453125,-33.203125,-402.34375
144.04296875,-28.80859375,-31.73828125,-415.0390625
-115.72265625,-35.64453125,-35.64453125,-439.94140625
-271.484375,-45.41015625,-38.0859375,-458.0078125
-125.0,-47.36328125,-35.64453125,-469.7265625
130.859375,-45.8984375,-30.2734375,-484.375
145.01953125,-47.8515625,-29.78515625,-495.60546875
-79.58984375,-48.33984375,-30.2734375,-470.21484375
-282.2265625,-53.22265625,-34.1796875,-476.07421875
-181.15234375,-52.24609375,-33.203125,-497.0703125
111.328125,-46.38671875,-27.83203125,-390.13671875
181.640625,-41.015625,-31.25,-325.68359375
-54.6875,-42.96875,-39.55078125,-378.41796875
-271.484375,-43.9453125,-38.57421875,-407.71484375
-182.12890625,-38.57421875,-40.0390625,-385.7421875
99.12109375,-37.59765625,-43.45703125,-334.47265625
191.40625,-36.62109375,-36.1328125,-299.31640625
-12.20703125,-34.1796875,-34.1796875,-302.734375
-256.34765625,-39.55078125,-40.0390625,-351.07421875
-229.4921875,-47.36328125,-38.0859375,-366.69921875
50.29296875,-43.9453125,-42.48046875,-287.59765625
179.6875,-39.55078125,-39.55078125,-244.62890625
17.578125,-44.43359375,-30.76171875,-220.21484375
-215.8203125,-46.38671875,-38.57421875,-167.96875
-226.5625,-44.921875,-41.015625,-193.84765625
46.38671875,-43.9453125,-32.2265625,-71.2890625
225.09765625,-36.1328125,-27.83203125,124.51171875
49.31640625,-34.66796875,-30.2734375,109.375
-256.8359375,-40.52734375,-40.52734375,-116.2109375
-304.19921875,-43.9453125,-47.8515625,-320.80078125
-29.296875,-45.8984375,-45.41015625,-255.37109375
177.24609375,-44.43359375,-36.1328125,-91.30859375
60.05859375,-44.921875,-32.2265625,-133.7890625
-209.47265625,-51.26953125,-41.015625,-252.9296875
-292.96875,-54.6875,-43.9453125,-291.50390625
-51.26953125,-48.33984375,-37.109375,-179.19921875
178.22265625,-37.59765625,-33.203125,26.85546875
93.26171875,-34.1796875,-31.73828125,106.93359375
-175.29296875,-39.55078125,-38.57421875,59.5703125
-296.875,-43.9453125,-48.33984375,24.90234375
-103.02734375,-41.9921875,-42.96875,77.63671875
128.90625,-41.9921875,-35.15625,172.8515625
99.609375,-43.45703125,-37.59765625,191.89453125
-135.7421875,-45.41015625,-41.50390625,114.2578125
-317.87109375,-48.33984375,-42.96875,-137.6953125
-157.71484375,-50.78125,-44.43359375,-205.56640625
135.7421875,-46.875,-47.8515625,-19.53125
142.08984375,-42.48046875,-50.29296875,45.8984375
-110.83984375,-44.43359375,-50.78125,-33.203125
-304.19921875,-51.7578125,-53.22265625,-164.55078125
-199.21875,-52.24609375,-48.33984375,-268.06640625
93.26171875,-43.45703125,-38.0859375,-239.74609375
164.55078125,-35.64453125,-28.80859375,-123.53515625
-65.91796875,-33.69140625,-25.390625,-120.1171875
-279.78515625,-41.9921875,-32.71484375,-256.34765625
-208.984375,-47.36328125,-40.52734375,-266.6015625
79.1015625,-41.015625,-36.1328125,-130.37109375
175.29296875,-40.0390625,-33.69140625,-66.89453125
-52.734375,-43.45703125,-37.59765625,-83.49609375
-281.25,-43.9453125,-42.96875,-109.86328125
-257.32421875,-46.875,-48.33984375,-65.4296875
21.97265625,-41.9921875,-45.41015625,27.83203125
167.96875,-36.62109375,-39.55078125,68.359375
-6.34765625,-37.59765625,-43.45703125,38.57421875
-255.37109375,-38.57421875,-47.36328125,-143.5546875
-263.18359375,-41.9921875,-50.29296875,-205.56640625
0.0,-41.50390625,-51.7578125,-86.42578125
157.2265625,-40.0390625,-49.8046875,13.18359375
-1.46484375,-44.921875,-49.8046875,93.26171875
-268.5546875,-46.875,-53.22265625,35.64453125
-315.4296875,-50.78125,-51.7578125,-74.21875
-68.84765625,-48.828125,-45.8984375,-243.65234375
147.94921875,-39.0625,-40.52734375,-287.109375
58.10546875,-38.57421875,-39.0625,-190.91796875
-201.66015625,-44.921875,-42.96875,-136.71875
-303.7109375,-49.8046875,-45.41015625,-225.5859375
-69.3359375,-50.78125,-49.8046875,-281.25
169.921875,-46.875,-49.31640625,-188.96484375
118.1640625,-35.15625,-46.875,-89.84375
-127.9296875,-39.0625,-49.8046875,-49.31640625
-298.828125,-50.78125,-51.7578125,-175.78125
-119.62890625,-49.31640625,-48.33984375,-347.16796875
160.64453125,-43.9453125,-46.38671875,-378.90625
136.71875,-42.48046875,-47.8515625,-388.18359375
-105.46875,-42.48046875,-49.8046875,-393.5546875
-282.71484375,-43.45703125,-51.26953125,-404.296875
-148.4375,-48.828125,-51.7578125,-401.85546875
128.41796875,-43.45703125,-47.8515625,-352.05078125
141.11328125,-36.1328125,-41.9921875,-296.875
-97.16796875,-43.45703125,-46.38671875,-284.1796875
-294.921875,-52.734375,-51.26953125,-303.7109375
-187.01171875,-47.8515625,-50.78125,-299.31640625
91.30859375,-40.0390625,-52.734375,-283.69140625
135.7421875,-41.015625,-48.828125,-275.390625
-77.63671875,-45.41015625,-48.33984375,-301.7578125
-303.7109375,-50.29296875,-50.78125,-336.9140625
-242.67578125,-48.828125,-47.36328125,-336.42578125
44.921875,-41.9921875,-49.8046875,-266.11328125
135.7421875,-39.55078125,-50.29296875,-220.21484375
-57.6171875,-39.55078125,-48.33984375,-256.34765625
-278.80859375,-38.0859375,-46.875,-236.328125
-244.62890625,-38.57421875,-45.41015625,-172.8515625
29.296875,-37.59765625,-44.43359375,-89.84375
168.9453125,-32.2265625,-40.0390625,-14.6484375
-25.87890625,-39.0625,-47.36328125,-141.11328125
-266.11328125,-50.29296875,-54.6875,-282.2265625
-249.0234375,-49.8046875,-51.7578125,-237.79296875
-12.6953125,-42.96875,-49.31640625,-163.57421875
146.97265625,-45.41015625,-52.24609375,-135.25390625
15.625,-48.828125,-48.33984375,-129.39453125
-248.53515625,-47.8515625,-51.26953125,-136.71875
-287.109375,-48.33984375,-60.05859375,-166.50390625
-18.06640625,-42.48046875,-57.12890625,-125.0
182.6171875,-36.1328125,-52.24609375,-75.68359375
77.63671875,-38.0859375,-53.22265625,-98.14453125
-176.26953125,-44.43359375,-57.6171875,-159.66796875
-268.06640625,-54.6875,-60.546875,-225.5859375
-37.59765625,-52.24609375,-55.17578125,-203.61328125
188.96484375,-42.48046875,-44.43359375,-123.53515625
100.09765625,-45.8984375,-52.734375,-141.11328125
-156.73828125,-47.8515625,-59.5703125,-221.6796875
-279.78515625,-46.38671875,-55.17578125,-257.32421875
-92.7734375,-49.31640625,-55.17578125,-268.5546875
161.1328125,-43.9453125,-51.7578125,-253.41796875
128.41796875,-43.45703125,-48.828125,-267.578125
-107.421875,-45.8984375,-45.8984375,-305.17578125
-261.71875,-47.8515625,-46.38671875,-310.05859375
-125.48828125,-50.29296875,-51.26953125,-285.15625
142.578125,-44.921875,-50.78125,-192.87109375
167.48046875,-39.0625,-51.7578125,-142.578125
-69.3359375,-43.9453125,-60.05859375,-221.6796875
-258.7890625,-50.78125,-65.91796875,-309.08203125
-136.71875,-44.43359375,-60.05859375,-302.734375
160.15625,-39.55078125,-49.31640625,-223.6328125
191.40625,-38.57421875,-45.41015625,-179.19921875
-70.80078125,-43.45703125,-48.33984375,-225.09765625
-267.08984375,-50.29296875,-50.29296875,-287.59765625
-177.734375,-52.24609375,-52.734375,-283.69140625
107.421875,-48.33984375,-51.7578125,-219.23828125
213.8671875,-41.015625,-47.8515625,-170.8984375
3.41796875,-39.0625,-52.734375,-206.0546875
-232.91015625,-41.9921875,-58.59375,-278.3203125
-197.75390625,-45.41015625,-58.10546875,-295.8984375
75.68359375,-41.9921875,-53.22265625,-243.65234375
209.9609375,-35.64453125,-50.78125,-179.6875
9.765625,-32.71484375,-54.19921875,-197.265625
-245.1171875,-39.0625,-60.546875,-274.90234375
-230.95703125,-45.8984375,-62.98828125,-312.5
43.9453125,-41.9921875,-59.5703125,-252.9296875
200.1953125,-39.0625,-52.734375,-173.828125
52.734375,-40.0390625,-53.22265625,-184.08203125
-191.89453125,-39.55078125,-56.640625,-255.859375
-244.62890625,-41.015625,-59.08203125,-278.80859375
-13.18359375,-45.8984375,-55.6640625,-222.16796875
178.22265625,-43.9453125,-53.22265625,-160.15625
81.54296875,-39.0625,-52.734375,-159.66796875
-182.6171875,-41.50390625,-56.15234375,-213.8671875
-301.26953125,-47.36328125,-60.546875,-251.953125
-93.75,-45.41015625,-59.08203125,-221.6796875
143.06640625,-40.52734375,-52.734375,-168.9453125
89.84375,-38.57421875,-47.36328125,-171.875
-152.34375,-43.9453125,-53.22265625,-238.76953125
-284.66796875,-47.36328125,-60.05859375,-315.4296875
-82.51953125,-45.41015625,-58.10546875,-272.4609375
160.15625,-42.48046875,-57.12890625,-168.9453125
109.86328125,-40.0390625,-54.19921875,-173.828125
-110.83984375,-38.57421875,-53.7109375,-226.07421875
-270.5078125,-38.57421875,-55.17578125,-283.69140625
-132.8125,-33.69140625,-58.10546875,-289.55078125
134.765625,-31.25,-57.12890625,-209.47265625
127.44140625,-33.69140625,-54.19921875,-175.29296875
-114.74609375,-40.0390625,-57.12890625,-229.4921875
-287.59765625,-46.875,-63.4765625,-302.734375
-154.78515625,-39.55078125,-61.5234375,-297.36328125
126.953125,-28.80859375,-50.29296875,-202.63671875
175.29296875,-26.3671875,-47.8515625,-150.87890625
-60.546875,-36.62109375,-59.08203125,-215.33203125
-281.25,-44.921875,-63.96484375,-298.33984375
-199.21875,-40.52734375,-63.96484375,-300.29296875
83.0078125,-36.1328125,-64.94140625,-231.93359375
187.01171875,-40.52734375,-60.05859375,-145.99609375
-23.4375,-41.9921875,-59.08203125,-142.578125
-271.97265625,-46.875,-57.6171875,-162.109375
-239.74609375,-51.7578125,-58.10546875,-131.34765625
38.0859375,-42.48046875,-57.6171875,-117.1875
169.43359375,-38.0859375,-58.10546875,-91.30859375
-20.01953125,-41.9921875,-61.03515625,-89.84375
-256.8359375,-45.41015625,-59.5703125,-131.34765625
-251.46484375,-47.8515625,-58.10546875,-195.3125
22.4609375,-41.015625,-54.6875,-205.56640625
196.2890625,-31.25,-49.8046875,-161.1328125
37.109375,-40.0390625,-53.22265625,-203.61328125
-221.19140625,-42.96875,-56.15234375,-293.45703125
-284.1796875,-38.57421875,-60.05859375,-344.23828125
-33.203125,-40.0390625,-59.08203125,-281.73828125
182.6171875,-37.109375,-52.24609375,-192.3828125
66.89453125,-34.66796875,-51.26953125,-183.10546875
-191.89453125,-38.57421875,-51.7578125,-186.5234375
-290.0390625,-45.41015625,-56.15234375,-198.2421875
-68.359375,-45.41015625,-59.5703125,-187.98828125
152.34375,-41.015625,-56.15234375,-141.11328125
76.171875,-35.64453125,-53.22265625,-170.8984375
-166.015625,-39.0625,-58.59375,-190.91796875
-304.6875,-47.8515625,-62.98828125,-232.421875
-108.3984375,-46.38671875,-60.546875,-232.421875
154.78515625,-39.0625,-53.7109375,-140.13671875
104.00390625,-37.109375,-52.734375,-123.046875
-151.85546875,-46.875,-61.5234375,-213.37890625
-314.94140625,-50.78125,-68.359375,-340.8203125
-155.2734375,-43.9453125,-65.91796875,-339.35546875
136.71875,-41.9921875,-57.6171875,-250.48828125
146.484375,-39.55078125,-49.31640625,-201.171875
-95.21484375,-35.15625,-46.38671875,-225.09765625
-277.34375,-41.9921875,-55.6640625,-286.1328125
-168.45703125,-49.31640625,-63.4765625,-271.484375
118.1640625,-44.43359375,-54.19921875,-178.7109375
183.10546875,-37.59765625,-49.31640625,-109.86328125
-47.36328125,-36.1328125,-56.15234375,-111.81640625
-257.32421875,-41.015625,-60.546875,-205.56640625
-185.05859375,-41.9921875,-62.01171875,-204.1015625
92.28515625,-40.52734375,-56.15234375,-91.796875
190.91796875,-35.64453125,-52.734375,-22.4609375
-24.90234375,-38.0859375,-55.6640625,-58.10546875
-255.37109375,-47.36328125,-55.17578125,-134.27734375
-243.65234375,-52.24609375,-58.59375,-179.6875
1.46484375,-47.36328125,-58.10546875,-137.20703125
146.484375,-39.0625,-58.59375,-80.078125
-13.671875,-47.36328125,-62.01171875,-89.35546875
-240.72265625,-48.828125,-60.546875,-130.859375
-243.65234375,-41.015625,-59.08203125,-142.08984375
7.32421875,-41.015625,-60.05859375,-81.54296875
178.22265625,-34.66796875,-57.6171875,-83.49609375
39.55078125,-30.76171875,-51.26953125,-83.984375
-225.09765625,-39.55078125,-57.12890625,-62.5
-279.78515625,-39.55078125,-62.5,-101.07421875
-32.71484375,-33.203125,-61.03515625,-104.00390625
166.50390625,-31.73828125,-56.640625,-68.84765625
46.38671875,-40.0390625,-52.734375,-29.78515625
-216.796875,-47.36328125,-62.98828125,-44.43359375
-303.22265625,-46.875,-70.3125,-144.53125
-83.49609375,-37.59765625,-62.5,-159.1796875
152.34375,-29.296875,-60.05859375,-104.98046875
88.8671875,-33.203125,-62.01171875,-133.7890625
-176.7578125,-39.55078125,-61.5234375,-220.21484375
-315.91796875,-43.45703125,-65.4296875,-235.3515625
-115.72265625,-41.015625,-62.01171875,-196.2890625
156.25,-36.1328125,-56.15234375,-68.84765625
110.3515625,-37.59765625,-53.22265625,77.1484375
-171.875,-43.9453125,-53.22265625,47.36328125
-336.9140625,-52.24609375,-61.03515625,19.04296875
-157.2265625,-49.31640625,-57.12890625,24.90234375
126.953125,-36.1328125,-48.828125,60.546875
136.23046875,-30.76171875,-48.828125,76.171875
-86.42578125,-34.1796875,-49.8046875,44.43359375
-297.36328125,-40.0390625,-55.17578125,-2.44140625
-205.078125,-40.52734375,-57.12890625,-7.8125
84.9609375,-35.64453125,-53.7109375,21.97265625
144.53125,-33.69140625,-47.8515625,27.83203125
-69.82421875,-38.57421875,-50.78125,-6.8359375
-273.4375,-39.55078125,-55.6640625,-46.38671875
-212.890625,-39.55078125,-51.7578125,-51.26953125
67.87109375,-38.0859375,-53.22265625,-23.92578125
173.828125,-30.2734375,-50.78125,11.71875
-37.109375,-36.1328125,-52.24609375,-18.06640625
-256.34765625,-44.921875,-58.59375,-98.6328125
-237.3046875,-42.48046875,-60.546875,-157.2265625
13.671875,-40.0390625,-58.10546875,-138.18359375
161.1328125,-41.50390625,-53.22265625,-63.96484375
-17.578125,-46.38671875,-56.640625,-30.2734375
-260.25390625,-42.96875,-57.6171875,-36.1328125
-255.859375,-38.0859375,-53.7109375,-41.50390625
8.7890625,-36.62109375,-49.8046875,-21.484375
175.78125,-34.1796875,-48.828125,7.8125
2.9296875,-38.0859375,-56.15234375,-0.48828125
-251.953125,-39.55078125,-64.453125,-53.22265625
-304.6875,-41.015625,-64.94140625,-77.63671875
-83.49609375,-44.43359375,-60.05859375,-53.22265625
141.11328125,-39.0625,-56.15234375,-23.4375
48.828125,-39.55078125,-56.640625,-91.30859375
-212.890625,-43.9453125,-58.59375,-190.91796875
-296.38671875,-41.015625,-62.98828125,-214.84375
-69.82421875,-37.109375,-61.5234375,-259.27734375
155.2734375,-32.71484375,-56.15234375,-200.1953125
80.078125,-33.203125,-48.828125,-160.64453125
-195.3125,-46.38671875,-49.8046875,-259.27734375
-304.19921875,-50.78125,-53.22265625,-322.75390625
-88.37890625,-40.52734375,-47.36328125,-260.25390625
131.34765625,-33.69140625,-44.921875,-149.90234375
93.26171875,-39.55078125,-50.29296875,-34.66796875
-138.18359375,-51.26953125,-53.22265625,-19.04296875
-298.828125,-56.15234375,-55.17578125,-195.80078125
-115.234375,-54.19921875,-57.6171875,-224.609375
147.94921875,-41.9921875,-61.5234375,-129.39453125
128.90625,-32.2265625,-62.01171875,-130.859375
-77.63671875,-27.83203125,-54.6875,-208.0078125
-247.0703125,-28.80859375,-62.98828125,-199.70703125
-160.64453125,-28.3203125,-73.73046875,-140.13671875
125.9765625,-16.6015625,-67.87109375,-131.34765625
202.1484375,-8.7890625,-65.91796875,-84.9609375
-35.64453125,-10.25390625,-71.77734375,-80.078125
-255.37109375,-12.20703125,-73.73046875,-254.8828125
-156.25,-5.37109375,-72.75390625,-219.7265625
155.76171875,3.90625,-73.2421875,54.6875
253.41796875,3.90625,-72.265625,178.22265625
26.3671875,1.953125,-66.40625,117.1875
-232.421875,-6.8359375,-69.3359375,-70.3125
-206.54296875,-12.6953125,-73.2421875,-141.6015625
86.9140625,-7.32421875,-69.82421875,-41.9921875
231.4453125,-9.27734375,-63.4765625,58.10546875
50.29296875,-12.6953125,-55.6640625,-21.484375
-198.2421875,-12.6953125,-60.05859375,-219.7265625
-206.54296875,-20.5078125,-66.40625,-191.89453125
59.08203125,-21.484375,-61.5234375,-96.6796875
235.3515625,-17.08984375,-56.640625,-124.51171875
92.7734375,-17.08984375,-55.17578125,-153.80859375
-178.22265625,-16.11328125,-55.6640625,-198.73046875
-234.86328125,-19.53125,-59.08203125,-226.5625
7.8125,-20.01953125,-55.17578125,-167.48046875
207.51953125,-11.71875,-48.33984375,-55.17578125
97.16796875,-10.7421875,-44.921875,-18.5546875
-173.828125,-18.5546875,-49.31640625,-114.2578125
-272.94921875,-25.87890625,-51.7578125,-267.08984375
-37.109375,-27.34375,-42.48046875,-274.4140625
209.47265625,-26.3671875,-42.48046875,-200.68359375
129.39453125,-30.2734375,-45.8984375,-189.453125
-141.11328125,-34.1796875,-49.31640625,-245.1171875
-263.671875,-35.15625,-52.24609375,-304.19921875
-83.49609375,-37.109375,-44.921875,-273.4375
161.1328125,-36.62109375,-37.59765625,-183.10546875
133.7890625,-33.203125,-36.1328125,-158.69140625
-113.76953125,-40.0390625,-37.109375,-226.07421875
-259.765625,-43.45703125,-39.55078125,-293.9453125
-111.81640625,-35.64453125,-44.921875,-277.34375
140.625,-34.66796875,-44.43359375,-182.6171875
130.37109375,-37.59765625,-41.9921875,-145.01953125
-104.4921875,-41.015625,-43.45703125,-208.0078125
-279.296875,-44.921875,-48.828125,-154.296875
-163.0859375,-48.828125,-46.875,-48.33984375
119.140625,-52.734375,-46.38671875,-59.5703125
177.24609375,-41.015625,-45.41015625,1.953125
-47.8515625,-33.69140625,-45.41015625,47.36328125
-263.671875,-40.0390625,-51.7578125,68.84765625
-209.9609375,-42.96875,-55.17578125,123.046875
80.078125,-37.59765625,-57.6171875,158.69140625
197.265625,-31.25,-45.8984375,97.16796875
-35.64453125,-46.38671875,-41.50390625,-18.5546875
-297.36328125,-56.15234375,-49.8046875,-113.28125
-289.55078125,-55.6640625,-47.8515625,-215.8203125
-37.59765625,-59.08203125,-44.43359375,-109.375
93.75,-58.10546875,-41.50390625,106.4453125
-88.8671875,-59.08203125,-41.50390625,50.78125
-357.91015625,-68.84765625,-45.41015625,-132.8125
-380.37109375,-83.49609375,-47.36328125,-155.2734375
-106.93359375,-83.49609375,-38.57421875,-85.44921875
68.84765625,-78.125,-27.83203125,-12.6953125
-81.54296875,-80.078125,-25.390625,2.44140625
-319.3359375,-74.70703125,-28.3203125,-62.98828125
-349.12109375,-85.9375,-40.0390625,-162.59765625
-116.69921875,-93.75,-43.45703125,-205.078125
88.37890625,-80.078125,-36.62109375,-157.71484375
-2.44140625,-72.265625,-36.1328125,-152.34375
-253.41796875,-71.2890625,-38.57421875,-180.17578125
-335.44921875,-69.3359375,-37.109375,-225.5859375
-96.19140625,-60.546875,-30.2734375,-227.5390625
132.32421875,-56.15234375,-30.2734375,-154.78515625
55.6640625,-53.7109375,-32.2265625,-152.83203125
-197.265625,-49.8046875,-28.80859375,-212.890625
-315.91796875,-53.22265625,-29.78515625,-265.625
-128.41796875,-62.98828125,-37.109375,-214.35546875
117.1875,-56.640625,-38.0859375,-116.2109375
97.65625,-46.38671875,-31.73828125,-83.0078125
-141.11328125,-46.875,-31.73828125,-126.953125
-290.0390625,-50.78125,-32.71484375,-171.875
-119.62890625,-47.36328125,-30.2734375,-64.94140625
142.578125,-47.36328125,-25.87890625,42.48046875
136.71875,-52.24609375,-26.85546875,3.41796875
-89.35546875,-45.8984375,-32.2265625,24.4140625
-283.203125,-41.015625,-37.59765625,62.98828125
-180.6640625,-41.015625,-40.52734375,-34.1796875
124.0234375,-32.71484375,-34.1796875,-41.015625
164.55078125,-34.66796875,-36.1328125,67.3828125
-71.2890625,-45.41015625,-35.64453125,89.35546875
-255.37109375,-42.48046875,-33.203125,62.5
-193.84765625,-45.41015625,-36.1328125,57.6171875
76.171875,-44.43359375,-38.0859375,109.86328125
176.7578125,-35.64453125,-36.1328125,159.1796875
-28.80859375,-40.0390625,-35.15625,124.0234375
-245.1171875,-48.33984375,-41.015625,49.31640625
-201.66015625,-42.48046875,-40.0390625,22.94921875
61.03515625,-41.50390625,-39.0625,69.82421875
202.63671875,-43.45703125,-37.109375,110.3515625
21.97265625,-39.0625,-31.73828125,63.96484375
-244.140625,-42.48046875,-32.2265625,-73.73046875
-265.13671875,-52.734375,-37.59765625,-141.11328125
-0.9765625,-49.31640625,-36.62109375,-50.78125
190.4296875,-41.50390625,-38.0859375,0.0
50.78125,-38.0859375,-41.015625,-52.734375
-216.30859375,-39.55078125,-45.41015625,-121.09375
-269.53125,-47.36328125,-45.41015625,-175.29296875
-32.2265625,-41.50390625,-36.1328125,-154.78515625
157.71484375,-33.69140625,-30.76171875,-115.234375
61.5234375,-32.2265625,-32.2265625,-105.95703125
-183.10546875,-37.59765625,-37.109375,0.9765625
-298.33984375,-49.8046875,-38.57421875,28.3203125
-91.30859375,-42.48046875,-31.25,44.43359375
142.578125,-34.1796875,-25.87890625,136.71875
80.56640625,-48.33984375,-25.87890625,115.234375
-178.22265625,-56.640625,-31.73828125,-23.92578125
-325.68359375,-55.6640625,-44.43359375,-250.9765625
-99.609375,-46.875,-43.45703125,-199.70703125
173.33984375,-37.59765625,-35.15625,-45.41015625
109.86328125,-36.62109375,-39.55078125,-206.0546875
-127.44140625,-40.52734375,-44.43359375,-232.91015625
-290.52734375,-47.8515625,-50.29296875,-253.90625
-139.6484375,-46.875,-53.7109375,-251.953125
151.3671875,-37.59765625,-46.38671875,-39.55078125
121.58203125,-41.015625,-42.48046875,-81.54296875
-145.01953125,-51.7578125,-43.45703125,-302.734375
-312.98828125,-56.640625,-52.734375,-228.02734375
-182.12890625,-56.15234375,-51.26953125,-75.68359375
84.47265625,-47.36328125,-39.55078125,-156.25
144.53125,-40.52734375,-39.55078125,-215.8203125
-69.3359375,-48.33984375,-47.8515625,-297.8515625
-299.31640625,-48.828125,-48.828125,-417.96875
-233.88671875,-37.59765625,-35.64453125,-435.05859375
41.9921875,-37.59765625,-40.0390625,-364.2578125
127.44140625,-45.8984375,-51.7578125,-310.05859375
-74.21875,-44.43359375,-49.31640625,-351.07421875
-302.24609375,-52.734375,-45.8984375,-434.08203125
-262.20703125,-60.546875,-46.875,-439.94140625
15.625,-55.6640625,-49.8046875,-362.3046875
146.484375,-47.8515625,-47.8515625,-286.1328125
-18.5546875,-46.875,-44.921875,-158.203125
-280.76171875,-47.8515625,-41.50390625,-184.5703125
-295.41015625,-47.8515625,-42.48046875,-263.671875
-20.01953125,-43.9453125,-47.8515625,-131.8359375
138.18359375,-38.57421875,-44.921875,35.15625
-17.578125,-41.9921875,-42.96875,110.3515625
-266.11328125,-47.8515625,-44.921875,82.51953125
-300.78125,-50.78125,-40.0390625,119.62890625
-57.12890625,-43.9453125,-35.15625,134.27734375
139.16015625,-40.0390625,-28.3203125,155.2734375
18.5546875,-38.0859375,-26.3671875,139.16015625
-249.0234375,-40.0390625,-35.64453125,-68.359375
-316.89453125,-43.45703125,-47.36328125,-219.23828125
-72.265625,-36.1328125,-46.38671875,-187.98828125
146.97265625,-30.76171875,-34.66796875,-56.640625
75.1953125,-32.71484375,-27.34375,-11.23046875
-188.4765625,-37.109375,-31.73828125,-89.35546875
-355.46875,-48.828125,-37.59765625,-242.67578125
-145.01953125,-48.828125,-37.59765625,-229.98046875
135.25390625,-42.48046875,-30.76171875,-133.30078125
104.00390625,-45.8984375,-30.2734375,-118.65234375
-139.16015625,-53.7109375,-38.57421875,-157.71484375
-299.31640625,-53.22265625,-42.48046875,-191.40625
-131.8359375,-40.0390625,-40.52734375,-122.55859375
138.671875,-36.62109375,-39.0625,-53.22265625
134.765625,-39.0625,-38.0859375,-58.59375
-84.9609375,-38.57421875,-40.0390625,-141.6015625
-256.8359375,-38.57421875,-41.50390625,-202.63671875
-152.83203125,-41.015625,-42.96875,-194.82421875
128.41796875,-41.9921875,-36.1328125,-151.3671875
197.75390625,-38.57421875,-29.296875,-45.41015625
-36.62109375,-39.0625,-40.52734375,-151.3671875
-263.671875,-52.24609375,-48.33984375,-268.5546875
-179.6875,-52.734375,-47.8515625,-109.86328125
104.00390625,-39.0625,-40.0390625,-60.546875
182.12890625,-39.55078125,-37.109375,-117.1875
-35.64453125,-46.38671875,-43.45703125,-151.85546875
-252.9296875,-47.36328125,-49.8046875,-167.48046875
-203.125,-51.26953125,-46.38671875,-3.90625
53.22265625,-53.7109375,-37.59765625,-2.9296875
191.89453125,-42.48046875,-31.25,-74.21875
35.64453125,-37.59765625,-35.15625,-70.80078125
-195.3125,-34.66796875,-40.52734375,-121.09375
-221.6796875,-32.2265625,-40.0390625,-197.265625
24.4140625,-37.59765625,-40.52734375,-102.05078125
185.546875,-38.57421875,-32.71484375,36.62109375
29.296875,-41.50390625,-31.25,-76.171875
-214.35546875,-48.828125,-38.0859375,-116.69921875
-268.06640625,-48.828125,-39.55078125,-157.71484375
-13.671875,-39.55078125,-39.55078125,-106.4453125
194.3359375,-35.64453125,-33.69140625,50.29296875
86.42578125,-42.48046875,-28.80859375,143.06640625
-177.24609375,-48.828125,-27.83203125,84.47265625
-285.15625,-49.8046875,-29.296875,-18.5546875
-62.01171875,-48.33984375,-32.71484375,-136.71875
190.91796875,-43.45703125,-29.78515625,-71.2890625
108.3984375,-37.59765625,-30.76171875,14.16015625
-161.62109375,-38.0859375,-35.15625,-83.0078125
-294.43359375,-44.43359375,-34.1796875,-175.78125
-108.88671875,-46.875,-33.69140625,-176.26953125
136.23046875,-43.45703125,-34.1796875,-132.8125
96.19140625,-38.57421875,-30.2734375,-111.328125
-140.13671875,-40.0390625,-36.62109375,-122.55859375
-295.41015625,-41.015625,-38.57421875,-173.828125
-151.85546875,-38.57421875,-37.109375,-234.86328125
139.6484375,-38.0859375,-39.0625,-149.90234375
148.4375,-39.0625,-34.1796875,-9.27734375
-107.91015625,-42.48046875,-38.57421875,32.2265625
-285.64453125,-41.9921875,-45.41015625,-130.859375
-158.203125,-38.0859375,-39.55078125,-200.1953125
140.625,-35.64453125,-32.71484375,14.16015625
191.89453125,-34.66796875,-33.203125,96.19140625
-31.25,-35.15625,-33.203125,83.984375
-256.34765625,-36.1328125,-33.203125,-116.69921875
-188.4765625,-37.109375,-33.69140625,-300.29296875
98.14453125,-36.1328125,-25.87890625,-277.83203125
171.875,-33.69140625,-20.99609375,-268.06640625
-41.015625,-37.59765625,-27.83203125,-255.859375
-259.27734375,-43.45703125,-31.25,-363.28125
-227.05078125,-42.48046875,-31.73828125,-383.7890625
61.03515625,-37.59765625,-32.71484375,-102.05078125
187.01171875,-36.1328125,-34.66796875,-108.88671875
-5.859375,-42.96875,-43.45703125,-251.953125
-252.9296875,-50.78125,-47.36328125,-351.07421875
-266.6015625,-43.9453125,-40.0390625,-420.8984375
-8.30078125,-33.203125,-36.1328125,-365.234375
172.36328125,-33.69140625,-34.66796875,-275.390625
30.2734375,-40.0390625,-28.3203125,-276.3671875
-226.5625,-41.015625,-31.73828125,-333.0078125
-280.76171875,-46.875,-41.015625,-316.89453125
-39.55078125,-46.875,-40.0390625,-259.27734375
160.64453125,-41.015625,-41.015625,-195.80078125
58.59375,-38.57421875,-42.96875,-148.92578125
-182.12890625,-47.8515625,-39.55078125,-109.375
-294.43359375,-50.78125,-44.43359375,-148.4375
-93.26171875,-43.45703125,-48.828125,-173.828125
150.87890625,-37.109375,-42.96875,-55.17578125
99.609375,-34.66796875,-42.48046875,-11.71875
-149.4140625,-39.0625,-45.41015625,-59.08203125
-295.8984375,-35.15625,-45.8984375,-158.203125
-104.4921875,-30.2734375,-47.36328125,-203.125
156.73828125,-28.80859375,-51.26953125,-139.6484375
142.08984375,-20.5078125,-51.26953125,-100.09765625
-94.7265625,-19.04296875,-52.734375,-146.484375
-264.6484375,-15.13671875,-56.15234375,-222.16796875
-104.00390625,-16.11328125,-58.59375,-187.5
182.6171875,-17.578125,-48.33984375,-95.703125
190.91796875,-12.6953125,-45.8984375,-59.08203125
-59.5703125,-14.6484375,-57.12890625,-100.5859375
-257.8125,-16.6015625,-57.6171875,-159.66796875
-144.04296875,-18.5546875,-51.26953125,-148.92578125
133.30078125,-13.18359375,-49.31640625,-77.1484375
187.01171875,-6.8359375,-50.78125,-34.66796875
-29.296875,-12.6953125,-52.734375,-88.37890625
-238.76953125,-22.4609375,-54.19921875,-172.36328125
-166.9921875,-22.94921875,-52.734375,-176.26953125
99.609375,-15.13671875,-44.43359375,-103.02734375
189.453125,-15.13671875,-48.33984375,-41.50390625
-11.23046875,-21.484375,-48.828125,-62.98828125
-238.28125,-25.390625,-44.921875,-125.9765625
-213.8671875,-28.3203125,-49.8046875,-137.6953125
54.6875,-26.3671875,-46.875,-68.359375
197.265625,-18.5546875,-42.48046875,-0.9765625
18.5546875,-25.87890625,-45.41015625,-23.92578125
-225.5859375,-38.57421875,-51.26953125,-104.00390625
-224.609375,-37.59765625,-51.26953125,-121.09375
32.71484375,-31.73828125,-44.43359375,-28.80859375
206.54296875,-23.92578125,-34.1796875,48.33984375
50.29296875,-28.80859375,-37.59765625,22.4609375
-219.7265625,-42.96875,-45.8984375,-74.70703125
-250.48828125,-42.96875,-49.8046875,-137.6953125
-3.90625,-36.62109375,-47.8515625,-84.47265625
172.8515625,-37.109375,-43.9453125,-5.859375
56.640625,-42.96875,-43.9453125,-19.04296875
-186.5234375,-42.96875,-48.33984375,-108.88671875
-267.578125,-46.875,-51.26953125,-166.50390625
-50.29296875,-49.8046875,-49.31640625,-120.60546875
174.8046875,-38.0859375,-44.43359375,-42.48046875
86.42578125,-43.9453125,-42.96875,-20.5078125
-176.26953125,-56.640625,-47.36328125,-93.75
-305.6640625,-58.10546875,-60.05859375,-165.52734375
-126.46484375,-55.6640625,-63.96484375,-129.8828125
127.9296875,-47.36328125,-58.59375,-42.48046875
105.95703125,-46.38671875,-53.7109375,-18.06640625
-132.8125,-54.6875,-50.78125,-62.5
-302.24609375,-62.5,-58.10546875,-116.69921875
-166.015625,-61.03515625,-61.5234375,-122.55859375
103.02734375,-58.59375,-52.24609375,-40.52734375
136.23046875,-60.546875,-41.9921875,75.68359375
-106.93359375,-65.4296875,-46.875,52.24609375
-298.33984375,-66.89453125,-54.6875,-66.89453125
-171.875,-60.546875,-58.59375,-132.8125
81.54296875,-59.5703125,-65.4296875,-113.28125
121.09375,-55.6640625,-64.94140625,-27.83203125
-84.9609375,-52.24609375,-61.5234375,-21.484375
-280.76171875,-56.640625,-62.5,-5.859375
-225.5859375,-56.640625,-63.4765625,84.9609375
46.875,-49.8046875,-58.10546875,307.6171875
171.875,-49.31640625,-58.59375,465.33203125
-42.96875,-56.15234375,-56.640625,228.515625
-312.01171875,-69.82421875,-55.6640625,-94.23828125
-292.96875,-79.1015625,-72.265625,-72.75390625
-8.7890625,-76.171875,-78.125,206.54296875
112.79296875,-67.87109375,-70.3125,264.16015625
-114.74609375,-79.1015625,-75.68359375,32.2265625
-372.0703125,-101.07421875,-82.03125,-155.2734375
-374.51171875,-104.98046875,-82.03125,-201.66015625
-104.00390625,-97.65625,-86.42578125,81.0546875
63.96484375,-90.8203125,-76.66015625,338.37890625
-98.6328125,-95.21484375,-68.84765625,243.1640625
-346.19140625,-108.88671875,-81.0546875,-13.18359375
-384.765625,-114.74609375,-81.0546875,-184.5703125
-126.953125,-103.515625,-71.2890625,-118.1640625
74.21875,-102.05078125,-64.94140625,-48.828125
-31.25,-104.00390625,-62.98828125,-14.16015625
-261.71875,-106.4453125,-65.4296875,110.83984375
-361.328125,-121.09375,-70.3125,160.64453125
-157.2265625,-122.55859375,-71.77734375,194.3359375
75.1953125,-109.375,-68.84765625,193.84765625
19.04296875,-104.00390625,-73.73046875,182.12890625
-208.0078125,-97.65625,-73.73046875,189.94140625
-326.66015625,-93.26171875,-77.63671875,54.6875
-140.13671875,-88.37890625,-75.68359375,-89.84375
109.375,-86.9140625,-70.80078125,-87.40234375
73.73046875,-91.796875,-71.77734375,-175.78125
-182.6171875,-96.6796875,-77.63671875,-343.75
-340.8203125,-102.5390625,-83.49609375,-453.61328125
-160.15625,-95.703125,-83.49609375,-393.5546875
115.72265625,-92.7734375,-86.9140625,-275.87890625
122.55859375,-98.6328125,-87.40234375,-88.8671875
-115.234375,-105.46875,-92.7734375,75.68359375
-314.453125,-109.375,-99.12109375,-66.89453125
-197.265625,-101.07421875,-93.75,-56.15234375
95.21484375,-93.26171875,-86.42578125,41.50390625
154.296875,-96.19140625,-90.33203125,23.92578125
-64.94140625,-102.05078125,-96.19140625,72.265625
-262.20703125,-101.5625,-98.14453125,175.78125
-218.75,-102.5390625,-103.02734375,82.03125
53.22265625,-106.93359375,-100.5859375,4.39453125
182.12890625,-99.12109375,-88.37890625,129.8828125
-41.015625,-96.6796875,-90.33203125,-47.8515625
-265.625,-109.375,-102.05078125,-76.66015625
-236.328125,-109.86328125,-108.3984375,23.4375
14.6484375,-95.703125,-105.46875,-10.7421875
160.64453125,-92.7734375,-104.4921875,129.39453125
-7.8125,-91.30859375,-106.4453125,27.34375
-253.41796875,-91.30859375,-104.00390625,-229.4921875
-275.87890625,-96.19140625,-107.421875,-336.9140625
-17.578125,-98.14453125,-105.95703125,-316.40625
175.29296875,-102.05078125,-104.4921875,2.44140625
17.578125,-103.515625,-110.83984375,34.66796875
-245.1171875,-100.09765625,-114.74609375,-209.47265625
-290.52734375,-100.09765625,-121.58203125,-227.5390625
-77.63671875,-107.421875,-125.48828125,-315.91796875
136.71875,-103.515625,-122.55859375,-245.60546875
71.2890625,-94.7265625,-125.0,14.16015625
-197.75390625,-95.21484375,-127.44140625,41.50390625
-307.6171875,-102.5390625,-126.953125,-14.6484375
-65.91796875,-100.09765625,-123.046875,107.421875
154.78515625,-92.7734375,-118.65234375,215.33203125
58.59375,-103.02734375,-120.60546875,199.21875
-198.73046875,-118.1640625,-119.62890625,71.2890625
-321.77734375,-113.28125,-124.0234375,-128.90625
-115.234375,-105.95703125,-124.0234375,-152.83203125
132.8125,-110.83984375,-121.09375,-11.71875
84.9609375,-111.81640625,-126.953125,48.33984375
-153.3203125,-111.81640625,-128.90625,-109.86328125
-292.48046875,-116.69921875,-132.32421875,-337.40234375
-150.390625,-116.2109375,-136.71875,-437.98828125
113.28125,-111.81640625,-139.16015625,-363.28125
115.72265625,-107.91015625,-137.20703125,-265.625
-128.41796875,-111.81640625,-141.6015625,-403.3203125
-294.921875,-116.2109375,-143.5546875,-381.34765625
-196.2890625,-117.1875,-139.6484375,-248.53515625
77.63671875,-116.2109375,-135.25390625,-224.12109375
141.6015625,-116.2109375,-133.30078125,-5.37109375
-102.5390625,-127.44140625,-141.6015625,119.140625
-309.08203125,-133.7890625,-143.5546875,72.265625
-235.3515625,-130.37109375,-142.08984375,59.08203125
28.3203125,-121.09375,-144.04296875,89.35546875
125.0,-115.72265625,-138.671875,123.53515625
-77.63671875,-120.60546875,-141.11328125,74.70703125
-296.875,-118.1640625,-144.04296875,-15.13671875
-265.13671875,-119.62890625,-139.16015625,-24.90234375
-5.859375,-118.65234375,-137.6953125,15.13671875
125.0,-112.3046875,-135.7421875,42.48046875
-37.59765625,-115.72265625,-137.6953125,35.15625
-260.25390625,-120.60546875,-143.06640625,-36.1328125
-254.8828125,-123.53515625,-141.6015625,-60.05859375
1.46484375,-113.28125,-136.71875,7.8125
151.3671875,-110.3515625,-130.37109375,61.5234375
19.04296875,-122.0703125,-134.27734375,49.31640625
-216.30859375,-129.39453125,-147.4609375,-18.5546875
-255.37109375,-132.8125,-151.85546875,-39.0625
-6.34765625,-127.44140625,-145.99609375,6.34765625
173.828125,-120.1171875,-140.625,52.24609375
41.015625,-126.46484375,-141.11328125,33.69140625
-208.0078125,-130.37109375,-145.5078125,-25.390625
-287.59765625,-130.859375,-149.4140625,-53.22265625
-73.73046875,-124.0234375,-145.5078125,-19.53125
139.6484375,-112.79296875,-136.71875,-1.46484375
69.82421875,-116.2109375,-132.32421875,-38.57421875
-163.0859375,-120.60546875,-134.27734375,-75.68359375
-297.36328125,-130.37109375,-138.18359375,-110.83984375
-130.37109375,-135.7421875,-137.20703125,-118.65234375
124.0234375,-128.90625,-133.7890625,-62.98828125
99.609375,-128.90625,-135.25390625,-34.66796875
-140.13671875,-132.8125,-141.11328125,-53.22265625
-301.26953125,-135.25390625,-147.4609375,-147.4609375
-159.1796875,-135.25390625,-145.01953125,-265.625
117.67578125,-133.7890625,-140.13671875,-207.51953125
132.32421875,-127.9296875,-142.08984375,-162.109375
-105.95703125,-125.9765625,-142.08984375,-230.46875
-293.9453125,-129.8828125,-144.53125,-360.83984375
-187.01171875,-132.8125,-143.06640625,-392.08984375
86.42578125,-133.7890625,-135.7421875,-261.23046875
138.671875,-134.27734375,-141.11328125,-165.52734375
-85.44921875,-136.23046875,-145.5078125,-170.8984375
-294.921875,-141.11328125,-144.04296875,-222.16796875
-227.05078125,-144.53125,-145.01953125,-197.75390625
44.43359375,-140.13671875,-141.6015625,-59.5703125
130.859375,-134.27734375,-137.6953125,-163.57421875
-61.03515625,-134.765625,-141.11328125,-229.98046875
-259.27734375,-135.25390625,-142.578125,-177.24609375
-231.4453125,-135.7421875,-143.5546875,-385.25390625
37.109375,-135.25390625,-140.13671875,-341.796875
174.8046875,-134.765625,-139.6484375,-141.11328125
8.30078125,-130.859375,-143.5546875,-104.00390625
-219.7265625,-137.20703125,-144.04296875,-9.27734375
-226.5625,-138.671875,-147.4609375,77.1484375
12.6953125,-129.8828125,-140.625,88.37890625
167.48046875,-129.8828125,-133.7890625,105.95703125
21.97265625,-133.7890625,-140.625,95.21484375
-228.515625,-139.16015625,-148.4375,34.66796875
-252.9296875,-135.7421875,-151.85546875,8.30078125
-23.4375,-127.9296875,-147.4609375,53.22265625
145.01953125,-125.9765625,-144.04296875,86.42578125
39.55078125,-130.859375,-140.13671875,74.70703125
-207.51953125,-137.20703125,-137.20703125,42.96875
-301.26953125,-134.765625,-140.13671875,-20.99609375
-94.23828125,-129.8828125,-137.20703125,-57.12890625
141.11328125,-125.48828125,-130.859375,-33.69140625
89.35546875,-121.09375,-133.30078125,-31.73828125
-154.78515625,-121.09375,-137.6953125,-60.05859375
-270.99609375,-122.55859375,-142.08984375,-83.49609375
-73.73046875,-122.0703125,-145.5078125,-54.19921875
176.26953125,-120.1171875,-138.18359375,5.37109375
150.390625,-123.046875,-134.765625,19.04296875
-98.6328125,-125.9765625,-139.6484375,-6.8359375
-263.18359375,-125.9765625,-144.53125,-46.38671875
-108.3984375,-125.0,-141.11328125,-38.0859375
148.4375,-119.62890625,-129.8828125,-74.70703125
141.6015625,-115.72265625,-122.0703125,-225.09765625
-71.77734375,-121.09375,-122.0703125,-277.34375
-242.67578125,-125.48828125,-125.48828125,-249.0234375
-143.06640625,-115.72265625,-127.9296875,-220.703125
150.87890625,-107.91015625,-128.41796875,-103.515625
208.0078125,-104.98046875,-126.953125,-2.44140625
-27.83203125,-105.46875,-125.0,-19.04296875
-233.3984375,-115.72265625,-125.48828125,-71.77734375
-153.80859375,-121.09375,-126.46484375,-31.73828125
103.02734375,-113.76953125,-122.0703125,33.203125
177.24609375,-107.421875,-115.72265625,-40.0390625
-1.46484375,-104.98046875,-118.65234375,-132.8125
-195.3125,-101.07421875,-120.60546875,-55.17578125
-174.8046875,-105.46875,-120.60546875,-159.1796875
100.09765625,-104.98046875,-117.1875,-256.8359375
245.60546875,-97.65625,-108.88671875,-41.50390625
22.94921875,-99.609375,-110.3515625,-59.5703125
-235.83984375,-105.46875,-118.65234375,-316.89453125
-232.91015625,-115.234375,-119.62890625,-479.4921875
35.64453125,-110.83984375,-118.1640625,-382.32421875
187.98828125,-101.07421875,-118.1640625,-275.390625
25.87890625,-102.05078125,-120.60546875,-375.9765625
-200.68359375,-103.02734375,-118.65234375,-463.8671875
-218.26171875,-104.00390625,-116.69921875,-258.30078125
34.66796875,-101.5625,-115.234375,141.6015625
216.796875,-93.26171875,-109.375,286.62109375
104.00390625,-95.21484375,-108.3984375,281.73828125
-153.3203125,-100.5859375,-109.86328125,108.88671875
-243.65234375,-98.6328125,-114.2578125,39.0625
-38.57421875,-92.7734375,-119.140625,2.9296875
179.6875,-89.35546875,-112.79296875,-96.19140625
121.09375,-92.28515625,-102.05078125,-49.8046875
-134.27734375,-98.14453125,-103.02734375,-102.05078125
-266.11328125,-95.703125,-105.95703125,-204.58984375
-78.125,-99.609375,-108.88671875,-49.8046875
161.62109375,-98.6328125,-104.98046875,147.4609375
100.5859375,-90.33203125,-102.05078125,175.29296875
-116.69921875,-89.35546875,-101.07421875,163.57421875
-254.8828125,-87.890625,-107.421875,156.73828125
-144.04296875,-86.9140625,-117.1875,-59.5703125
125.48828125,-78.61328125,-115.234375,-68.359375
164.55078125,-73.73046875,-107.91015625,202.1484375
-73.2421875,-80.078125,-108.3984375,143.06640625
-248.046875,-82.03125,-115.72265625,58.10546875
-120.1171875,-75.68359375,-110.3515625,118.65234375
127.44140625,-70.80078125,-102.05078125,157.2265625
165.0390625,-75.68359375,-101.5625,200.68359375
-62.01171875,-85.9375,-103.02734375,6.34765625
-267.578125,-93.75,-97.65625,-377.9296875
-162.59765625,-91.796875,-94.7265625,-325.1953125
120.1171875,-81.54296875,-98.14453125,-48.828125
216.796875,-71.77734375,-98.14453125,44.921875
8.30078125,-68.84765625,-101.5625,60.05859375
-232.421875,-74.70703125,-104.00390625,62.01171875
-207.03125,-81.0546875,-102.05078125,52.734375
53.7109375,-76.171875,-102.05078125,9.27734375
190.4296875,-70.3125,-101.07421875,-11.71875
19.04296875,-77.63671875,-101.5625,-77.1484375
-220.703125,-88.37890625,-108.3984375,-207.51953125
-227.05078125,-92.28515625,-109.86328125,-322.265625
31.73828125,-81.0546875,-99.12109375,-309.08203125
213.37890625,-75.1953125,-97.65625,-155.2734375
68.359375,-79.1015625,-94.7265625,-51.26953125
-174.8046875,-80.56640625,-89.84375,-16.11328125
-212.40234375,-80.56640625,-90.8203125,89.35546875
-0.48828125,-78.125,-89.35546875,60.546875
198.73046875,-67.87109375,-81.0546875,92.28515625
94.23828125,-63.96484375,-78.125,245.1171875
-192.3828125,-71.2890625,-85.44921875,142.08984375
-285.64453125,-76.171875,-91.796875,-23.4375
-41.50390625,-81.54296875,-88.37890625,76.171875
172.8515625,-75.68359375,-74.70703125,200.1953125
101.07421875,-70.80078125,-74.21875,287.59765625
-150.390625,-75.68359375,-83.49609375,143.5546875
-269.53125,-80.56640625,-88.37890625,-77.63671875
-72.265625,-78.125,-81.54296875,-78.125
173.33984375,-72.265625,-70.3125,105.95703125
140.625,-72.75390625,-68.84765625,204.1015625
-95.21484375,-73.73046875,-71.2890625,227.5390625
-250.48828125,-74.70703125,-74.21875,171.875
-111.81640625,-73.2421875,-74.21875,104.00390625
146.97265625,-71.2890625,-66.89453125,170.8984375
155.2734375,-71.77734375,-64.453125,259.27734375
-79.1015625,-68.84765625,-64.94140625,239.2578125
-262.6953125,-70.3125,-65.91796875,190.91796875
-152.83203125,-73.2421875,-71.2890625,184.08203125
124.0234375,-67.3828125,-66.89453125,234.86328125
176.26953125,-64.453125,-55.6640625,263.671875
-56.640625,-71.2890625,-58.59375,220.703125
-247.55859375,-66.40625,-64.453125,165.52734375
-145.01953125,-51.7578125,-57.12890625,177.24609375
140.625,-38.57421875,-44.921875,234.86328125
216.796875,-38.0859375,-47.8515625,255.37109375
-3.90625,-54.6875,-67.87109375,216.30859375
-210.9375,-59.5703125,-74.21875,163.0859375
-159.66796875,-59.08203125,-66.40625,153.3203125
102.05078125,-54.6875,-58.59375,198.73046875
239.2578125,-43.45703125,-60.546875,229.00390625
66.89453125,-45.8984375,-63.96484375,219.23828125
-163.57421875,-50.78125,-59.5703125,173.828125
-150.390625,-49.31640625,-58.10546875,148.4375
108.3984375,-46.38671875,-52.734375,192.87109375
280.2734375,-39.0625,-45.8984375,240.234375
139.16015625,-35.15625,-45.8984375,208.49609375
-122.55859375,-46.38671875,-57.6171875,139.6484375
-162.109375,-43.45703125,-56.15234375,120.60546875
82.51953125,-21.97265625,-33.69140625,158.69140625
251.953125,-16.6015625,-26.85546875,203.61328125
143.06640625,-21.484375,-36.62109375,192.3828125
-100.09765625,-34.1796875,-50.29296875,139.16015625
-197.75390625,-45.41015625,-55.17578125,98.6328125
-10.7421875,-47.36328125,-52.24609375,89.84375
211.42578125,-39.55078125,-47.36328125,70.3125
149.4140625,-37.109375,-51.7578125,-3.90625
-76.171875,-39.0625,-53.7109375,-80.078125
-176.7578125,-39.0625,-55.17578125,-106.93359375
-16.6015625,-42.96875,-61.03515625,-57.12890625
212.40234375,-42.48046875,-53.7109375,70.3125
190.4296875,-41.015625,-52.24609375,149.90234375
-37.59765625,-52.734375,-61.03515625,132.32421875
-197.75390625,-55.6640625,-62.5,83.984375
-61.5234375,-49.31640625,-58.59375,109.86328125
204.1015625,-42.48046875,-52.734375,210.44921875
227.05078125,-26.85546875,-37.59765625,254.39453125
11.23046875,-22.4609375,-28.3203125,228.515625
-164.55078125,-29.78515625,-29.78515625,179.19921875
-63.4765625,-29.78515625,-30.76171875,172.36328125
195.3125,-28.80859375,-28.80859375,210.9375
248.53515625,-30.2734375,-23.92578125,222.16796875
28.3203125,-34.1796875,-26.3671875,188.96484375
-195.3125,-38.0859375,-29.296875,147.4609375
-153.3203125,-37.109375,-29.78515625,126.953125
97.16796875,-35.15625,-25.390625,159.1796875
195.80078125,-29.296875,-20.5078125,186.5234375
5.859375,-31.25,-24.90234375,99.609375
-210.9375,-41.9921875,-38.57421875,-39.0625
-162.109375,-41.9921875,-43.45703125,-62.01171875
105.46875,-37.59765625,-30.76171875,-42.48046875
239.2578125,-35.64453125,-25.390625,18.06640625
76.171875,-41.015625,-27.34375,101.5625
-152.34375,-48.33984375,-31.25,105.95703125
-163.0859375,-42.96875,-30.2734375,67.3828125
81.0546875,-36.1328125,-24.4140625,40.0390625
234.375,-35.64453125,-30.2734375,42.96875
82.03125,-40.52734375,-35.15625,14.6484375
-162.109375,-41.9921875,-36.62109375,-71.2890625
-209.9609375,-45.41015625,-41.9921875,-131.34765625
33.69140625,-46.38671875,-41.50390625,-28.3203125
234.375,-41.015625,-42.96875,109.86328125
125.0,-41.50390625,-41.50390625,124.0234375
-130.37109375,-50.78125,-33.69140625,3.41796875
-219.7265625,-50.78125,-33.203125,-74.21875
-64.94140625,-54.19921875,-34.66796875,-110.3515625
124.0234375,-62.98828125,-35.64453125,-81.0546875
70.80078125,-70.3125,-39.0625,16.6015625
-189.453125,-76.66015625,-38.0859375,30.76171875
-311.5234375,-78.125,-40.52734375,-1.46484375
-125.0,-79.58984375,-41.50390625,7.8125
93.26171875,-78.125,-37.109375,49.8046875
58.10546875,-80.078125,-34.66796875,25.87890625
-165.0390625,-84.9609375,-39.0625,1.953125
-319.3359375,-86.42578125,-44.43359375,5.859375
-174.8046875,-80.56640625,-39.55078125,32.2265625
84.47265625,-71.2890625,-40.0390625,69.82421875
116.2109375,-63.96484375,-40.52734375,100.09765625
-109.86328125,-65.91796875,-37.109375,90.33203125
-287.109375,-67.3828125,-43.9453125,10.7421875
-165.52734375,-61.03515625,-45.8984375,37.109375
87.890625,-59.08203125,-33.69140625,92.28515625
140.13671875,-59.08203125,-26.85546875,103.515625
-58.59375,-55.6640625,-28.3203125,90.8203125
-235.3515625,-56.640625,-32.2265625,62.5
-160.64453125,-54.19921875,-33.69140625,67.3828125
95.703125,-48.828125,-30.76171875,79.58984375
190.91796875,-47.8515625,-23.92578125,112.3046875
2.44140625,-46.38671875,-25.87890625,97.65625
-205.56640625,-45.41015625,-29.296875,-3.90625
-177.734375,-51.26953125,-29.78515625,-38.57421875
53.22265625,-49.31640625,-29.78515625,41.9921875
184.5703125,-42.96875,-23.92578125,94.23828125
31.73828125,-41.9921875,-25.87890625,59.5703125
-203.125,-50.78125,-31.73828125,4.8828125
-200.68359375,-62.98828125,-30.76171875,22.4609375
46.38671875,-57.12890625,-25.390625,97.65625
189.453125,-51.26953125,-23.92578125,150.390625
61.03515625,-47.8515625,-20.5078125,147.4609375
-172.36328125,-45.41015625,-21.484375,71.2890625
-209.47265625,-44.921875,-30.2734375,31.73828125
21.97265625,-42.48046875,-29.78515625,93.26171875
187.5,-43.9453125,-30.2734375,150.390625
90.8203125,-47.36328125,-27.34375,145.5078125
-149.90234375,-48.33984375,-20.5078125,100.5859375
-253.41796875,-51.7578125,-23.4375,61.5234375
-45.8984375,-49.31640625,-24.90234375,97.16796875
170.8984375,-43.45703125,-17.578125,158.203125
105.95703125,-47.8515625,-19.53125,148.92578125
-108.88671875,-48.828125,-27.34375,87.890625
-223.6328125,-53.7109375,-33.203125,46.875
-58.59375,-57.12890625,-33.203125,56.15234375
170.8984375,-43.45703125,-25.87890625,110.3515625
129.8828125,-31.25,-26.85546875,139.6484375
-107.421875,-34.1796875,-23.92578125,72.75390625
-252.44140625,-35.15625,-27.34375,2.44140625
-105.46875,-28.80859375,-27.83203125,31.25
142.578125,-24.4140625,-20.5078125,125.48828125
140.13671875,-28.3203125,-20.5078125,156.73828125
-82.03125,-30.2734375,-22.94921875,86.9140625
-238.76953125,-31.73828125,-32.2265625,20.01953125
-125.9765625,-37.109375,-28.3203125,43.45703125
120.60546875,-35.64453125,-15.13671875,122.55859375
154.296875,-36.62109375,-19.53125,144.53125
-60.05859375,-41.015625,-26.3671875,93.26171875
-251.953125,-41.50390625,-29.296875,28.80859375
-189.453125,-36.62109375,-28.3203125,31.73828125
64.94140625,-29.296875,-15.625,113.76953125
152.34375,-26.3671875,-15.625,138.18359375
-41.015625,-32.71484375,-18.5546875,47.8515625
-250.9765625,-34.1796875,-20.99609375,-45.8984375
-206.54296875,-33.69140625,-26.3671875,-56.640625
66.40625,-31.25,-17.578125,14.16015625
199.70703125,-20.5078125,-8.30078125,50.29296875
32.71484375,-17.08984375,-12.20703125,25.390625
-211.42578125,-29.78515625,-19.53125,-21.484375
-220.703125,-34.1796875,-16.6015625,-24.4140625
29.78515625,-32.2265625,-0.9765625,40.0390625
187.01171875,-29.296875,5.37109375,94.23828125
47.8515625,-27.83203125,-2.44140625,70.3125
-196.2890625,-31.73828125,-9.27734375,-2.44140625
-246.09375,-39.0625,-13.671875,-26.85546875
-27.34375,-38.0859375,-8.30078125,45.8984375
144.53125,-34.1796875,-3.90625,118.65234375
52.24609375,-33.69140625,-6.34765625,105.95703125
-179.6875,-34.1796875,-9.765625,37.109375
-273.4375,-39.55078125,-13.671875,-5.37109375
-61.5234375,-35.64453125,-11.23046875,64.94140625
143.06640625,-27.34375,-3.90625,103.515625
63.96484375,-30.2734375,-2.9296875,17.08984375
-172.36328125,-31.25,-6.34765625,-69.3359375
-279.296875,-31.73828125,-6.34765625,-112.3046875
-83.49609375,-34.66796875,-5.859375,-74.70703125
149.90234375,-30.2734375,-0.9765625,5.37109375
113.28125,-26.85546875,-1.953125,24.90234375
-127.44140625,-30.2734375,-9.765625,-20.5078125
-280.76171875,-32.71484375,-12.20703125,-62.01171875
-121.09375,-27.34375,-6.8359375,-31.25
142.578125,-21.97265625,0.48828125,47.8515625
141.6015625,-19.04296875,5.859375,69.3359375
-83.984375,-22.94921875,3.41796875,16.6015625
-257.8125,-32.2265625,-5.859375,-32.2265625
-160.15625,-40.52734375,-2.9296875,-13.671875
127.44140625,-35.64453125,4.8828125,60.05859375
194.82421875,-24.4140625,2.9296875,116.2109375
-34.1796875,-22.94921875,-3.90625,80.078125
-235.3515625,-27.34375,-5.859375,5.37109375
-182.6171875,-31.25,4.8828125,-12.20703125
74.21875,-26.85546875,11.71875,62.01171875
166.9921875,-24.90234375,3.41796875,145.99609375
-16.11328125,-22.4609375,0.9765625,125.9765625
-212.890625,-21.484375,0.9765625,64.94140625
-180.6640625,-18.5546875,1.953125,64.453125
54.6875,-18.5546875,1.953125,126.46484375
192.3828125,-20.01953125,8.7890625,188.4765625
32.71484375,-20.99609375,12.6953125,182.12890625
-227.5390625,-22.94921875,-3.41796875,85.44921875
-226.07421875,-13.18359375,-10.7421875,70.80078125
6.8359375,-7.32421875,-2.9296875,88.8671875
161.62109375,-6.8359375,3.41796875,91.796875
48.33984375,-4.39453125,0.0,124.0234375
-205.078125,-7.8125,-9.765625,65.91796875
-253.90625,-10.25390625,-9.765625,0.48828125
-6.34765625,-8.30078125,-2.9296875,48.33984375
179.6875,-2.9296875,-1.953125,146.484375
76.171875,-6.34765625,-4.8828125,161.62109375
-157.71484375,-13.671875,-8.7890625,95.703125
-236.81640625,-18.06640625,-11.23046875,68.84765625
-26.3671875,-14.6484375,-5.859375,121.09375
175.29296875,-5.37109375,-1.46484375,200.68359375
109.86328125,-2.44140625,-4.8828125,215.8203125
-125.48828125,-9.765625,-5.37109375,121.09375
-254.8828125,-19.04296875,-5.37109375,-25.87890625
-53.7109375,-18.06640625,-5.37109375,-4.39453125
172.8515625,-12.20703125,0.48828125,71.2890625
102.05078125,-17.08984375,4.8828125,-19.04296875
-109.375,-25.390625,2.9296875,-29.296875
-245.60546875,-28.80859375,0.9765625,55.17578125
-109.86328125,-21.97265625,2.44140625,24.4140625
160.64453125,-12.6953125,11.23046875,15.625
182.12890625,-5.37109375,17.578125,106.4453125
-48.828125,-4.8828125,16.6015625,58.59375
-226.5625,-17.578125,11.23046875,16.11328125
-119.140625,-18.06640625,6.34765625,109.86328125
134.27734375,-14.16015625,10.7421875,216.796875
172.36328125,-17.08984375,12.6953125,258.7890625
-46.875,-15.625,7.8125,211.9140625
-236.81640625,-16.11328125,8.30078125,132.8125
-159.1796875,-17.578125,5.37109375,124.51171875
101.07421875,-20.5078125,0.9765625,191.40625
182.6171875,-21.484375,0.0,232.91015625
-11.23046875,-17.08984375,3.90625,200.1953125
-216.30859375,-15.13671875,5.859375,109.375
-190.4296875,-15.13671875,7.8125,48.33984375
54.19921875,-18.06640625,9.765625,101.5625
193.359375,-11.71875,12.6953125,149.90234375
18.5546875,-10.25390625,10.25390625,109.375
-225.5859375,-20.99609375,7.8125,-60.546875
-203.61328125,-21.484375,9.765625,-125.0
34.1796875,-14.16015625,1.46484375,-111.328125
176.26953125,-9.765625,-1.46484375,-192.3828125
65.91796875,-13.671875,2.9296875,-180.6640625
-169.43359375,-20.99609375,1.46484375,-141.6015625
-208.49609375,-19.53125,3.90625,-78.61328125
20.99609375,-14.6484375,4.8828125,6.8359375
190.4296875,-6.34765625,12.6953125,93.26171875
74.70703125,-5.37109375,19.53125,121.09375
-191.89453125,-14.16015625,14.16015625,-6.34765625
-283.69140625,-18.06640625,9.27734375,-206.54296875
-57.12890625,-17.578125,8.30078125,-214.84375
160.15625,-13.671875,13.18359375,-166.50390625
90.8203125,-8.7890625,13.671875,-94.7265625
-167.96875,-12.20703125,9.27734375,-79.58984375
-295.41015625,-17.08984375,5.859375,-146.97265625
-95.703125,-16.6015625,4.39453125,-96.19140625
144.53125,-14.6484375,4.8828125,-36.1328125
106.4453125,-15.625,6.8359375,-40.0390625
-118.65234375,-20.01953125,10.7421875,-84.47265625
-264.16015625,-17.578125,9.27734375,-153.3203125
-123.53515625,-16.6015625,9.27734375,-150.390625
130.859375,-17.578125,13.671875,-95.21484375
123.046875,-15.625,10.25390625,-65.91796875
-106.93359375,-13.671875,6.8359375,-119.140625
-268.06640625,-14.16015625,6.34765625,-184.08203125
-164.55078125,-9.765625,3.41796875,-175.78125
98.14453125,-5.859375,2.44140625,-123.53515625
160.15625,-3.90625,9.27734375,-66.89453125
-68.84765625,-8.30078125,11.23046875,-80.078125
-269.53125,-16.11328125,8.30078125,-124.51171875
-186.03515625,-13.18359375,10.25390625,-76.171875
70.80078125,-16.11328125,12.20703125,20.01953125
149.4140625,-19.04296875,16.11328125,48.828125
-41.9921875,-16.11328125,19.04296875,70.3125
-251.46484375,-14.6484375,12.20703125,61.03515625
-220.21484375,-16.11328125,6.8359375,48.33984375
36.62109375,-8.7890625,8.7890625,135.7421875
168.45703125,-0.48828125,7.32421875,182.6171875
-12.20703125,-8.30078125,2.44140625,106.93359375
-251.953125,-12.6953125,-2.44140625,0.48828125
-230.95703125,-13.671875,-2.44140625,-29.78515625
0.9765625,-19.04296875,1.953125,55.6640625
149.90234375,-13.671875,8.7890625,149.90234375
17.578125,-9.27734375,12.6953125,145.01953125
-239.2578125,-16.6015625,6.8359375,45.8984375
-280.2734375,-19.04296875,-3.41796875,-16.11328125
-22.94921875,-12.20703125,4.39453125,63.96484375
165.0390625,-8.7890625,10.7421875,155.2734375
50.29296875,-11.71875,3.90625,139.6484375
-181.640625,-10.25390625,5.37109375,50.78125
-258.7890625,-11.71875,5.859375,0.9765625
-48.828125,-14.6484375,0.48828125,43.45703125
158.203125,-9.765625,3.41796875,110.83984375
82.03125,-9.765625,12.6953125,119.62890625
-167.96875,-15.625,13.18359375,49.8046875
-299.31640625,-20.01953125,8.30078125,-19.53125
-116.69921875,-13.18359375,11.23046875,7.32421875
122.0703125,-5.859375,17.08984375,74.70703125
87.890625,-5.37109375,12.6953125,48.828125
-150.390625,-7.8125,8.30078125,-41.9921875
-284.1796875,-10.25390625,9.27734375,-197.265625
-128.90625,-6.8359375,11.23046875,-279.296875
131.8359375,2.44140625,8.30078125,-132.8125
135.7421875,6.34765625,6.8359375,-20.5078125
-101.07421875,-7.8125,0.48828125,-41.015625
-256.8359375,-11.71875,-7.8125,-83.984375
-146.484375,-11.23046875,-3.41796875,-30.2734375
103.515625,-11.23046875,4.39453125,14.16015625
151.3671875,-7.32421875,8.7890625,8.30078125
-56.640625,-10.7421875,4.8828125,-109.375
-249.0234375,-16.11328125,-1.953125,-251.46484375
-166.9921875,-15.13671875,-0.48828125,-155.76171875
76.171875,-4.39453125,4.39453125,-10.7421875
135.7421875,1.46484375,8.30078125,-43.9453125
-66.89453125,-7.32421875,3.41796875,-187.5
-273.4375,-16.6015625,-0.48828125,-277.83203125
-224.12109375,-12.6953125,1.46484375,-227.05078125
32.71484375,-1.46484375,1.953125,-119.140625
151.85546875,-0.48828125,2.44140625,-151.3671875
-24.4140625,-7.8125,0.9765625,-192.3828125
-247.55859375,-13.18359375,-1.953125,-231.93359375
-245.60546875,-15.625,1.46484375,-268.5546875
-6.8359375,-13.671875,2.9296875,-207.03125
156.73828125,-8.7890625,0.9765625,-99.12109375
11.71875,-10.7421875,3.41796875,-101.07421875
-229.98046875,-8.7890625,-0.48828125,-167.96875
-264.16015625,-10.25390625,-5.859375,-174.8046875
-24.4140625,-12.6953125,-1.953125,-126.46484375
177.734375,-5.859375,0.48828125,5.859375
70.3125,-6.8359375,1.46484375,94.23828125
-182.6171875,-14.16015625,-3.41796875,57.6171875
-270.99609375,-17.578125,-7.8125,-3.90625
-66.89453125,-17.08984375,-6.8359375,8.30078125
146.484375,-11.23046875,-0.9765625,120.1171875
69.82421875,-4.8828125,-0.9765625,177.734375
-169.921875,-12.20703125,-10.25390625,107.421875
-278.3203125,-18.5546875,-16.6015625,55.6640625
-101.07421875,-13.671875,-14.6484375,26.85546875
114.74609375,-12.20703125,-8.7890625,-10.7421875
76.171875,-13.671875,-7.8125,37.59765625
-152.83203125,-19.04296875,-11.23046875,19.53125
-296.875,-19.53125,-13.18359375,-48.828125
-162.59765625,-20.5078125,-15.625,-126.46484375
70.3125,-18.06640625,-14.16015625,-177.24609375
88.37890625,-14.6484375,-12.20703125,-161.1328125
-111.81640625,-13.671875,-15.625,-217.7734375
-269.53125,-17.578125,-18.5546875,-293.45703125
-167.48046875,-23.92578125,-21.97265625,-273.92578125
85.9375,-17.578125,-16.11328125,-233.88671875
130.37109375,-7.8125,-6.34765625,-186.5234375
-76.66015625,-11.23046875,-4.39453125,-172.36328125
-280.76171875,-18.06640625,-7.8125,-258.30078125
-217.28515625,-20.01953125,-12.20703125,-238.28125
64.453125,-18.06640625,-4.39453125,-147.4609375
173.828125,-15.13671875,2.9296875,-116.69921875
-37.59765625,-17.578125,-9.765625,-184.08203125
-272.94921875,-20.01953125,-22.94921875,-230.95703125
-232.421875,-17.578125,-22.4609375,-211.9140625
41.015625,-12.6953125,-17.08984375,-145.01953125
165.52734375,-9.765625,-18.06640625,7.32421875
-15.13671875,-7.8125,-20.99609375,-36.1328125
-242.67578125,-12.20703125,-26.85546875,-216.30859375
-239.74609375,-17.578125,-31.25,-244.140625
9.765625,-17.578125,-24.90234375,-125.48828125
159.66796875,-14.6484375,-20.5078125,21.97265625
-5.37109375,-15.13671875,-19.04296875,48.33984375
-251.46484375,-18.06640625,-19.04296875,-9.765625
-287.59765625,-19.04296875,-21.97265625,-14.16015625
-47.8515625,-16.6015625,-21.484375,13.18359375
139.6484375,-13.671875,-22.4609375,-4.39453125
24.4140625,-15.625,-23.4375,-99.12109375
-196.77734375,-20.99609375,-22.4609375,-167.96875
-251.953125,-20.01953125,-20.99609375,-104.98046875
-36.62109375,-17.08984375,-19.53125,-16.11328125
170.8984375,-18.5546875,-17.08984375,101.5625
98.14453125,-20.5078125,-15.625,111.81640625
-156.73828125,-22.4609375,-18.06640625,-11.71875
-295.8984375,-25.87890625,-22.94921875,-101.07421875
-100.5859375,-18.06640625,-17.578125,-69.82421875
141.6015625,-14.6484375,-13.671875,92.7734375
94.7265625,-19.04296875,-16.11328125,143.5546875
-142.578125,-24.4140625,-20.01953125,76.66015625
-306.15234375,-26.85546875,-25.390625,12.6953125
-169.43359375,-27.83203125,-24.90234375,31.73828125
87.890625,-26.3671875,-17.578125,107.91015625
104.98046875,-19.53125,-10.7421875,144.53125
-120.60546875,-25.390625,-15.625,64.94140625
-291.50390625,-34.66796875,-20.99609375,-38.57421875
-177.24609375,-34.1796875,-22.94921875,-112.3046875
80.56640625,-24.4140625,-21.97265625,-171.38671875
144.53125,-15.13671875,-19.53125,-176.7578125
-50.29296875,-11.71875,-20.99609375,-224.12109375
-260.25390625,-17.08984375,-22.94921875,-290.0390625
-184.08203125,-20.99609375,-24.4140625,-239.2578125
86.9140625,-19.04296875,-25.87890625,-100.5859375
159.1796875,-19.04296875,-26.85546875,-14.6484375
-49.8046875,-19.04296875,-24.90234375,-24.90234375
-257.8125,-18.06640625,-21.97265625,-142.578125
-215.33203125,-18.06640625,-24.90234375,-231.4453125
29.78515625,-22.94921875,-26.85546875,-162.109375
172.8515625,-17.578125,-14.6484375,-44.921875
3.41796875,-19.53125,-7.32421875,-14.6484375
-243.65234375,-34.1796875,-14.16015625,-108.88671875
-248.53515625,-32.2265625,-20.01953125,-188.96484375
-13.18359375,-27.34375,-21.97265625,-124.51171875
149.4140625,-22.94921875,-23.4375,-81.54296875
11.23046875,-24.4140625,-24.4140625,-185.546875
-225.5859375,-33.203125,-26.3671875,-204.58984375
-253.41796875,-32.71484375,-25.390625,-149.4140625
-35.15625,-27.83203125,-25.390625,-151.3671875
142.578125,-29.296875,-24.90234375,-87.40234375
56.15234375,-30.76171875,-20.99609375,5.859375
-194.3359375,-25.87890625,-23.92578125,-85.44921875
-287.59765625,-23.4375,-31.73828125,-156.73828125
-66.40625,-20.01953125,-33.69140625,-100.09765625
149.90234375,-17.08984375,-29.78515625,-50.29296875
81.54296875,-16.6015625,-28.3203125,-62.98828125
-150.390625,-18.06640625,-28.80859375,-141.11328125
-267.08984375,-23.92578125,-32.2265625,-178.7109375
-92.28515625,-23.92578125,-31.25,-143.06640625
142.08984375,-22.4609375,-27.34375,-80.078125
101.5625,-20.5078125,-25.390625,-48.828125
-115.234375,-19.53125,-26.85546875,-85.44921875
-261.71875,-28.3203125,-30.2734375,-152.83203125
-125.48828125,-27.34375,-26.85546875,-149.90234375
129.8828125,-18.06640625,-20.01953125,-116.69921875
127.9296875,-17.08984375,-18.5546875,-130.37109375
-85.9375,-25.390625,-24.90234375,-177.734375
-250.9765625,-26.3671875,-28.80859375,-220.21484375
-147.94921875,-20.5078125,-28.3203125,-200.68359375
109.375,-17.08984375,-21.97265625,-156.73828125
137.6953125,-18.06640625,-19.04296875,-146.97265625
-75.68359375,-20.5078125,-21.484375,-168.45703125
-256.8359375,-17.578125,-20.01953125,-196.77734375
-224.609375,-22.94921875,-22.4609375,-203.61328125
10.7421875,-25.390625,-22.4609375,-168.45703125
121.58203125,-20.99609375,-23.4375,-126.953125
-66.40625,-20.99609375,-23.4375,-142.578125
-274.4140625,-26.85546875,-23.92578125,-175.29296875
-233.88671875,-28.80859375,-24.90234375,-172.8515625
17.08984375,-23.92578125,-19.04296875,-106.93359375
155.2734375,-21.484375,-21.97265625,-44.43359375
-20.01953125,-22.4609375,-29.296875,-87.40234375
-268.06640625,-24.90234375,-31.73828125,-152.34375
-268.06640625,-29.296875,-35.64453125,-176.26953125
-21.97265625,-29.296875,-37.59765625,-137.20703125
146.484375,-26.3671875,-33.69140625,-81.54296875
12.6953125,-29.78515625,-30.76171875,-95.703125
-221.6796875,-28.3203125,-29.296875,-155.2734375
-253.90625,-23.4375,-33.203125,-178.22265625
-35.64453125,-25.390625,-31.25,-161.1328125
143.5546875,-23.92578125,-22.94921875,-116.2109375
41.9921875,-22.4609375,-25.390625,-105.46875
-183.59375,-28.3203125,-31.73828125,-147.4609375
-259.765625,-30.76171875,-28.3203125,-166.50390625
-53.7109375,-26.85546875,-24.4140625,-135.25390625
169.43359375,-18.06640625,-20.99609375,-86.42578125
99.12109375,-14.6484375,-17.08984375,-76.171875
-147.4609375,-20.5078125,-22.4609375,-111.81640625
-261.71875,-24.4140625,-25.390625,-149.4140625
-81.54296875,-24.90234375,-23.4375,-130.859375
135.7421875,-22.94921875,-20.5078125,-79.1015625
102.5390625,-24.90234375,-22.94921875,-66.89453125
-115.234375,-27.83203125,-24.90234375,-96.6796875
-254.8828125,-25.87890625,-27.34375,-129.39453125
-119.140625,-23.4375,-30.2734375,-125.0
119.140625,-23.92578125,-27.83203125,-76.171875
127.44140625,-20.01953125,-21.97265625,-46.38671875
-95.21484375,-18.5546875,-23.4375,-84.47265625
-280.2734375,-25.87890625,-28.80859375,-145.99609375
-174.31640625,-26.3671875,-27.34375,-143.5546875
91.30859375,-20.99609375,-26.3671875,-89.35546875
137.20703125,-20.5078125,-25.87890625,-68.359375
-68.84765625,-22.94921875,-24.90234375,-90.33203125
-255.37109375,-25.390625,-25.87890625,-123.53515625
-194.82421875,-27.83203125,-30.2734375,-128.41796875
56.640625,-20.99609375,-28.3203125,-79.1015625
147.94921875,-17.578125,-24.4140625,-42.48046875
-46.875,-28.3203125,-29.78515625,-66.89453125
-263.18359375,-34.1796875,-37.109375,-112.3046875
-227.05078125,-28.3203125,-38.57421875,-138.18359375
32.71484375,-18.06640625,-33.203125,-100.09765625
147.94921875,-16.11328125,-27.34375,-59.5703125
-40.0390625,-21.484375,-28.3203125,-86.9140625
-255.859375,-23.92578125,-28.3203125,-131.8359375
-246.09375,-25.390625,-31.25,-142.578125
-12.20703125,-24.4140625,-30.76171875,-99.12109375
138.671875,-20.01953125,-24.90234375,-48.828125
4.39453125,-20.01953125,-26.85546875,-57.12890625
-218.75,-24.90234375,-29.78515625,-113.76953125
-248.53515625,-30.76171875,-32.2265625,-144.53125
-11.23046875,-27.83203125,-29.78515625,-107.421875
167.96875,-25.390625,-25.390625,-70.3125
56.15234375,-28.3203125,-22.94921875,-61.5234375
-191.40625,-33.69140625,-29.296875,-94.7265625
-270.5078125,-40.0390625,-37.109375,-135.25390625
-52.734375,-34.66796875,-26.3671875,-106.93359375
131.8359375,-28.3203125,-19.53125,-57.12890625
49.31640625,-30.76171875,-25.87890625,-53.22265625
-178.7109375,-37.59765625,-27.34375,-107.91015625
-290.52734375,-46.875,-29.78515625,-142.578125
-115.72265625,-44.921875,-24.90234375,-114.74609375
105.95703125,-39.0625,-16.6015625,-87.890625
79.58984375,-35.64453125,-16.6015625,-54.6875
-131.34765625,-32.2265625,-14.16015625,-51.7578125
-277.83203125,-35.15625,-20.5078125,-95.21484375
-143.06640625,-38.57421875,-27.34375,-102.05078125
104.00390625,-30.2734375,-23.4375,-56.15234375
92.7734375,-28.3203125,-25.87890625,-47.36328125
-121.09375,-35.15625,-32.2265625,-92.7734375
-281.25,-40.0390625,-30.2734375,-128.41796875
-198.2421875,-38.57421875,-31.25,-133.30078125
43.45703125,-34.66796875,-30.76171875,-88.37890625
87.890625,-35.64453125,-25.87890625,-54.19921875
-108.3984375,-40.0390625,-27.34375,-77.1484375
-282.71484375,-40.52734375,-33.203125,-119.140625
-208.49609375,-37.59765625,-35.64453125,-136.23046875
53.7109375,-33.203125,-32.2265625,-100.09765625
142.08984375,-23.4375,-27.83203125,-64.94140625
-49.8046875,-27.83203125,-28.3203125,-83.49609375
-243.65234375,-39.55078125,-35.64453125,-125.48828125
-214.35546875,-39.55078125,-31.73828125,-125.0
15.625,-35.64453125,-25.87890625,-79.58984375
153.3203125,-26.85546875,-22.4609375,-42.48046875
-11.23046875,-30.76171875,-20.5078125,-48.33984375
-254.8828125,-41.015625,-29.296875,-103.02734375
-248.046875,-38.57421875,-28.3203125,-108.88671875
-6.34765625,-40.52734375,-26.3671875,-39.0625
146.484375,-44.43359375,-30.76171875,20.5078125
17.578125,-37.109375,-32.2265625,-4.8828125
-218.26171875,-35.15625,-35.64453125,-104.00390625
-259.27734375,-38.0859375,-41.50390625,-155.2734375
-40.0390625,-35.15625,-38.0859375,-126.953125
145.99609375,-29.296875,-30.76171875,-48.828125
41.015625,-30.76171875,-31.73828125,2.44140625
-200.1953125,-38.0859375,-32.2265625,-70.80078125
-270.5078125,-43.45703125,-31.73828125,-125.48828125
-70.80078125,-41.50390625,-31.73828125,-79.1015625
120.60546875,-31.25,-28.3203125,8.30078125
48.828125,-29.296875,-25.390625,26.85546875
-183.59375,-38.0859375,-30.76171875,-71.2890625
-289.55078125,-41.015625,-38.0859375,-146.484375
-95.703125,-36.1328125,-36.1328125,-121.58203125
117.1875,-39.0625,-27.83203125,-65.91796875
65.4296875,-35.64453125,-27.34375,-72.265625
-153.80859375,-29.78515625,-33.203125,-135.7421875
-285.64453125,-32.2265625,-36.1328125,-178.7109375
-125.48828125,-27.83203125,-35.15625,-172.36328125
119.62890625,-20.99609375,-28.80859375,-130.37109375
112.79296875,-25.87890625,-23.4375,-95.21484375
-99.609375,-28.80859375,-27.83203125,-124.0234375
-265.625,-33.69140625,-35.64453125,-168.9453125
-174.8046875,-41.50390625,-34.1796875,-155.2734375
72.75390625,-35.64453125,-30.76171875,-109.86328125
128.41796875,-33.69140625,-26.3671875,-83.0078125
-77.1484375,-38.57421875,-26.3671875,-111.328125
-268.06640625,-40.52734375,-30.2734375,-158.69140625
-198.2421875,-46.875,-25.390625,-148.4375
61.5234375,-41.015625,-21.97265625,-84.47265625
155.2734375,-27.34375,-21.484375,-31.73828125
-42.48046875,-33.203125,-29.296875,-62.5
-255.859375,-38.0859375,-37.109375,-143.5546875
-219.23828125,-32.2265625,-37.109375,-172.8515625
23.92578125,-32.71484375,-37.109375,-108.3984375
149.4140625,-27.83203125,-32.2265625,-47.8515625
-11.71875,-24.4140625,-32.2265625,-81.0546875
-247.55859375,-31.25,-38.0859375,-160.15625
-245.60546875,-33.69140625,-41.50390625,-182.6171875
1.953125,-32.2265625,-35.15625,-132.32421875
166.50390625,-30.76171875,-31.25,-94.7265625
47.8515625,-28.3203125,-33.203125,-96.19140625
-198.2421875,-30.76171875,-32.71484375,-133.7890625
-254.39453125,-36.1328125,-30.76171875,-158.203125
-27.34375,-36.62109375,-35.15625,-125.0
161.1328125,-27.83203125,-33.203125,-83.0078125
56.15234375,-26.3671875,-33.69140625,-95.21484375
-183.10546875,-31.73828125,-37.59765625,-144.53125
-257.32421875,-31.73828125,-38.57421875,-169.43359375
-65.4296875,-28.3203125,-37.59765625,-141.6015625
112.3046875,-28.80859375,-33.69140625,-99.12109375
49.31640625,-33.69140625,-35.64453125,-88.8671875
-168.45703125,-35.64453125,-33.69140625,-127.44140625
-295.41015625,-35.64453125,-38.0859375,-169.43359375
-115.72265625,-39.0625,-43.9453125,-147.94921875
125.48828125,-38.0859375,-40.0390625,-87.40234375
97.16796875,-33.69140625,-37.59765625,-72.265625
-125.9765625,-33.203125,-38.57421875,-115.72265625
-289.55078125,-38.57421875,-42.96875,-167.96875
-142.578125,-38.0859375,-51.26953125,-160.15625
136.71875,-25.87890625,-45.8984375,-89.35546875
131.8359375,-21.97265625,-35.64453125,-61.03515625
-104.00390625,-33.203125,-43.9453125,-96.6796875
-259.27734375,-40.52734375,-52.24609375,-157.71484375
-155.76171875,-38.0859375,-50.29296875,-164.0625
91.30859375,-34.1796875,-42.48046875,-90.8203125
131.34765625,-29.296875,-38.0859375,-47.36328125
-70.80078125,-30.2734375,-42.48046875,-82.03125
-258.30078125,-35.64453125,-44.43359375,-145.5078125
-202.63671875,-36.1328125,-41.50390625,-153.3203125
60.546875,-31.73828125,-36.62109375,-81.0546875
164.55078125,-28.3203125,-35.15625,-37.59765625
-32.2265625,-29.296875,-40.52734375,-76.171875
-233.3984375,-33.203125,-43.9453125,-121.58203125
-196.2890625,-39.0625,-43.9453125,-140.625
30.76171875,-40.0390625,-42.48046875,-101.5625
152.34375,-35.64453125,-36.62109375,-50.78125
-16.11328125,-38.57421875,-35.64453125,-62.5
-247.55859375,-40.52734375,-41.015625,-110.3515625
-241.69921875,-40.52734375,-39.55078125,-123.53515625
4.8828125,-38.0859375,-28.80859375,-84.47265625
168.45703125,-32.71484375,-21.97265625,-45.8984375
40.0390625,-30.76171875,-25.87890625,-52.24609375
-192.3828125,-33.69140625,-35.15625,-97.65625
-220.703125,-35.15625,-38.0859375,-132.32421875
-10.25390625,-34.66796875,-38.0859375,-98.6328125
143.5546875,-31.73828125,-34.1796875,-45.8984375
53.22265625,-31.73828125,-29.78515625,-37.59765625
-180.6640625,-36.1328125,-29.78515625,-90.8203125
-270.99609375,-44.921875,-33.203125,-147.4609375
-64.453125,-41.9921875,-31.73828125,-111.328125
148.4375,-29.78515625,-29.296875,-51.7578125
85.44921875,-31.73828125,-35.64453125,-45.41015625
-145.5078125,-36.62109375,-38.57421875,-98.6328125
-253.41796875,-37.109375,-38.0859375,-147.4609375
-80.078125,-33.69140625,-34.66796875,-100.5859375
141.6015625,-30.2734375,-29.296875,-19.53125
104.98046875,-36.1328125,-28.80859375,-8.30078125
-117.1875,-37.59765625,-30.2734375,-64.453125
-263.671875,-36.62109375,-36.1328125,-136.23046875
-131.8359375,-37.59765625,-34.66796875,-118.65234375
128.41796875,-33.69140625,-25.390625,-40.52734375
133.30078125,-32.2265625,-24.90234375,-17.578125
-104.00390625,-38.0859375,-35.64453125,-68.359375
-272.4609375,-39.55078125,-41.50390625,-143.5546875
-160.15625,-37.59765625,-40.52734375,-137.20703125
99.12109375,-33.203125,-36.62109375,-62.01171875
145.5078125,-28.3203125,-30.2734375,-19.53125
-46.875,-30.76171875,-28.3203125,-45.8984375
-245.60546875,-34.66796875,-31.73828125,-97.16796875
-203.125,-34.1796875,-32.71484375,-102.05078125
48.33984375,-36.62109375,-31.25,-50.78125
136.71875,-41.50390625,-35.15625,-22.94921875
-54.19921875,-41.50390625,-34.66796875,-51.26953125
-253.90625,-39.55078125,-36.1328125,-105.46875
-227.05078125,-40.0390625,-38.0859375,-127.44140625
22.4609375,-38.0859375,-32.2265625,-70.80078125
163.57421875,-30.76171875,-29.296875,-17.08984375
-20.01953125,-34.1796875,-32.71484375,-48.33984375
-262.6953125,-40.0390625,-38.0859375,-106.4453125
-249.51171875,-40.0390625,-36.1328125,-105.95703125
-22.94921875,-38.57421875,-33.203125,-73.2421875
130.859375,-35.64453125,-31.73828125,-25.87890625
20.01953125,-32.71484375,-29.78515625,-20.01953125
-211.9140625,-33.69140625,-38.0859375,-77.63671875
-249.51171875,-39.55078125,-44.921875,-107.91015625
-29.78515625,-34.66796875,-40.0390625,-79.1015625
135.25390625,-27.83203125,-35.15625,-35.15625
38.57421875,-30.2734375,-31.73828125,-41.015625
-194.82421875,-31.25,-33.203125,-84.47265625
-273.4375,-32.71484375,-36.62109375,-112.79296875
-64.453125,-33.203125,-38.0859375,-97.65625
145.01953125,-31.25,-39.55078125,-48.33984375
89.84375,-30.2734375,-35.64453125,-32.71484375
-142.578125,-32.71484375,-39.0625,-79.1015625
-280.76171875,-39.0625,-46.38671875,-127.9296875
-113.28125,-33.69140625,-44.921875,-104.00390625
112.3046875,-24.90234375,-46.875,-52.24609375
84.9609375,-25.87890625,-52.734375,-49.8046875
-140.625,-30.76171875,-53.7109375,-89.84375
-296.38671875,-30.76171875,-54.6875,-130.859375
-148.92578125,-24.4140625,-55.17578125,-112.3046875
96.6796875,-22.4609375,-51.7578125,-63.96484375
104.98046875,-28.3203125,-46.875,-45.41015625
-105.95703125,-30.76171875,-50.78125,-72.75390625
-275.87890625,-37.109375,-58.59375,-119.140625
-171.38671875,-39.55078125,-54.19921875,-107.421875
83.984375,-33.69140625,-50.29296875,-62.5
133.7890625,-34.1796875,-47.36328125,-33.203125
-63.96484375,-34.1796875,-45.8984375,-48.828125
-236.81640625,-31.25,-44.921875,-87.40234375
-169.43359375,-23.92578125,-38.0859375,-93.26171875
59.08203125,-24.4140625,-34.1796875,-62.5
135.25390625,-27.34375,-30.2734375,-38.57421875
-47.8515625,-30.76171875,-30.2734375,-61.03515625
-240.234375,-40.0390625,-39.0625,-101.07421875
-199.21875,-41.50390625,-41.50390625,-116.2109375
33.203125,-36.1328125,-37.59765625,-81.54296875
135.25390625,-30.76171875,-33.69140625,-36.62109375
-17.08984375,-32.71484375,-35.64453125,-55.6640625
-220.703125,-35.15625,-36.62109375,-101.07421875
-231.4453125,-29.296875,-37.109375,-115.234375
-5.37109375,-26.3671875,-45.8984375,-88.37890625
139.16015625,-27.83203125,-42.96875,-41.015625
20.5078125,-28.3203125,-36.1328125,-41.015625
-203.61328125,-31.73828125,-40.52734375,-104.98046875
-240.72265625,-30.76171875,-43.45703125,-136.23046875
-18.06640625,-28.3203125,-42.96875,-96.6796875
145.5078125,-22.4609375,-44.43359375,-59.5703125
55.6640625,-18.06640625,-36.62109375,-52.24609375
-170.8984375,-28.80859375,-41.50390625,-112.3046875
-238.76953125,-40.0390625,-49.31640625,-147.94921875
-39.0625,-42.48046875,-42.48046875,-91.30859375
132.32421875,-37.109375,-35.15625,-36.62109375
55.6640625,-37.109375,-33.203125,-40.52734375
-164.0625,-34.66796875,-37.109375,-80.56640625
-260.25390625,-31.73828125,-40.0390625,-114.2578125
-80.078125,-27.83203125,-40.0390625,-104.98046875
112.79296875,-26.3671875,-45.41015625,-65.4296875
77.63671875,-32.71484375,-46.38671875,-54.19921875
-111.328125,-33.69140625,-41.9921875,-90.33203125
-247.55859375,-36.1328125,-47.36328125,-124.51171875
-124.0234375,-45.8984375,-51.7578125,-110.83984375
104.98046875,-40.0390625,-46.38671875,-64.453125
106.4453125,-32.71484375,-40.52734375,-40.52734375
-96.19140625,-33.203125,-39.0625,-72.75390625
-252.44140625,-33.69140625,-35.15625,-110.3515625
-155.76171875,-31.73828125,-36.1328125,-136.71875
89.84375,-28.80859375,-42.48046875,-112.79296875
127.9296875,-28.3203125,-41.50390625,-59.5703125
-66.40625,-25.390625,-39.55078125,-94.23828125
-248.53515625,-27.83203125,-42.48046875,-191.89453125
-185.546875,-30.2734375,-39.0625,-189.453125
41.9921875,-30.2734375,-38.57421875,-97.16796875
95.21484375,-31.73828125,-35.64453125,-61.5234375
-86.9140625,-31.25,-24.90234375,-85.9375
-275.390625,-40.0390625,-31.25,-123.53515625
-239.2578125,-35.64453125,-36.62109375,-128.41796875
6.8359375,-25.390625,-31.25,-106.93359375
129.8828125,-27.34375,-33.69140625,-72.75390625
-37.109375,-35.15625,-41.015625,-90.8203125
-234.375,-38.0859375,-44.43359375,-118.1640625
-229.98046875,-36.1328125,-40.52734375,-140.13671875
-22.4609375,-37.109375,-35.64453125,-137.6953125
118.65234375,-36.1328125,-36.62109375,-78.61328125
-5.37109375,-36.62109375,-40.52734375,-102.5390625
-217.28515625,-43.45703125,-42.48046875,-192.3828125
-250.0,-40.52734375,-49.8046875,-228.02734375
-41.50390625,-37.59765625,-50.78125,-188.96484375
126.46484375,-32.71484375,-44.921875,-105.95703125
20.5078125,-31.25,-38.57421875,-88.37890625
-207.51953125,-39.55078125,-42.96875,-172.8515625
-269.53125,-42.48046875,-45.8984375,-239.74609375
-67.3828125,-40.52734375,-41.015625,-187.01171875
136.23046875,-32.2265625,-34.66796875,-104.98046875
86.42578125,-30.2734375,-28.80859375,-99.12109375
-132.32421875,-36.62109375,-30.2734375,-172.36328125
-260.25390625,-46.38671875,-34.1796875,-229.4921875
-108.88671875,-48.33984375,-36.62109375,-175.78125
127.44140625,-36.62109375,-32.2265625,-91.796875
98.6328125,-35.64453125,-29.78515625,-78.125
-135.7421875,-40.0390625,-36.1328125,-135.25390625
-283.69140625,-40.52734375,-42.48046875,-198.73046875
-148.4375,-39.55078125,-41.9921875,-190.4296875
94.7265625,-37.59765625,-38.0859375,-120.1171875
87.40234375,-36.62109375,-38.0859375,-72.75390625
-131.34765625,-40.52734375,-40.0390625,-92.7734375
-275.87890625,-45.41015625,-40.0390625,-179.6875
-164.0625,-39.0625,-38.0859375,-196.2890625
70.80078125,-35.15625,-36.1328125,-103.515625
109.86328125,-35.64453125,-34.1796875,-61.03515625
-80.56640625,-36.1328125,-37.109375,-129.39453125
-258.7890625,-48.828125,-41.50390625,-205.56640625
-190.4296875,-50.29296875,-43.9453125,-208.984375
44.921875,-41.9921875,-44.921875,-134.27734375
118.1640625,-38.57421875,-42.48046875,-31.25
-62.01171875,-39.55078125,-41.50390625,-27.34375
-259.765625,-42.96875,-44.921875,-128.41796875
-227.05078125,-42.48046875,-41.9921875,-160.64453125
11.71875,-40.0390625,-30.76171875,-81.0546875
125.9765625,-38.0859375,-25.87890625,-20.5078125
-37.109375,-40.0390625,-28.80859375,-50.29296875
-248.046875,-45.41015625,-34.66796875,-113.76953125
-239.74609375,-40.52734375,-39.55078125,-116.69921875
-20.99609375,-30.76171875,-37.109375,-70.80078125
120.1171875,-21.97265625,-25.390625,-15.625
-7.32421875,-24.4140625,-20.5078125,22.4609375
-235.83984375,-41.015625,-34.1796875,-35.64453125
-269.04296875,-45.8984375,-44.921875,-120.60546875
-57.12890625,-37.109375,-40.0390625,-103.02734375
99.12109375,-34.1796875,-35.15625,-60.05859375
20.5078125,-37.59765625,-38.57421875,-87.40234375
-163.0859375,-40.52734375,-40.52734375,-145.5078125
-229.4921875,-44.43359375,-36.1328125,-158.69140625
-68.359375,-48.33984375,-35.64453125,-130.37109375
109.375,-49.8046875,-36.62109375,-74.21875
69.3359375,-46.38671875,-34.1796875,-57.12890625
-141.6015625,-48.33984375,-36.62109375,-153.3203125
-249.0234375,-50.29296875,-35.15625,-231.4453125
-76.66015625,-45.8984375,-33.69140625,-206.54296875
144.04296875,-40.0390625,-35.64453125,-127.44140625
128.90625,-35.15625,-35.15625,-66.40625
-88.8671875,-38.57421875,-36.1328125,-106.4453125
-244.140625,-45.8984375,-41.9921875,-136.71875
-107.421875,-45.41015625,-41.9921875,-35.15625
120.60546875,-39.0625,-35.15625,44.921875
117.1875,-36.62109375,-36.62109375,0.9765625
-76.66015625,-39.55078125,-41.9921875,-40.52734375
-235.83984375,-43.45703125,-42.96875,-36.62109375
-139.16015625,-42.96875,-41.9921875,-40.52734375
108.88671875,-42.96875,-39.0625,20.01953125
159.66796875,-37.59765625,-31.25,87.40234375
-46.875,-33.203125,-31.73828125,63.96484375
-245.60546875,-40.52734375,-43.9453125,-29.296875
-178.7109375,-41.015625,-52.24609375,-76.66015625
85.44921875,-35.15625,-44.921875,-38.57421875
181.640625,-33.69140625,-37.59765625,33.203125
-13.18359375,-36.62109375,-44.921875,-10.7421875
-215.8203125,-46.875,-48.828125,-147.94921875
-185.05859375,-48.33984375,-43.45703125,-118.1640625
50.29296875,-37.109375,-40.52734375,-19.53125
163.57421875,-38.57421875,-36.1328125,37.59765625
1.953125,-39.0625,-32.71484375,-3.41796875
-220.21484375,-35.64453125,-38.57421875,-59.08203125
-238.28125,-41.50390625,-42.96875,-61.5234375
-11.23046875,-40.52734375,-42.96875,-99.12109375
147.4609375,-32.2265625,-40.0390625,-105.46875
27.34375,-34.1796875,-38.0859375,-132.32421875
-189.94140625,-33.69140625,-42.96875,-219.23828125
-236.81640625,-42.96875,-51.26953125,-281.25
-23.92578125,-45.41015625,-49.31640625,-244.62890625
163.0859375,-30.76171875,-44.921875,-162.59765625
78.61328125,-34.1796875,-45.8984375,-143.5546875
-148.92578125,-36.62109375,-49.31640625,-207.03125
-252.44140625,-35.15625,-51.26953125,-263.18359375
-58.10546875,-30.76171875,-47.8515625,-214.35546875
146.97265625,-27.34375,-41.015625,-124.0234375
79.58984375,-32.2265625,-41.9921875,-120.1171875
-153.3203125,-35.64453125,-45.41015625,-199.21875
-284.66796875,-35.64453125,-38.57421875,-259.765625
-119.62890625,-37.109375,-39.55078125,-228.515625
111.81640625,-39.55078125,-47.8515625,-145.99609375
90.33203125,-38.0859375,-42.48046875,-114.2578125
-129.39453125,-37.59765625,-40.0390625,-174.31640625
-277.83203125,-41.015625,-45.8984375,-248.53515625
-141.6015625,-39.55078125,-45.41015625,-234.375
101.5625,-33.69140625,-39.55078125,-164.0625
116.2109375,-31.73828125,-38.57421875,-124.0234375
-108.3984375,-34.66796875,-40.0390625,-173.828125
-291.015625,-36.1328125,-47.36328125,-256.34765625
-181.15234375,-33.69140625,-47.8515625,-248.046875
85.44921875,-30.76171875,-39.0625,-156.73828125
139.6484375,-26.85546875,-38.57421875,-87.40234375
-61.5234375,-28.3203125,-43.45703125,-123.53515625
-244.140625,-38.0859375,-48.33984375,-205.078125
-183.10546875,-41.9921875,-47.36328125,-223.14453125
54.6875,-39.0625,-41.9921875,-141.11328125
142.08984375,-33.203125,-37.59765625,-71.2890625
-54.19921875,-29.78515625,-40.52734375,-110.83984375
-256.34765625,-36.1328125,-47.36328125,-84.9609375
-214.35546875,-40.0390625,-46.875,8.7890625
22.4609375,-31.73828125,-41.9921875,75.1953125
152.34375,-28.80859375,-36.62109375,112.3046875
-13.671875,-36.1328125,-31.73828125,86.9140625
-260.7421875,-43.9453125,-37.109375,-17.08984375
-284.1796875,-53.7109375,-45.8984375,-131.8359375
-36.1328125,-55.17578125,-42.96875,-134.765625
128.41796875,-50.29296875,-39.55078125,-89.84375
-4.8828125,-49.31640625,-42.48046875,-113.28125
-230.46875,-47.36328125,-45.8984375,-210.44921875
-278.80859375,-48.33984375,-46.38671875,-259.765625
-62.5,-52.24609375,-45.8984375,-202.63671875
140.625,-46.875,-48.33984375,-129.39453125
65.91796875,-42.48046875,-46.875,-117.67578125
-154.296875,-46.38671875,-45.41015625,-176.7578125
-244.140625,-42.96875,-50.78125,-229.4921875
-47.36328125,-36.62109375,-49.31640625,-183.10546875
149.90234375,-40.52734375,-41.015625,-92.28515625
71.2890625,-44.921875,-38.57421875,-91.796875
-145.01953125,-45.8984375,-41.50390625,-136.71875
-253.41796875,-46.875,-40.0390625,-63.4765625
-73.2421875,-39.0625,-33.69140625,-24.90234375
145.99609375,-36.1328125,-32.2265625,30.76171875
93.75,-39.0625,-32.71484375,161.62109375
-118.65234375,-41.9921875,-33.203125,154.296875
-250.48828125,-42.48046875,-38.57421875,100.5859375
-122.0703125,-45.8984375,-42.96875,93.75
125.9765625,-40.52734375,-40.0390625,66.40625
144.53125,-34.1796875,-35.64453125,41.015625
-82.03125,-35.64453125,-38.57421875,-23.4375
-258.7890625,-34.66796875,-46.875,-149.4140625
-170.8984375,-39.55078125,-48.828125,-201.171875
80.56640625,-40.0390625,-41.50390625,-157.2265625
123.046875,-35.64453125,-32.2265625,-123.046875
-80.56640625,-40.0390625,-32.71484375,-159.66796875
-256.8359375,-42.48046875,-42.96875,-192.87109375
-205.078125,-40.0390625,-49.31640625,-170.41015625
57.12890625,-32.71484375,-44.921875,-29.78515625
149.4140625,-29.296875,-44.43359375,93.26171875
-46.875,-33.69140625,-43.9453125,37.59765625
-246.09375,-40.52734375,-44.43359375,-96.19140625
-216.796875,-42.48046875,-50.29296875,-187.01171875
7.8125,-40.52734375,-46.875,-209.47265625
134.27734375,-42.96875,-37.59765625,-175.78125
4.39453125,-45.41015625,-38.0859375,-207.03125
-203.61328125,-45.41015625,-42.96875,-288.0859375
-220.703125,-44.921875,-43.45703125,-187.98828125
-5.859375,-44.921875,-40.52734375,29.296875
144.04296875,-41.50390625,-35.64453125,118.1640625
17.578125,-39.55078125,-32.2265625,107.91015625
-219.7265625,-42.48046875,-34.66796875,79.1015625
-265.13671875,-46.38671875,-41.015625,54.6875
-48.33984375,-48.828125,-42.48046875,66.40625
116.69921875,-44.921875,-39.55078125,103.02734375
23.4375,-41.50390625,-42.48046875,98.14453125
-176.7578125,-42.48046875,-40.52734375,47.36328125
-258.7890625,-43.9453125,-40.0390625,13.18359375
-99.12109375,-46.38671875,-43.9453125,18.06640625
97.16796875,-48.33984375,-43.45703125,50.29296875
61.5234375,-44.43359375,-43.45703125,70.3125
-152.34375,-47.36328125,-48.828125,21.484375
-272.4609375,-47.8515625,-50.29296875,-38.57421875
-100.5859375,-37.109375,-47.8515625,-33.203125
135.25390625,-36.62109375,-42.96875,-1.953125
104.98046875,-37.109375,-34.1796875,-10.7421875
-129.39453125,-46.875,-42.48046875,-70.3125
-266.11328125,-58.10546875,-52.734375,-130.859375
-110.83984375,-47.8515625,-45.8984375,-236.81640625
132.32421875,-44.921875,-41.50390625,-257.32421875
145.5078125,-45.8984375,-41.9921875,-132.32421875
-68.359375,-41.9921875,-40.0390625,-52.734375
-260.25390625,-41.50390625,-41.015625,-116.2109375
-162.59765625,-41.50390625,-42.48046875,-146.97265625
83.984375,-40.0390625,-40.0390625,-117.67578125
126.46484375,-39.0625,-41.50390625,-127.44140625
-66.89453125,-39.0625,-41.50390625,-222.16796875
