TP9,AF7,AF8,TP10
-1000.0,-69.3359375,-57.12890625,-175.29296875
-792.48046875,-62.5,-53.22265625,-190.91796875
441.89453125,-49.8046875,-40.0390625,-24.4140625
999.51171875,-41.015625,-28.3203125,97.16796875
205.56640625,-53.22265625,-32.2265625,28.3203125
-1000.0,-64.453125,-52.734375,-167.48046875
-928.7109375,-68.359375,-65.4296875,-236.81640625
241.69921875,-50.29296875,-39.0625,-65.91796875
999.51171875,-27.83203125,-22.94921875,93.26171875
342.7734375,-44.43359375,-37.59765625,62.98828125
-941.89453125,-67.3828125,-50.29296875,-123.53515625
-1000.0,-61.5234375,-53.22265625,-234.375
87.890625,-32.71484375,-32.2265625,-74.21875
999.51171875,-15.625,-11.71875,94.23828125
507.32421875,-30.2734375,-24.4140625,74.21875
-790.52734375,-54.6875,-43.45703125,-97.65625
-1000.0,-68.84765625,-55.17578125,-218.75
-38.57421875,-46.38671875,-46.875,-104.00390625
999.51171875,-21.484375,-33.203125,70.3125
604.00390625,-40.0390625,-31.73828125,98.14453125
-655.2734375,-49.31640625,-30.2734375,-54.6875
-1000.0,-54.6875,-46.38671875,-190.91796875
-149.90234375,-45.8984375,-42.96875,-96.19140625
999.51171875,-6.8359375,-17.08984375,62.01171875
801.26953125,-6.8359375,-16.11328125,99.609375
-393.06640625,-41.9921875,-39.55078125,-42.96875
-1000.0,-58.10546875,-49.8046875,-187.01171875
-254.39453125,-40.52734375,-45.41015625,-92.7734375
998.046875,-13.671875,-28.3203125,89.84375
940.91796875,-10.7421875,-20.5078125,167.48046875
-177.734375,-38.0859375,-32.2265625,19.53125
-1000.0,-67.87109375,-44.921875,-167.96875
-402.34375,-54.19921875,-45.41015625,-95.21484375
909.1796875,-24.4140625,-30.76171875,108.3984375
999.51171875,-34.66796875,-27.34375,149.90234375
-90.33203125,-42.48046875,-20.5078125,5.37109375
-1000.0,-46.875,-33.203125,-178.7109375
-567.87109375,-56.640625,-55.6640625,-187.5
745.1171875,-29.296875,-36.1328125,-19.53125
999.51171875,-21.484375,-31.25,115.72265625
28.3203125,-44.921875,-43.9453125,53.22265625
-1000.0,-59.5703125,-58.10546875,-160.15625
-738.76953125,-63.4765625,-62.5,-207.03125
530.2734375,-30.76171875,-32.2265625,-25.87890625
999.51171875,-14.6484375,-21.97265625,91.796875
136.71875,-50.29296875,-43.9453125,2.44140625
-1000.0,-69.82421875,-59.08203125,-171.38671875
-870.60546875,-70.3125,-61.03515625,-215.33203125
325.1953125,-50.29296875,-49.31640625,-41.50390625
999.51171875,-34.66796875,-34.66796875,114.74609375
272.4609375,-45.8984375,-33.203125,43.45703125
-1000.0,-64.453125,-45.41015625,-143.5546875
-977.05078125,-69.3359375,-54.19921875,-208.49609375
152.83203125,-39.0625,-38.57421875,-66.89453125
999.51171875,-17.08984375,-24.4140625,114.2578125
399.4140625,-50.78125,-37.59765625,83.984375
-893.5546875,-76.171875,-51.7578125,-110.83984375
-1000.0,-69.3359375,-56.15234375,-199.70703125
-10.25390625,-65.4296875,-56.640625,-80.078125
999.51171875,-59.5703125,-47.36328125,68.359375
577.1484375,-49.8046875,-33.69140625,85.9375
-703.61328125,-60.05859375,-40.52734375,-73.73046875
-1000.0,-73.2421875,-53.22265625,-217.28515625
-100.5859375,-51.26953125,-46.875,-100.5859375
999.51171875,-24.4140625,-25.87890625,83.49609375
751.46484375,-27.34375,-24.90234375,110.83984375
-478.515625,-57.6171875,-45.41015625,-49.31640625
-1000.0,-81.0546875,-59.08203125,-223.14453125
-194.82421875,-52.24609375,-50.78125,-116.2109375
999.51171875,-22.4609375,-26.3671875,77.63671875
863.76953125,-28.80859375,-18.06640625,112.3046875
-295.8984375,-55.6640625,-36.62109375,-16.11328125
-1000.0,-70.80078125,-52.734375,-182.12890625
-319.82421875,-49.8046875,-50.78125,-145.99609375
963.8671875,-14.6484375,-34.1796875,22.4609375
967.28515625,-17.08984375,-34.1796875,99.12109375
-138.18359375,-41.015625,-49.8046875,-18.06640625
-1000.0,-42.48046875,-53.22265625,-197.265625
-467.28515625,-33.69140625,-49.8046875,-152.34375
846.19140625,-19.53125,-39.0625,42.96875
999.51171875,-11.71875,-35.64453125,141.11328125
-40.0390625,-35.64453125,-47.8515625,23.4375
-1000.0,-57.12890625,-57.6171875,-188.4765625
-619.62890625,-38.57421875,-54.6875,-171.875
666.015625,-17.08984375,-39.55078125,30.2734375
999.51171875,-23.92578125,-29.78515625,151.85546875
84.9609375,-45.8984375,-41.015625,50.29296875
-1000.0,-65.91796875,-57.6171875,-155.2734375
-795.8984375,-57.12890625,-58.59375,-182.12890625
436.5234375,-16.6015625,-42.96875,5.37109375
999.51171875,-6.8359375,-34.1796875,198.2421875
201.66015625,-43.9453125,-43.45703125,127.44140625
-1000.0,-63.96484375,-58.10546875,-137.20703125
-939.453125,-53.7109375,-57.12890625,-203.61328125
213.37890625,-36.62109375,-44.921875,-15.625
999.51171875,-24.90234375,-27.83203125,125.0
314.453125,-42.96875,-21.97265625,60.05859375
-961.42578125,-68.84765625,-48.828125,-129.39453125
-1000.0,-66.89453125,-66.89453125,-208.49609375
59.08203125,-41.9921875,-50.78125,14.16015625
999.51171875,-28.80859375,-33.203125,209.9609375
496.58203125,-44.921875,-33.69140625,135.25390625
-791.50390625,-65.91796875,-47.36328125,-77.1484375
-1000.0,-72.75390625,-58.10546875,-221.6796875
-65.91796875,-53.7109375,-50.78125,-129.39453125
999.51171875,-37.109375,-35.64453125,56.640625
655.2734375,-41.015625,-35.15625,60.05859375
-601.07421875,-57.12890625,-44.921875,-104.98046875
-1000.0,-70.3125,-59.08203125,-230.95703125
-147.94921875,-52.24609375,-54.19921875,-136.23046875
999.51171875,-26.3671875,-29.78515625,46.38671875
780.76171875,-33.69140625,-26.3671875,64.453125
-420.41015625,-63.4765625,-43.45703125,-83.0078125
-1000.0,-66.40625,-54.6875,-210.9375
-247.55859375,-37.59765625,-47.36328125,-135.7421875
999.51171875,-24.4140625,-30.76171875,81.0546875
873.046875,-59.08203125,-41.50390625,155.2734375
-270.01953125,-84.9609375,-53.7109375,-31.25
-1000.0,-71.77734375,-50.78125,-197.75390625
-387.6953125,-55.17578125,-49.8046875,-119.62890625
918.45703125,-33.203125,-33.203125,150.390625
990.72265625,-23.4375,-24.90234375,291.50390625
-118.65234375,-41.50390625,-40.52734375,67.87109375
-1000.0,-62.98828125,-58.10546875,-207.51953125
-562.5,-57.6171875,-57.6171875,-205.56640625
763.671875,-21.484375,-36.62109375,28.3203125
999.51171875,-13.18359375,-27.83203125,139.6484375
-72.265625,-51.7578125,-42.96875,-13.18359375
-1000.0,-64.453125,-52.734375,-210.9375
-724.12109375,-57.6171875,-55.17578125,-240.72265625
539.0625,-39.55078125,-37.109375,-48.828125
999.51171875,-41.015625,-36.1328125,57.12890625
96.6796875,-68.84765625,-56.640625,-48.33984375
-1000.0,-69.3359375,-48.828125,-179.19921875
-858.3984375,-57.12890625,-47.8515625,-194.82421875
323.73046875,-36.1328125,-46.875,-63.96484375
999.51171875,-25.87890625,-32.71484375,65.4296875
289.0625,-33.69140625,-31.25,6.34765625
-996.09375,-58.10546875,-47.36328125,-193.84765625
-976.07421875,-84.9609375,-67.3828125,-269.04296875
174.31640625,-58.59375,-53.22265625,-78.125
999.51171875,-27.83203125,-28.80859375,78.125
424.8046875,-40.0390625,-33.203125,13.18359375
-873.53515625,-59.5703125,-48.33984375,-158.203125
-1000.0,-65.4296875,-49.8046875,-229.00390625
49.8046875,-45.8984375,-40.0390625,-94.23828125
999.51171875,-39.0625,-29.296875,61.5234375
550.29296875,-50.78125,-22.4609375,69.82421875
-747.55859375,-57.12890625,-35.64453125,-87.890625
-1000.0,-57.6171875,-43.45703125,-185.546875
-23.4375,-58.10546875,-39.0625,-45.41015625
999.51171875,-52.734375,-34.1796875,170.8984375
694.82421875,-44.43359375,-28.80859375,187.5
-540.0390625,-67.87109375,-39.0625,-35.15625
-1000.0,-73.73046875,-46.38671875,-188.4765625
-170.41015625,-47.8515625,-39.0625,-71.2890625
999.51171875,-32.71484375,-23.4375,136.23046875
851.07421875,-33.203125,-25.87890625,173.828125
-297.36328125,-48.33984375,-39.55078125,-21.484375
-1000.0,-67.87109375,-46.875,-216.30859375
-304.6875,-50.29296875,-46.38671875,-149.90234375
978.515625,-9.27734375,-25.87890625,53.7109375
941.89453125,-19.53125,-22.94921875,104.4921875
-172.8515625,-55.17578125,-36.1328125,-42.96875
-1000.0,-65.4296875,-40.0390625,-203.61328125
-442.3828125,-53.22265625,-37.109375,-106.93359375
851.07421875,-25.390625,-25.87890625,70.3125
999.51171875,-19.53125,-18.5546875,87.890625
-24.4140625,-37.59765625,-30.2734375,-18.06640625
-1000.0,-62.01171875,-50.29296875,-207.03125
-642.08984375,-73.73046875,-62.01171875,-220.703125
645.99609375,-35.64453125,-46.38671875,-46.875
999.51171875,-17.578125,-35.15625,55.6640625
91.30859375,-43.9453125,-46.38671875,-29.296875
-1000.0,-57.6171875,-54.6875,-200.1953125
-805.17578125,-55.6640625,-54.19921875,-223.6328125
429.6875,-28.80859375,-38.0859375,-38.57421875
999.51171875,-26.3671875,-37.59765625,91.796875
187.01171875,-66.40625,-62.01171875,-10.25390625
-1000.0,-65.4296875,-64.453125,-185.05859375
-914.0625,-46.875,-62.98828125,-230.46875
238.76953125,-31.25,-57.6171875,-78.125
999.51171875,-21.484375,-51.26953125,68.84765625
318.359375,-38.0859375,-59.08203125,20.99609375
-960.9375,-57.6171875,-69.82421875,-147.94921875
-1000.0,-47.36328125,-71.2890625,-230.46875
101.07421875,-27.34375,-66.40625,-115.234375
999.51171875,-21.484375,-49.31640625,43.45703125
507.8125,-34.1796875,-51.7578125,57.12890625
-793.9453125,-62.01171875,-71.77734375,-111.81640625
-1000.0,-63.4765625,-69.82421875,-222.65625
-26.85546875,-39.55078125,-57.6171875,15.625
999.51171875,-26.3671875,-50.78125,232.421875
626.46484375,-49.8046875,-61.03515625,132.32421875
-627.9296875,-68.359375,-68.84765625,-82.03125
-1000.0,-63.4765625,-63.96484375,-218.26171875
-126.46484375,-46.38671875,-47.36328125,-90.8203125
999.51171875,-24.4140625,-30.76171875,104.98046875
796.875,-29.78515625,-31.25,104.00390625
-380.37109375,-54.6875,-40.0390625,-65.4296875
-1000.0,-68.359375,-50.29296875,-215.8203125
-258.7890625,-50.78125,-46.875,-117.67578125
999.51171875,-20.99609375,-29.296875,99.609375
901.3671875,-14.16015625,-21.97265625,176.7578125
-228.515625,-57.12890625,-53.22265625,13.18359375
-1000.0,-93.26171875,-73.2421875,-211.9140625
-381.34765625,-52.734375,-46.38671875,-91.796875
919.43359375,-15.625,-25.87890625,182.12890625
999.51171875,-20.01953125,-19.53125,144.53125
-65.91796875,-38.57421875,-28.3203125,-20.5078125
-1000.0,-54.19921875,-40.52734375,-178.7109375
-577.1484375,-53.22265625,-42.96875,-174.31640625
719.23828125,-39.55078125,-39.0625,-7.32421875
999.51171875,-30.76171875,-26.85546875,121.09375
89.35546875,-34.66796875,-28.80859375,46.875
-1000.0,-52.734375,-45.41015625,-166.50390625
-704.58984375,-46.875,-40.0390625,-150.390625
556.15234375,-18.5546875,-31.73828125,40.0390625
999.51171875,-10.25390625,-29.296875,132.32421875
189.94140625,-37.109375,-40.0390625,96.19140625
-1000.0,-54.19921875,-54.19921875,-90.33203125
-899.4140625,-44.921875,-54.19921875,-163.57421875
289.0625,-24.90234375,-40.0390625,26.85546875
999.51171875,-21.97265625,-37.109375,151.3671875
312.01171875,-47.36328125,-47.36328125,51.7578125
-970.21484375,-60.546875,-44.921875,-146.484375
-1000.0,-56.640625,-47.8515625,-247.0703125
118.65234375,-34.1796875,-45.8984375,-105.95703125
999.51171875,-13.18359375,-35.64453125,50.29296875
461.42578125,-28.80859375,-39.0625,35.15625
-837.890625,-49.8046875,-52.24609375,-135.25390625
-1000.0,-49.8046875,-57.6171875,-249.51171875
-0.48828125,-32.71484375,-44.921875,-107.91015625
999.51171875,-11.71875,-26.85546875,92.28515625
639.6484375,-24.4140625,-23.92578125,100.09765625
-629.8828125,-65.91796875,-45.8984375,-72.265625
-1000.0,-82.51953125,-60.05859375,-196.2890625
-104.00390625,-53.7109375,-44.43359375,-84.9609375
999.51171875,-29.78515625,-28.80859375,83.984375
774.90234375,-32.2265625,-26.85546875,91.796875
-421.875,-48.828125,-34.66796875,-60.546875
-1000.0,-63.96484375,-44.43359375,-177.734375
-238.76953125,-53.22265625,-43.45703125,-108.3984375
999.51171875,-28.3203125,-31.25,65.4296875
873.046875,-26.85546875,-23.92578125,131.8359375
-277.83203125,-49.8046875,-34.1796875,-21.484375
-1000.0,-71.2890625,-50.29296875,-184.08203125
-352.5390625,-60.546875,-44.921875,-96.6796875
944.3359375,-30.76171875,-23.92578125,132.32421875
982.421875,-34.1796875,-23.92578125,190.4296875
-111.81640625,-58.59375,-39.55078125,25.390625
-1000.0,-76.171875,-45.41015625,-133.7890625
-494.140625,-62.5,-38.0859375,-48.828125
815.4296875,-32.71484375,-22.4609375,182.12890625
999.51171875,-24.90234375,-20.5078125,212.40234375
20.5078125,-47.36328125,-33.69140625,80.078125
-1000.0,-67.87109375,-42.96875,-125.9765625
-646.97265625,-52.734375,-40.0390625,-152.34375
630.37109375,-36.1328125,-26.3671875,55.17578125
999.51171875,-40.52734375,-22.4609375,180.17578125
124.51171875,-57.12890625,-28.3203125,69.3359375
-1000.0,-71.77734375,-40.0390625,-130.37109375
-817.3828125,-61.03515625,-47.36328125,-180.17578125
399.90234375,-30.76171875,-33.203125,-10.25390625
999.51171875,-28.3203125,-22.4609375,99.609375
273.92578125,-49.8046875,-32.71484375,15.625
-1000.0,-59.5703125,-43.9453125,-166.50390625
-950.1953125,-61.5234375,-47.8515625,-224.12109375
217.28515625,-40.0390625,-39.0625,-33.203125
999.51171875,-11.71875,-24.90234375,148.92578125
391.6015625,-29.296875,-29.296875,123.53515625
-899.90234375,-65.91796875,-48.33984375,-86.9140625
-1000.0,-62.98828125,-52.734375,-207.03125
21.484375,-41.015625,-36.1328125,-26.3671875
999.51171875,-32.2265625,-24.4140625,159.1796875
536.62109375,-46.875,-33.203125,95.21484375
-756.8359375,-67.3828125,-45.41015625,-114.2578125
-1000.0,-76.171875,-49.8046875,-236.81640625
-74.70703125,-47.36328125,-38.57421875,-92.28515625
999.51171875,-20.99609375,-26.3671875,119.62890625
677.24609375,-40.0390625,-36.62109375,128.41796875
-560.546875,-57.6171875,-50.29296875,-37.59765625
-1000.0,-70.80078125,-56.15234375,-185.546875
-229.00390625,-64.453125,-55.6640625,-113.28125
999.51171875,-30.2734375,-41.9921875,87.40234375
845.21484375,-33.69140625,-40.0390625,110.3515625
-331.0546875,-58.10546875,-47.36328125,-61.5234375
-1000.0,-61.5234375,-50.29296875,-214.84375
-298.33984375,-45.8984375,-49.8046875,-140.625
977.5390625,-20.5078125,-41.9921875,56.640625
958.49609375,-13.671875,-41.50390625,104.4921875
-147.94921875,-39.55078125,-51.7578125,-30.76171875
-1000.0,-56.15234375,-60.05859375,-187.98828125
-404.78515625,-34.66796875,-53.7109375,-95.21484375
887.6953125,-6.8359375,-32.2265625,96.6796875
999.51171875,-20.01953125,-28.80859375,176.7578125
9.27734375,-48.33984375,-44.921875,106.4453125
-1000.0,-62.01171875,-52.734375,-136.71875
-634.27734375,-54.6875,-51.7578125,-187.98828125
666.015625,-30.76171875,-42.96875,-15.13671875
999.51171875,-18.5546875,-32.71484375,91.30859375
73.73046875,-36.62109375,-39.55078125,-19.04296875
-1000.0,-55.17578125,-51.7578125,-188.96484375
-768.06640625,-53.22265625,-50.29296875,-184.5703125
473.6328125,-34.66796875,-37.109375,-29.78515625
999.51171875,-10.25390625,-22.94921875,77.1484375
207.03125,-31.25,-35.15625,6.34765625
-1000.0,-64.94140625,-47.8515625,-188.4765625
-921.875,-63.96484375,-52.734375,-234.375
243.1640625,-40.52734375,-46.38671875,-76.171875
999.51171875,-22.94921875,-24.4140625,119.62890625
315.91796875,-44.921875,-28.80859375,81.54296875
-970.703125,-71.77734375,-44.921875,-147.94921875
-1000.0,-76.66015625,-48.828125,-217.28515625
113.76953125,-58.10546875,-40.0390625,-62.01171875
999.51171875,-38.57421875,-29.296875,88.8671875
477.5390625,-44.43359375,-35.64453125,50.78125
-814.94140625,-56.15234375,-48.828125,-156.25
-1000.0,-67.87109375,-59.5703125,-272.4609375
-69.3359375,-59.08203125,-60.05859375,-136.71875
999.51171875,-41.9921875,-44.921875,27.83203125
628.41796875,-52.24609375,-45.8984375,26.85546875
-637.20703125,-69.82421875,-55.6640625,-137.6953125
-1000.0,-73.73046875,-58.59375,-277.83203125
-184.08203125,-61.5234375,-53.7109375,-162.59765625
999.51171875,-46.38671875,-42.96875,10.7421875
734.375,-52.24609375,-44.921875,24.4140625
-493.65234375,-72.75390625,-57.6171875,-106.4453125
-1000.0,-77.63671875,-69.82421875,-237.79296875
-232.91015625,-53.7109375,-66.89453125,-148.4375
999.51171875,-34.1796875,-47.36328125,28.3203125
864.2578125,-52.734375,-48.33984375,53.22265625
-272.94921875,-73.73046875,-58.59375,-58.10546875
-1000.0,-79.58984375,-61.03515625,-213.37890625
-366.69921875,-65.91796875,-56.640625,-180.6640625
933.59375,-35.15625,-38.57421875,8.7890625
989.2578125,-31.73828125,-33.203125,78.61328125
-108.88671875,-52.734375,-44.43359375,-15.13671875
-1000.0,-63.4765625,-50.29296875,-177.734375
-543.9453125,-58.10546875,-43.45703125,-144.04296875
760.25390625,-34.66796875,-31.73828125,41.9921875
999.51171875,-18.06640625,-26.85546875,112.3046875
33.203125,-42.96875,-35.15625,21.484375
-1000.0,-72.75390625,-47.8515625,-162.109375
-694.3359375,-63.4765625,-54.19921875,-182.6171875
578.61328125,-37.109375,-44.43359375,-15.625
999.51171875,-25.390625,-29.78515625,125.0
135.25390625,-46.38671875,-33.69140625,86.42578125
-1000.0,-62.98828125,-44.43359375,-95.21484375
-849.12109375,-51.26953125,-55.6640625,-174.31640625
367.67578125,-23.92578125,-47.8515625,-42.48046875
999.51171875,-16.11328125,-28.3203125,92.28515625
256.34765625,-41.50390625,-39.55078125,36.1328125
-1000.0,-48.33984375,-51.7578125,-158.203125
-951.66015625,-44.921875,-48.828125,-203.61328125
187.01171875,-39.55078125,-41.015625,-32.2265625
999.51171875,-22.94921875,-30.2734375,95.21484375
392.578125,-35.64453125,-37.109375,47.8515625
-898.4375,-53.7109375,-49.31640625,-133.30078125
-1000.0,-54.19921875,-57.6171875,-228.02734375
17.08984375,-40.52734375,-49.8046875,-103.02734375
999.51171875,-18.06640625,-31.25,80.078125
547.8515625,-28.3203125,-34.1796875,86.42578125
-741.69921875,-60.546875,-50.29296875,-101.5625
-1000.0,-64.94140625,-57.12890625,-226.5625
-51.26953125,-35.15625,-43.45703125,-102.05078125
999.51171875,-22.94921875,-33.69140625,154.78515625
659.1796875,-46.38671875,-39.55078125,176.26953125
-580.56640625,-60.05859375,-49.31640625,-59.5703125
-1000.0,-63.96484375,-49.31640625,-219.23828125
-191.40625,-47.8515625,-46.38671875,-104.4921875
999.51171875,-20.5078125,-34.66796875,141.6015625
833.984375,-25.87890625,-26.85546875,148.92578125
-328.61328125,-54.19921875,-41.015625,-42.96875
-1000.0,-66.89453125,-49.8046875,-207.03125
-302.734375,-49.31640625,-47.8515625,-153.3203125
971.19140625,-25.390625,-39.55078125,16.11328125
974.12109375,-11.23046875,-35.15625,83.0078125
-131.34765625,-34.66796875,-48.33984375,-40.0390625
-1000.0,-66.40625,-59.5703125,-203.125
-431.640625,-56.15234375,-57.12890625,-135.7421875
861.328125,-30.2734375,-44.43359375,11.71875
999.51171875,-28.3203125,-36.1328125,76.171875
12.6953125,-43.45703125,-43.9453125,-0.48828125
-1000.0,-61.5234375,-58.10546875,-192.3828125
-658.203125,-62.98828125,-61.5234375,-194.3359375
635.7421875,-39.55078125,-41.50390625,8.7890625
999.51171875,-24.90234375,-32.2265625,116.2109375
76.171875,-40.52734375,-42.96875,10.7421875
-1000.0,-53.22265625,-46.875,-174.8046875
-815.4296875,-51.7578125,-49.31640625,-212.890625
414.0625,-41.50390625,-41.9921875,-31.25
999.51171875,-29.296875,-26.3671875,115.72265625
216.796875,-44.921875,-34.66796875,40.0390625
-1000.0,-60.546875,-51.7578125,-147.4609375
-910.15625,-56.640625,-50.78125,-208.0078125
268.5546875,-30.76171875,-36.62109375,-17.08984375
999.51171875,-18.06640625,-26.3671875,165.0390625
352.05078125,-22.4609375,-26.85546875,87.890625
-950.68359375,-47.8515625,-39.55078125,-145.01953125
-1000.0,-62.5,-53.22265625,-232.91015625
126.46484375,-30.76171875,-48.33984375,-69.82421875
999.51171875,-15.625,-35.15625,129.39453125
495.1171875,-43.9453125,-41.015625,118.1640625
-793.45703125,-71.77734375,-56.640625,-101.5625
-1000.0,-68.359375,-62.01171875,-196.2890625
-56.640625,-42.96875,-50.29296875,-81.0546875
999.51171875,-25.87890625,-31.25,60.546875
645.99609375,-32.71484375,-27.34375,87.890625
-611.328125,-51.7578125,-36.62109375,-72.75390625
-1000.0,-51.7578125,-45.41015625,-205.56640625
-141.11328125,-34.66796875,-45.8984375,-90.33203125
999.51171875,-20.01953125,-34.1796875,113.28125
829.1015625,-20.01953125,-28.3203125,179.6875
-348.6328125,-38.57421875,-37.59765625,37.59765625
-1000.0,-61.03515625,-49.8046875,-80.56640625
-256.34765625,-54.6875,-45.41015625,16.11328125
999.51171875,-30.2734375,-29.78515625,147.4609375
929.6875,-27.83203125,-26.85546875,161.1328125
-200.68359375,-44.921875,-36.62109375,-10.25390625
-1000.0,-60.05859375,-48.33984375,-172.8515625
-360.3515625,-51.7578125,-45.41015625,-30.76171875
925.29296875,-30.2734375,-32.2265625,186.03515625
999.51171875,-21.484375,-29.296875,205.078125
-47.36328125,-41.9921875,-32.71484375,50.29296875
-1000.0,-50.78125,-37.109375,-131.8359375
-573.2421875,-38.0859375,-41.9921875,-119.62890625
739.74609375,-27.83203125,-33.203125,48.828125
999.51171875,-19.04296875,-22.4609375,159.1796875
-0.48828125,-43.9453125,-30.2734375,48.828125
-1000.0,-61.5234375,-40.52734375,-121.09375
-690.4296875,-48.33984375,-39.0625,-90.33203125
562.98828125,-29.78515625,-32.2265625,49.8046875
999.51171875,-23.92578125,-24.4140625,145.5078125
167.48046875,-40.52734375,-29.296875,49.8046875
-1000.0,-62.01171875,-38.57421875,-158.69140625
-833.49609375,-60.546875,-38.57421875,-177.24609375
378.90625,-35.15625,-31.73828125,-2.44140625
999.51171875,-24.4140625,-20.5078125,140.13671875
290.52734375,-50.29296875,-26.3671875,78.125
-994.62890625,-64.453125,-37.109375,-110.3515625
-944.82421875,-55.17578125,-38.57421875,-140.13671875
199.70703125,-32.71484375,-20.5078125,10.7421875
999.51171875,-19.04296875,-9.765625,132.32421875
419.43359375,-45.41015625,-24.90234375,83.49609375
-875.0,-66.89453125,-34.66796875,-113.28125
-1000.0,-64.94140625,-41.9921875,-193.359375
31.73828125,-39.55078125,-37.59765625,-43.45703125
999.51171875,-16.11328125,-24.4140625,208.49609375
591.30859375,-20.99609375,-20.01953125,219.7265625
-684.5703125,-40.52734375,-24.90234375,-59.08203125
-1000.0,-59.5703125,-42.48046875,-177.24609375
-86.42578125,-45.8984375,-44.921875,-79.58984375
999.51171875,-26.3671875,-36.1328125,70.3125
730.46875,-36.62109375,-38.0859375,86.9140625
-489.74609375,-52.734375,-48.33984375,-93.75
-1000.0,-66.40625,-56.640625,-238.76953125
-164.55078125,-47.36328125,-46.875,-154.296875
999.51171875,-17.578125,-28.3203125,51.7578125
830.078125,-37.109375,-25.390625,113.76953125
-333.49609375,-67.87109375,-45.8984375,-65.4296875
-1000.0,-62.01171875,-62.98828125,-231.93359375
-338.8671875,-52.734375,-59.08203125,-167.96875
955.078125,-40.0390625,-42.96875,12.20703125
958.984375,-31.25,-37.59765625,98.14453125
-157.71484375,-53.22265625,-47.36328125,-20.99609375
-1000.0,-66.89453125,-54.19921875,-210.9375
-450.68359375,-43.45703125,-49.31640625,-173.33984375
837.890625,-18.5546875,-41.9921875,9.27734375
999.51171875,-19.53125,-42.48046875,103.02734375
19.53125,-39.0625,-52.734375,4.39453125
-1000.0,-58.59375,-61.5234375,-171.38671875
-636.23046875,-46.875,-57.6171875,-178.7109375
655.76171875,-14.16015625,-46.875,2.44140625
999.51171875,-8.30078125,-41.50390625,169.43359375
91.30859375,-43.9453125,-53.7109375,79.58984375
-1000.0,-66.89453125,-62.01171875,-139.6484375
-777.83203125,-53.22265625,-55.17578125,-188.4765625
456.0546875,-36.1328125,-43.45703125,-6.34765625
999.51171875,-29.296875,-40.52734375,129.39453125
264.6484375,-38.0859375,-41.015625,91.796875
-1000.0,-53.22265625,-45.41015625,-66.89453125
-919.43359375,-54.6875,-53.22265625,-134.27734375
249.0234375,-35.64453125,-44.43359375,8.30078125
999.51171875,-18.5546875,-33.203125,143.06640625
372.55859375,-28.3203125,-40.0390625,115.234375
-933.59375,-55.17578125,-49.31640625,-92.7734375
-1000.0,-65.4296875,-59.5703125,-202.1484375
100.09765625,-29.296875,-43.9453125,-47.36328125
999.51171875,-5.859375,-22.4609375,135.7421875
520.5078125,-33.69140625,-40.0390625,102.5390625
-768.5546875,-57.12890625,-52.24609375,-79.1015625
-1000.0,-66.40625,-50.78125,-187.01171875
-26.85546875,-41.50390625,-43.45703125,-73.2421875
999.51171875,-22.4609375,-36.62109375,76.66015625
669.921875,-38.57421875,-34.66796875,58.10546875
-581.54296875,-56.640625,-43.45703125,-79.1015625
-1000.0,-66.40625,-41.50390625,-208.49609375
-138.671875,-53.22265625,-24.90234375,-66.89453125
999.51171875,-43.9453125,-17.578125,161.62109375
763.671875,-58.10546875,-18.5546875,155.2734375
-430.17578125,-74.21875,-29.78515625,-17.08984375
-1000.0,-82.03125,-34.1796875,-210.9375
-249.51171875,-55.6640625,-26.85546875,-144.04296875
999.51171875,-34.1796875,-21.97265625,74.21875
934.5703125,-45.8984375,-21.97265625,135.25390625
-185.546875,-61.5234375,-34.66796875,-13.18359375
-1000.0,-79.1015625,-49.31640625,-203.61328125
-396.484375,-64.453125,-47.8515625,-136.71875
912.109375,-28.3203125,-29.78515625,30.76171875
985.3515625,-31.25,-22.94921875,85.9375
-122.55859375,-70.80078125,-38.0859375,-23.92578125
-1000.0,-89.35546875,-50.78125,-192.87109375
-569.3359375,-70.80078125,-48.828125,-183.59375
732.421875,-42.96875,-37.109375,-13.671875
999.51171875,-38.0859375,-29.78515625,62.5
31.73828125,-58.10546875,-37.109375,-36.1328125
-1000.0,-72.265625,-48.828125,-192.87109375
-693.359375,-53.22265625,-44.43359375,-195.80078125
558.59375,-38.0859375,-35.64453125,4.39453125
999.51171875,-43.9453125,-34.66796875,113.76953125
194.82421875,-46.38671875,-38.57421875,31.25
-1000.0,-59.5703125,-42.96875,-128.90625
-844.23828125,-69.3359375,-46.38671875,-192.3828125
373.53515625,-40.0390625,-34.66796875,68.359375
999.51171875,-25.87890625,-20.01953125,229.4921875
268.5546875,-50.29296875,-33.203125,66.40625
-994.140625,-72.75390625,-51.26953125,-145.5078125
-980.46875,-65.91796875,-48.33984375,-203.125
139.6484375,-34.66796875,-35.15625,-57.6171875
999.51171875,-28.80859375,-31.73828125,89.84375
461.9140625,-55.6640625,-39.0625,60.546875
-851.5625,-65.4296875,-42.96875,-125.9765625
-1000.0,-53.22265625,-43.45703125,-222.65625
61.5234375,-36.62109375,-35.15625,-94.23828125
999.51171875,-30.76171875,-24.90234375,62.5
599.609375,-41.015625,-23.92578125,56.640625
-664.0625,-56.640625,-27.34375,-114.2578125
-1000.0,-75.1953125,-48.33984375,-237.79296875
-148.4375,-68.84765625,-56.640625,-138.671875
999.51171875,-31.25,-27.83203125,62.5
730.95703125,-30.2734375,-25.87890625,98.6328125
-494.62890625,-58.10546875,-42.96875,-60.05859375
-1000.0,-69.3359375,-51.26953125,-203.61328125
-227.5390625,-50.29296875,-41.9921875,-115.72265625
999.51171875,-21.97265625,-24.90234375,58.10546875
854.00390625,-32.2265625,-29.78515625,99.609375
-304.19921875,-64.94140625,-44.921875,-19.04296875
-1000.0,-66.89453125,-47.8515625,-192.3828125
-352.5390625,-52.734375,-43.9453125,-107.421875
950.1953125,-34.1796875,-36.1328125,78.125
961.42578125,-32.2265625,-27.34375,108.88671875
-143.5546875,-55.17578125,-39.0625,-27.34375
-1000.0,-66.89453125,-53.7109375,-189.94140625
-468.75,-49.8046875,-49.8046875,-168.45703125
835.9375,-17.08984375,-31.73828125,71.77734375
999.51171875,-14.6484375,-23.4375,241.69921875
1.953125,-41.015625,-37.59765625,50.29296875
-1000.0,-62.5,-45.8984375,-166.015625
-640.625,-54.19921875,-44.43359375,-165.0390625
640.625,-32.2265625,-36.1328125,10.25390625
999.51171875,-21.97265625,-22.94921875,130.37109375
130.37109375,-39.55078125,-24.4140625,27.83203125
-1000.0,-54.6875,-37.59765625,-166.015625
-820.3125,-54.19921875,-48.33984375,-214.84375
418.45703125,-34.66796875,-39.0625,38.0859375
999.51171875,-18.06640625,-30.2734375,196.77734375
189.453125,-45.41015625,-41.9921875,56.640625
-1000.0,-65.4296875,-53.7109375,-158.69140625
-908.203125,-50.29296875,-53.22265625,-161.62109375
242.1875,-33.203125,-44.921875,57.6171875
999.51171875,-31.25,-34.1796875,192.87109375
348.14453125,-48.33984375,-42.48046875,144.04296875
-926.7578125,-57.6171875,-46.875,-53.22265625
-1000.0,-53.7109375,-44.921875,-153.80859375
25.390625,-41.50390625,-48.33984375,49.8046875
999.51171875,-27.83203125,-34.66796875,191.89453125
500.9765625,-41.50390625,-37.109375,44.921875
-785.64453125,-61.5234375,-54.19921875,-162.109375
-1000.0,-71.77734375,-59.5703125,-267.578125
-27.34375,-44.921875,-44.921875,-110.3515625
999.51171875,-20.01953125,-30.2734375,59.5703125
607.421875,-41.9921875,-39.55078125,8.7890625
-660.15625,-67.3828125,-50.78125,-140.13671875
-1000.0,-63.96484375,-45.41015625,-238.76953125
-109.86328125,-39.0625,-39.0625,-163.0859375
999.51171875,-24.90234375,-31.73828125,2.9296875
763.18359375,-34.66796875,-27.83203125,44.921875
-421.38671875,-52.24609375,-41.9921875,-102.05078125
-1000.0,-61.03515625,-51.26953125,-247.55859375
-235.83984375,-42.96875,-46.875,-180.6640625
999.51171875,-23.92578125,-41.9921875,-4.8828125
839.35546875,-37.59765625,-45.41015625,52.734375
-291.015625,-51.7578125,-54.19921875,-75.1953125
-1000.0,-58.10546875,-55.17578125,-219.7265625
-412.109375,-55.6640625,-50.78125,-169.921875
918.45703125,-21.484375,-21.97265625,1.953125
913.0859375,-30.2734375,-21.97265625,60.546875
-224.12109375,-71.2890625,-54.6875,-57.6171875
-1000.0,-71.77734375,-58.59375,-213.37890625
-553.22265625,-56.640625,-55.17578125,-203.61328125
748.53515625,-36.1328125,-47.8515625,-35.64453125
999.51171875,-32.71484375,-45.8984375,65.4296875
-37.109375,-52.734375,-62.5,-19.53125
-1000.0,-65.4296875,-71.2890625,-179.19921875
-623.046875,-45.41015625,-56.15234375,-168.9453125
639.16015625,-26.3671875,-34.66796875,-14.6484375
999.51171875,-35.64453125,-30.76171875,77.1484375
123.53515625,-53.7109375,-38.57421875,38.57421875
-1000.0,-65.4296875,-40.0390625,-112.3046875
-754.8828125,-60.05859375,-33.69140625,-174.31640625
476.5625,-43.9453125,-20.01953125,-29.78515625
999.51171875,-39.55078125,-11.71875,95.21484375
314.94140625,-60.05859375,-15.13671875,54.19921875
-985.3515625,-73.73046875,-17.578125,-67.87109375
-753.41796875,-50.78125,-2.44140625,-118.65234375
489.2578125,-18.5546875,14.16015625,-5.859375
999.51171875,-17.08984375,12.6953125,131.34765625
489.74609375,-42.48046875,-0.48828125,107.421875
-826.66015625,-57.6171875,-2.44140625,-20.99609375
-887.20703125,-48.828125,3.90625,-82.51953125
331.54296875,-37.109375,8.7890625,15.625
999.51171875,-23.4375,21.97265625,151.85546875
663.0859375,-33.69140625,20.01953125,145.5078125
-616.69921875,-62.5,0.48828125,-13.18359375
-1000.0,-66.89453125,-10.7421875,-112.79296875
192.3828125,-37.109375,7.8125,4.39453125
999.51171875,-15.13671875,26.85546875,152.83203125
754.8828125,-34.66796875,10.25390625,136.23046875
-425.29296875,-49.31640625,-7.32421875,-19.04296875
-1000.0,-55.17578125,-2.9296875,-130.859375
-32.71484375,-46.38671875,0.48828125,-54.19921875
999.51171875,-28.3203125,6.8359375,98.6328125
855.95703125,-31.73828125,7.8125,133.7890625
-267.08984375,-48.828125,-7.8125,-2.44140625
-1000.0,-62.5,-17.578125,-146.484375
-226.5625,-60.546875,-16.11328125,-85.9375
987.3046875,-43.9453125,-0.48828125,80.078125
987.3046875,-38.0859375,7.8125,138.671875
-110.3515625,-65.91796875,-7.32421875,22.94921875
-1000.0,-100.09765625,-41.9921875,-190.91796875
-968.26171875,-111.81640625,-84.9609375,-241.69921875
161.1328125,-85.9375,-65.4296875,-13.671875
999.51171875,-2.44140625,46.875,309.08203125
222.16796875,35.64453125,106.93359375,306.640625
-1000.0,-118.65234375,-78.61328125,-318.359375
-1000.0,-258.30078125,-280.76171875,-707.03125
236.81640625,-147.4609375,-167.96875,-164.0625
999.51171875,67.3828125,108.3984375,544.43359375
190.91796875,124.51171875,207.03125,501.953125
-1000.0,-100.09765625,-56.640625,-354.4921875
-1000.0,-289.0625,-317.3828125,-823.2421875
117.1875,-157.2265625,-187.98828125,-205.56640625
999.51171875,104.4921875,128.90625,616.69921875
258.7890625,169.43359375,242.1875,624.0234375
-986.328125,-79.58984375,-38.0859375,-295.8984375
-1000.0,-298.33984375,-331.54296875,-875.9765625
-50.78125,-181.15234375,-218.26171875,-297.36328125
999.51171875,73.73046875,101.07421875,553.22265625
437.5,157.2265625,239.74609375,651.3671875
-889.6484375,-29.296875,23.4375,-144.53125
-1000.0,-224.609375,-237.3046875,-710.44921875
-182.6171875,-163.57421875,-186.03515625,-319.82421875
999.51171875,-13.18359375,-2.44140625,233.88671875
867.67578125,40.0390625,79.1015625,323.73046875
-404.78515625,-22.94921875,19.53125,-30.76171875
-1000.0,-129.39453125,-96.19140625,-362.79296875
-187.98828125,-107.421875,-83.984375,-182.6171875
999.51171875,-23.92578125,1.953125,145.99609375
686.03515625,-15.625,20.01953125,182.6171875
-641.11328125,-64.453125,-26.85546875,-69.3359375
-1000.0,-107.421875,-80.56640625,-274.90234375
-193.359375,-85.9375,-62.5,-114.2578125
999.51171875,-37.109375,-4.8828125,145.01953125
854.00390625,-25.87890625,16.11328125,170.8984375
-392.08984375,-71.2890625,-24.4140625,-41.50390625
-1000.0,-117.1875,-78.125,-258.30078125
-265.13671875,-83.984375,-69.3359375,-166.9921875
987.3046875,-31.25,-17.08984375,88.37890625
986.81640625,-29.78515625,7.32421875,175.78125
-148.92578125,-64.94140625,-23.4375,-0.48828125
-1000.0,-111.328125,-72.75390625,-223.14453125
-422.36328125,-104.00390625,-75.1953125,-185.05859375
873.53515625,-48.828125,-25.87890625,52.24609375
999.51171875,-29.296875,8.7890625,177.24609375
59.5703125,-64.94140625,-14.16015625,34.66796875
-1000.0,-112.79296875,-69.82421875,-219.7265625
-602.05078125,-100.5859375,-84.9609375,-203.125
722.16796875,-43.45703125,-44.43359375,30.2734375
999.51171875,-8.7890625,-9.765625,137.20703125
123.046875,-40.52734375,-39.55078125,-19.04296875
-1000.0,-100.5859375,-114.2578125,-307.12890625
-893.06640625,-103.02734375,-142.578125,-357.421875
372.0703125,-48.33984375,-103.515625,-115.234375
999.51171875,4.8828125,-52.734375,92.7734375
173.33984375,-3.90625,-56.15234375,7.32421875
-1000.0,-68.359375,-137.6953125,-334.47265625
-1000.0,-137.20703125,-236.81640625,-552.734375
-69.3359375,-85.9375,-195.3125,-246.58203125
999.51171875,78.125,11.23046875,342.7734375
438.4765625,152.34375,141.6015625,464.84375
-895.99609375,-21.484375,-62.5,-257.32421875
-1000.0,-242.1875,-351.07421875,-881.8359375
-160.15625,-171.875,-287.59765625,-423.828125
999.51171875,84.9609375,20.99609375,418.9453125
601.5625,204.58984375,203.125,626.46484375
-765.13671875,21.484375,-0.48828125,-142.08984375
-1000.0,-228.02734375,-328.125,-868.65234375
-204.58984375,-183.59375,-310.546875,-491.2109375
999.51171875,50.78125,-25.87890625,343.75
892.578125,196.77734375,183.59375,668.45703125
-393.06640625,78.61328125,53.7109375,62.01171875
-1000.0,-168.9453125,-253.41796875,-701.66015625
-202.63671875,-181.640625,-297.8515625,-525.87890625
983.88671875,8.7890625,-80.56640625,163.0859375
999.51171875,137.20703125,106.93359375,510.7421875
-28.3203125,74.21875,58.59375,144.53125
-1000.0,-99.609375,-154.78515625,-472.65625
-352.05078125,-130.37109375,-223.6328125,-426.26953125
919.43359375,-10.7421875,-94.7265625,62.01171875
999.51171875,99.609375,49.8046875,372.0703125
133.7890625,73.73046875,41.015625,172.36328125
-1000.0,-78.125,-126.953125,-362.79296875
-640.625,-137.6953125,-220.21484375,-440.4296875
717.7734375,-31.25,-113.28125,17.578125
999.51171875,134.765625,93.75,493.65234375
189.453125,138.671875,132.8125,366.69921875
-1000.0,-98.14453125,-142.578125,-471.19140625
-746.09375,-234.86328125,-345.703125,-770.5078125
626.953125,-61.03515625,-153.80859375,-27.34375
999.51171875,194.82421875,184.5703125,752.9296875
180.17578125,195.3125,221.6796875,528.3203125
-1000.0,-124.0234375,-159.66796875,-568.359375
-800.78125,-291.9921875,-399.4140625,-939.453125
558.59375,-73.73046875,-153.3203125,108.88671875
999.51171875,204.58984375,212.40234375,999.51171875
157.2265625,205.56640625,257.32421875,640.13671875
-1000.0,-112.3046875,-130.859375,-522.94921875
-985.3515625,-316.40625,-410.64453125,-961.9140625
269.53125,-130.859375,-190.91796875,-79.58984375
999.51171875,169.43359375,192.3828125,899.4140625
173.828125,205.078125,281.25,737.3046875
-1000.0,-95.21484375,-74.70703125,-445.80078125
-1000.0,-326.66015625,-394.53125,-1000.0
15.13671875,-174.31640625,-231.4453125,-252.44140625
999.51171875,121.58203125,147.4609375,801.7578125
340.8203125,194.82421875,283.69140625,780.76171875
-942.87109375,-73.2421875,-27.83203125,-349.12109375
-1000.0,-334.47265625,-380.37109375,-1000.0
-167.96875,-214.84375,-273.92578125,-204.58984375
999.51171875,82.51953125,99.12109375,930.6640625
541.9921875,200.1953125,297.36328125,881.34765625
-826.171875,-34.1796875,39.55078125,-154.296875
-1000.0,-340.33203125,-353.515625,-1000.0
-220.21484375,-271.484375,-310.546875,-580.56640625
999.51171875,34.1796875,58.10546875,419.921875
781.73828125,195.80078125,305.17578125,768.5546875
-569.82421875,8.7890625,99.12109375,-17.578125
-1000.0,-300.78125,-314.453125,-982.421875
-188.96484375,-283.69140625,-328.61328125,-619.140625
999.51171875,0.9765625,14.6484375,550.78125
966.30859375,202.1484375,297.36328125,989.74609375
-259.765625,47.36328125,147.4609375,123.046875
-1000.0,-289.55078125,-279.78515625,-957.51953125
-263.18359375,-307.12890625,-344.23828125,-750.0
963.8671875,-33.203125,-20.99609375,236.81640625
999.51171875,191.40625,284.1796875,836.9140625
-25.87890625,92.7734375,192.87109375,260.25390625
-1000.0,-240.72265625,-239.74609375,-835.44921875
-435.546875,-307.6171875,-374.51171875,-828.61328125
878.41796875,-50.29296875,-70.80078125,154.78515625
999.51171875,198.2421875,265.625,855.95703125
140.625,140.625,229.4921875,393.5546875
-1000.0,-192.3828125,-195.3125,-716.30859375
-656.73828125,-317.3828125,-392.578125,-890.13671875
718.26171875,-79.58984375,-114.74609375,38.57421875
999.51171875,191.40625,242.1875,833.49609375
173.33984375,171.875,255.37109375,502.44140625
-1000.0,-155.76171875,-154.296875,-612.3046875
-893.5546875,-327.63671875,-407.2265625,-966.30859375
427.24609375,-108.88671875,-169.921875,-100.09765625
999.51171875,183.10546875,201.66015625,866.2109375
145.5078125,202.63671875,270.01953125,644.04296875
-1000.0,-103.515625,-103.02734375,-522.94921875
-1000.0,-312.98828125,-399.90234375,-1000.0
124.51171875,-126.46484375,-202.1484375,-204.1015625
999.51171875,174.8046875,172.8515625,761.71875
251.953125,226.07421875,289.0625,701.171875
-984.375,-57.12890625,-41.015625,-389.16015625
-1000.0,-310.05859375,-391.6015625,-1000.0
-78.61328125,-171.38671875,-250.9765625,-322.75390625
999.51171875,130.37109375,134.765625,714.84375
437.5,225.5859375,302.24609375,808.59375
-895.5078125,-23.4375,8.30078125,-268.5546875
-1000.0,-299.31640625,-367.1875,-1000.0
-217.7734375,-210.44921875,-288.0859375,-388.671875
999.51171875,80.078125,81.54296875,687.01171875
668.9453125,224.12109375,306.640625,914.0625
-708.984375,19.04296875,68.359375,-34.1796875
-1000.0,-293.45703125,-344.23828125,-1000.0
-202.1484375,-254.8828125,-330.078125,-600.09765625
999.51171875,43.45703125,32.71484375,410.64453125
894.04296875,227.05078125,291.50390625,832.51953125
-397.94921875,57.6171875,109.86328125,57.6171875
-1000.0,-269.53125,-311.5234375,-966.30859375
-204.1015625,-274.4140625,-355.95703125,-682.12890625
996.58203125,1.46484375,-15.13671875,365.234375
999.51171875,208.0078125,278.80859375,876.46484375
-119.140625,90.8203125,160.64453125,198.2421875
-1000.0,-236.81640625,-263.671875,-895.01953125
-356.4453125,-290.0390625,-369.140625,-768.06640625
918.45703125,-21.484375,-53.22265625,309.08203125
999.51171875,218.75,262.6953125,941.40625
76.66015625,140.625,198.73046875,376.46484375
-1000.0,-203.61328125,-225.09765625,-742.67578125
-544.921875,-306.15234375,-390.13671875,-863.28125
813.4765625,-54.19921875,-97.16796875,107.421875
999.51171875,201.66015625,249.51171875,895.99609375
174.31640625,158.69140625,235.83984375,480.46875
-1000.0,-180.17578125,-189.453125,-664.0625
-790.52734375,-324.21875,-410.64453125,-947.265625
569.3359375,-78.125,-140.13671875,-36.62109375
999.51171875,197.265625,218.26171875,853.02734375
155.76171875,177.734375,253.90625,578.125
-1000.0,-125.9765625,-124.51171875,-540.0390625
-997.55859375,-315.91796875,-398.92578125,-982.421875
245.60546875,-125.48828125,-183.10546875,-164.55078125
999.51171875,176.26953125,200.1953125,812.5
181.15234375,219.23828125,288.0859375,691.89453125
-1000.0,-83.984375,-76.171875,-432.12890625
-1000.0,-318.359375,-391.6015625,-1000.0
6.34765625,-160.64453125,-224.12109375,-294.921875
999.51171875,140.13671875,156.73828125,734.86328125
350.09765625,223.6328125,299.8046875,780.2734375
-937.98828125,-54.19921875,-29.78515625,-300.78125
-1000.0,-320.3125,-390.625,-1000.0
-176.7578125,-198.2421875,-269.53125,-415.0390625
999.51171875,104.00390625,109.375,640.13671875
553.22265625,207.03125,282.2265625,843.26171875
-818.84765625,-27.34375,27.34375,-161.1328125
-1000.0,-303.22265625,-342.7734375,-1000.0
-218.75,-232.421875,-297.8515625,-517.578125
999.51171875,60.546875,66.89453125,520.01953125
793.45703125,220.703125,300.29296875,859.86328125
-554.6875,33.203125,98.14453125,11.71875
-1000.0,-278.3203125,-304.19921875,-958.984375
-186.5234375,-264.6484375,-324.21875,-645.5078125
999.51171875,21.97265625,15.13671875,404.296875
979.4921875,218.26171875,295.41015625,893.06640625
-231.93359375,74.21875,151.85546875,177.734375
-1000.0,-253.41796875,-273.4375,-882.8125
-271.484375,-285.15625,-347.65625,-708.984375
959.9609375,-15.13671875,-22.4609375,324.21875
999.51171875,205.078125,282.2265625,947.75390625
-9.765625,106.4453125,197.75390625,338.8671875
-1000.0,-233.88671875,-231.4453125,-815.91796875
-458.0078125,-304.19921875,-370.1171875,-810.05859375
866.2109375,-51.7578125,-77.63671875,204.58984375
999.51171875,156.73828125,225.09765625,910.15625
151.3671875,109.375,205.56640625,377.9296875
-1000.0,-194.82421875,-188.96484375,-766.6015625
-680.17578125,-319.3359375,-393.5546875,-896.97265625
694.82421875,-73.2421875,-109.375,49.31640625
999.51171875,202.1484375,258.7890625,924.31640625
169.921875,172.8515625,260.7421875,587.40234375
-1000.0,-166.015625,-154.78515625,-622.55859375
-914.55078125,-333.984375,-402.83203125,-953.61328125
393.06640625,-115.234375,-158.69140625,-48.828125
999.51171875,174.8046875,210.9375,884.27734375
145.99609375,192.87109375,277.83203125,660.15625
-1000.0,-117.1875,-94.7265625,-516.11328125
-1000.0,-327.1484375,-396.484375,-1000.0
100.09765625,-166.50390625,-225.09765625,-220.703125
999.51171875,119.62890625,149.4140625,765.13671875
264.6484375,203.61328125,289.0625,728.515625
-978.515625,-68.84765625,-47.36328125,-375.9765625
-1000.0,-320.80078125,-389.6484375,-1000.0
-95.21484375,-183.59375,-249.51171875,-323.2421875
999.51171875,131.8359375,134.27734375,744.140625
448.2421875,231.93359375,307.6171875,857.421875
-891.11328125,-33.69140625,15.625,-206.0546875
-1000.0,-307.12890625,-357.91015625,-1000.0
-220.703125,-202.63671875,-272.4609375,-463.8671875
999.51171875,95.703125,93.26171875,597.65625
693.359375,231.4453125,304.6875,873.53515625
-682.12890625,26.85546875,76.66015625,-51.7578125
-1000.0,-273.4375,-326.171875,-980.46875
-198.2421875,-243.1640625,-312.98828125,-577.63671875
999.51171875,41.9921875,38.57421875,466.796875
918.45703125,229.00390625,305.17578125,897.94921875
-358.88671875,65.91796875,144.04296875,94.23828125
-1000.0,-261.71875,-282.2265625,-954.58984375
-212.40234375,-270.01953125,-333.0078125,-691.89453125
989.2578125,16.11328125,11.23046875,316.89453125
999.51171875,220.703125,309.08203125,870.1171875
-88.37890625,87.890625,194.3359375,291.50390625
-1000.0,-249.0234375,-233.3984375,-796.875
-375.0,-313.4765625,-336.9140625,-786.62109375
910.64453125,-49.8046875,-17.578125,250.0
999.51171875,182.6171875,294.43359375,939.94140625
87.890625,101.5625,237.3046875,409.66796875
-1000.0,-228.02734375,-174.31640625,-731.4453125
-572.265625,-330.56640625,-343.26171875,-818.84765625
792.48046875,-81.0546875,-49.8046875,216.30859375
999.51171875,180.6640625,303.7109375,999.51171875
173.828125,140.13671875,292.96875,535.15625
-1000.0,-192.87109375,-124.0234375,-703.125
-821.77734375,-347.16796875,-363.28125,-906.25
528.3203125,-117.67578125,-113.28125,108.88671875
999.51171875,168.45703125,258.7890625,961.42578125
152.34375,168.9453125,302.24609375,666.9921875
-1000.0,-151.3671875,-90.33203125,-512.6953125
-1000.0,-344.23828125,-375.0,-978.515625
209.9609375,-143.5546875,-159.66796875,-130.859375
999.51171875,151.85546875,226.5625,847.65625
196.2890625,193.84765625,314.94140625,747.0703125
-1000.0,-97.65625,-49.8046875,-425.29296875
-1000.0,-329.58984375,-376.953125,-1000.0
-12.6953125,-182.6171875,-219.7265625,-267.578125
999.51171875,114.2578125,157.2265625,729.98046875
363.76953125,207.51953125,310.05859375,793.9453125
-932.12890625,-56.640625,3.41796875,-289.55078125
-1000.0,-327.1484375,-360.83984375,-1000.0
-188.4765625,-211.42578125,-260.7421875,-340.8203125
999.51171875,94.7265625,120.1171875,738.28125
577.1484375,223.6328125,322.265625,912.109375
-799.8046875,-4.39453125,57.6171875,-110.3515625
-1000.0,-299.8046875,-333.984375,-1000.0
-214.84375,-226.07421875,-286.62109375,-467.7734375
999.51171875,69.82421875,78.61328125,628.90625
820.80078125,216.30859375,315.4296875,899.4140625
-517.08984375,29.296875,106.4453125,61.03515625
-1000.0,-279.78515625,-303.22265625,-930.17578125
-183.59375,-264.16015625,-317.87109375,-620.60546875
999.51171875,29.78515625,24.4140625,446.2890625
995.1171875,227.5390625,302.24609375,944.3359375
-197.75390625,83.0078125,166.9921875,200.68359375
-1000.0,-249.51171875,-263.18359375,-929.6875
-287.59765625,-280.76171875,-350.5859375,-693.359375
951.66015625,-5.37109375,-20.99609375,452.63671875
999.51171875,213.37890625,287.109375,999.51171875
11.71875,114.2578125,200.1953125,341.796875
-1000.0,-226.5625,-229.4921875,-792.48046875
-474.609375,-314.453125,-375.9765625,-830.56640625
858.3984375,-56.640625,-73.2421875,164.55078125
999.51171875,202.63671875,261.23046875,888.671875
156.73828125,157.2265625,225.09765625,430.17578125
-1000.0,-180.17578125,-204.58984375,-693.84765625
-716.30859375,-316.40625,-422.36328125,-936.03515625
655.76171875,-74.21875,-157.2265625,-31.73828125
999.51171875,198.2421875,194.3359375,853.02734375
165.0390625,185.05859375,212.40234375,505.37109375
-1000.0,-139.6484375,-194.3359375,-642.08984375
-943.359375,-321.77734375,-459.9609375,-990.234375
345.703125,-106.93359375,-221.19140625,-187.01171875
999.51171875,184.5703125,155.76171875,758.7890625
151.85546875,208.0078125,230.95703125,583.984375
-1000.0,-104.00390625,-142.08984375,-536.62109375
-1000.0,-326.171875,-450.1953125,-1000.0
61.03515625,-146.97265625,-256.34765625,-251.953125
999.51171875,160.15625,132.32421875,747.55859375
289.55078125,231.93359375,265.625,711.42578125
-967.28515625,-51.7578125,-69.3359375,-345.703125
-1000.0,-304.6875,-419.43359375,-1000.0
-121.58203125,-170.8984375,-284.1796875,-375.0
999.51171875,133.30078125,97.16796875,677.734375
473.14453125,235.83984375,281.73828125,791.9921875
-877.9296875,-14.6484375,1.46484375,-223.6328125
-1000.0,-299.31640625,-386.23046875,-1000.0
-221.19140625,-214.84375,-315.91796875,-498.53515625
999.51171875,83.49609375,56.640625,580.078125
717.28515625,239.74609375,287.109375,877.9296875
-654.296875,32.2265625,55.6640625,-94.7265625
-1000.0,-285.64453125,-358.3984375,-1000.0
-195.80078125,-239.74609375,-344.7265625,-535.15625
999.51171875,49.8046875,7.32421875,549.8046875
932.6171875,231.93359375,274.90234375,964.84375
-332.51953125,76.171875,117.67578125,109.86328125
-1000.0,-251.953125,-301.7578125,-983.88671875
-220.21484375,-264.6484375,-355.46875,-671.38671875
982.421875,0.0,-37.59765625,367.1875
999.51171875,214.84375,256.34765625,850.5859375
-61.5234375,120.60546875,163.0859375,246.09375
-1000.0,-217.7734375,-265.13671875,-818.84765625
-392.578125,-288.57421875,-382.8125,-812.5
900.87890625,-19.04296875,-64.94140625,209.47265625
999.51171875,222.16796875,262.6953125,943.359375
111.81640625,149.4140625,209.9609375,435.05859375
-1000.0,-189.94140625,-211.42578125,-722.65625
-603.515625,-306.640625,-400.390625,-886.23046875
766.6015625,-57.6171875,-113.28125,66.89453125
999.51171875,197.75390625,238.28125,877.9296875
174.8046875,154.78515625,235.83984375,493.65234375
-1000.0,-169.43359375,-164.0625,-655.2734375
-854.98046875,-327.63671875,-403.80859375,-955.078125
482.91015625,-106.93359375,-151.3671875,-35.64453125
999.51171875,177.734375,224.12109375,895.01953125
148.92578125,187.5,271.97265625,596.6796875
-1000.0,-124.0234375,-112.3046875,-581.54296875
-1000.0,-333.49609375,-400.390625,-998.046875
166.9921875,-142.08984375,-191.40625,-151.85546875
999.51171875,163.57421875,196.77734375,842.7734375
214.35546875,207.03125,299.31640625,748.046875
-1000.0,-94.23828125,-52.24609375,-425.29296875
-1000.0,-335.44921875,-385.7421875,-1000.0
-48.33984375,-179.6875,-237.3046875,-272.4609375
999.51171875,128.90625,144.53125,741.69921875
394.53125,218.26171875,301.7578125,784.66796875
-917.48046875,-44.921875,-4.39453125,-232.91015625
-1000.0,-315.4296875,-373.53515625,-1000.0
-201.66015625,-214.35546875,-274.90234375,-439.94140625
999.51171875,82.51953125,96.19140625,579.58984375
614.74609375,219.23828125,302.24609375,819.82421875
-763.18359375,7.32421875,54.19921875,-101.07421875
-1000.0,-288.0859375,-346.19140625,-1000.0
-208.984375,-237.79296875,-314.94140625,-572.75390625
999.51171875,46.875,44.921875,466.30859375
856.93359375,218.26171875,293.9453125,855.46875
-460.44921875,44.921875,106.93359375,67.3828125
-1000.0,-272.94921875,-301.26953125,-925.78125
-191.40625,-265.13671875,-334.47265625,-675.78125
999.51171875,4.39453125,-3.90625,330.56640625
999.51171875,208.49609375,281.25,867.67578125
-142.08984375,88.37890625,157.2265625,218.75
-1000.0,-246.58203125,-269.53125,-859.375
-321.77734375,-290.0390625,-370.1171875,-754.8828125
936.03515625,-23.4375,-52.734375,271.484375
999.51171875,206.0546875,262.6953125,939.453125
47.8515625,127.44140625,195.80078125,373.046875
-1000.0,-212.40234375,-223.14453125,-771.484375
-504.8828125,-311.03515625,-392.08984375,-864.2578125
842.7734375,-52.734375,-103.515625,106.93359375
999.51171875,205.56640625,240.72265625,919.921875
173.828125,163.0859375,223.6328125,515.13671875
-1000.0,-170.41015625,-183.10546875,-679.6875
-747.55859375,-317.3828125,-401.85546875,-904.78515625
623.046875,-84.9609375,-140.13671875,138.671875
999.51171875,184.5703125,220.21484375,967.28515625
160.15625,164.55078125,244.62890625,566.89453125
-1000.0,-146.97265625,-145.01953125,-588.8671875
-973.14453125,-322.265625,-409.66796875,-976.07421875
291.015625,-126.953125,-192.3828125,-167.96875
999.51171875,165.0390625,183.10546875,778.3203125
172.36328125,205.56640625,275.390625,669.43359375
-1000.0,-96.19140625,-82.03125,-439.453125
-1000.0,-321.77734375,-402.83203125,-1000.0
29.78515625,-159.1796875,-238.76953125,-272.4609375
999.51171875,143.06640625,143.06640625,742.67578125
323.73046875,219.7265625,278.3203125,761.71875
-950.1953125,-41.9921875,-42.48046875,-335.9375
-1000.0,-298.33984375,-397.4609375,-1000.0
-156.25,-186.03515625,-283.69140625,-368.65234375
999.51171875,114.74609375,86.9140625,674.8046875
527.83203125,234.86328125,267.08984375,786.62109375
-836.42578125,3.90625,3.41796875,-208.0078125
-1000.0,-284.1796875,-372.55859375,-1000.0
-223.6328125,-211.42578125,-315.4296875,-508.30078125
999.51171875,82.51953125,51.26953125,560.546875
755.37109375,238.28125,282.2265625,898.4375
-605.46875,43.45703125,71.2890625,-19.53125
-1000.0,-265.13671875,-329.1015625,-997.0703125
-189.453125,-243.1640625,-345.703125,-647.94921875
999.51171875,41.50390625,-4.39453125,384.765625
966.796875,235.83984375,273.92578125,882.8125
-261.23046875,84.47265625,125.0,162.109375
-1000.0,-243.65234375,-290.52734375,-895.01953125
-250.9765625,-264.6484375,-361.328125,-735.3515625
969.7265625,4.39453125,-45.41015625,279.78515625
999.51171875,222.16796875,251.46484375,859.375
-32.2265625,121.58203125,156.73828125,277.34375
-1000.0,-213.8671875,-262.20703125,-811.5234375
-424.8046875,-292.48046875,-390.13671875,-821.77734375
883.7890625,-37.59765625,-83.984375,221.19140625
999.51171875,204.58984375,243.1640625,999.51171875
137.20703125,141.6015625,203.125,423.33984375
-1000.0,-188.4765625,-205.56640625,-800.29296875
-638.18359375,-320.80078125,-407.71484375,-884.27734375
737.79296875,-82.51953125,-138.671875,175.78125
999.51171875,193.84765625,216.796875,983.88671875
175.29296875,169.43359375,226.5625,585.9375
-1000.0,-151.85546875,-165.0390625,-583.984375
-882.32421875,-316.40625,-403.80859375,-959.47265625
444.82421875,-100.09765625,-162.59765625,-113.76953125
999.51171875,179.19921875,206.54296875,781.73828125
145.5078125,187.5,265.625,622.55859375
-1000.0,-110.3515625,-108.88671875,-485.3515625
-1000.0,-314.94140625,-392.578125,-989.74609375
130.859375,-153.80859375,-203.61328125,-214.84375
999.51171875,134.765625,157.71484375,739.2578125
246.58203125,202.1484375,281.73828125,701.171875
-986.81640625,-77.1484375,-44.921875,-378.41796875
-1000.0,-324.21875,-379.39453125,-1000.0
-74.70703125,-181.640625,-240.234375,-351.5625
999.51171875,120.1171875,134.27734375,639.16015625
434.5703125,216.796875,297.8515625,761.71875
-897.4609375,-33.69140625,1.953125,-231.4453125
-1000.0,-308.10546875,-370.60546875,-1000.0
-212.890625,-210.9375,-289.0625,-412.59765625
999.51171875,80.078125,72.265625,611.81640625
659.1796875,211.42578125,282.2265625,819.3359375
-717.7734375,7.32421875,49.8046875,-72.265625
-1000.0,-282.71484375,-336.42578125,-981.93359375
-203.125,-230.46875,-312.5,-535.64453125
999.51171875,41.015625,22.4609375,538.57421875
889.16015625,204.58984375,263.671875,920.8984375
-406.73828125,53.7109375,98.14453125,54.19921875
-1000.0,-265.13671875,-297.8515625,-984.375
-199.21875,-272.4609375,-336.42578125,-682.6171875
998.046875,2.9296875,-2.44140625,339.35546875
999.51171875,204.58984375,282.71484375,860.83984375
-122.55859375,71.77734375,160.64453125,200.68359375
-1000.0,-263.18359375,-254.39453125,-860.83984375
-348.6328125,-311.03515625,-353.515625,-801.26953125
922.8515625,-44.921875,-40.0390625,152.83203125
999.51171875,163.0859375,262.20703125,785.64453125
64.94140625,71.77734375,197.75390625,291.015625
-1000.0,-235.83984375,-194.82421875,-769.53125
-541.9921875,-328.61328125,-355.95703125,-868.65234375
814.453125,-83.0078125,-73.73046875,57.6171875
999.51171875,166.015625,264.6484375,823.73046875
173.828125,131.8359375,258.30078125,445.3125
-1000.0,-185.546875,-135.7421875,-667.48046875
-786.62109375,-337.890625,-358.88671875,-921.38671875
573.73046875,-117.67578125,-108.3984375,-36.62109375
999.51171875,156.25,251.46484375,814.453125
156.25,153.3203125,289.55078125,585.44921875
-1000.0,-169.921875,-103.515625,-537.109375
-993.1640625,-351.07421875,-372.0703125,-957.51953125
252.9296875,-148.4375,-149.4140625,-145.99609375
999.51171875,138.671875,218.75,779.296875
183.59375,187.01171875,305.17578125,707.51953125
-1000.0,-104.00390625,-43.9453125,-394.53125
-1000.0,-335.9375,-355.46875,-966.796875
10.7421875,-176.26953125,-195.80078125,-237.79296875
999.51171875,119.62890625,171.875,702.1484375
348.6328125,186.03515625,311.03515625,751.46484375
-938.4765625,-75.68359375,8.7890625,-261.23046875
-1000.0,-336.9140625,-351.07421875,-985.83984375
-173.828125,-236.328125,-255.859375,-395.99609375
999.51171875,68.84765625,124.51171875,622.0703125
557.6171875,199.70703125,321.2890625,843.26171875
-815.4296875,-28.80859375,62.01171875,-118.1640625
-1000.0,-306.15234375,-314.94140625,-961.42578125
-217.7734375,-239.74609375,-270.01953125,-475.09765625
999.51171875,38.57421875,81.0546875,505.37109375
795.41015625,194.3359375,311.03515625,836.42578125
-551.26953125,7.32421875,100.5859375,32.2265625
-1000.0,-297.36328125,-294.43359375,-912.109375
-187.01171875,-268.06640625,-299.8046875,-592.28515625
999.51171875,-5.859375,19.04296875,370.1171875
978.515625,180.17578125,287.109375,837.40234375
-232.91015625,54.6875,162.109375,205.078125
-1000.0,-274.4140625,-253.90625,-841.796875
-270.99609375,-298.33984375,-330.56640625,-714.84375
958.984375,-21.484375,-12.20703125,277.83203125
999.51171875,195.80078125,289.55078125,852.5390625
-6.8359375,96.6796875,206.0546875,313.96484375
-1000.0,-229.00390625,-210.44921875,-758.30078125
-454.1015625,-310.546875,-353.515625,-803.7109375
868.65234375,-57.12890625,-52.734375,162.59765625
999.51171875,173.33984375,258.30078125,851.07421875
150.87890625,104.98046875,212.40234375,406.25
-1000.0,-202.63671875,-178.22265625,-685.05859375
-679.6875,-322.265625,-378.90625,-879.39453125
694.82421875,-90.8203125,-117.67578125,33.203125
999.51171875,172.36328125,235.3515625,846.19140625
170.41015625,160.64453125,254.8828125,574.70703125
-1000.0,-153.80859375,-141.6015625,-557.6171875
-909.66796875,-321.2890625,-388.671875,-938.4765625
399.4140625,-103.515625,-155.2734375,-76.171875
999.51171875,175.29296875,207.03125,807.6171875
154.296875,186.5234375,273.92578125,632.32421875
-1000.0,-127.44140625,-101.07421875,-476.07421875
-1000.0,-332.03125,-397.4609375,-983.3984375
100.5859375,-141.6015625,-204.1015625,-211.9140625
999.51171875,154.296875,169.43359375,742.67578125
275.87890625,219.7265625,285.15625,718.26171875
-974.609375,-53.22265625,-47.8515625,-335.44921875
-1000.0,-293.45703125,-390.625,-987.3046875
-89.84375,-170.41015625,-261.23046875,-332.03125
999.51171875,125.0,114.2578125,645.99609375
458.0078125,237.3046875,285.15625,750.0
-884.765625,-8.7890625,5.859375,-222.65625
-1000.0,-291.50390625,-368.65234375,-1000.0
-217.7734375,-213.37890625,-308.59375,-530.2734375
999.51171875,85.9375,57.6171875,480.46875
701.171875,238.28125,279.78515625,752.44140625
-672.8515625,31.73828125,51.26953125,-105.95703125
-1000.0,-275.390625,-350.5859375,-997.0703125
-197.75390625,-239.2578125,-336.9140625,-640.13671875
999.51171875,38.57421875,11.23046875,364.2578125
921.875,219.23828125,265.625,776.85546875
-352.5390625,67.3828125,98.14453125,49.31640625
-1000.0,-251.953125,-315.4296875,-916.50390625
-212.890625,-259.765625,-360.83984375,-687.5
987.79296875,1.953125,-36.62109375,280.2734375
999.51171875,207.03125,254.8828125,793.45703125
-79.58984375,105.95703125,166.015625,243.65234375
-1000.0,-225.5859375,-249.51171875,-804.6875
-377.44140625,-287.59765625,-371.09375,-786.62109375
908.69140625,-27.34375,-67.3828125,173.33984375
999.51171875,208.984375,255.37109375,826.171875
99.12109375,132.8125,203.125,358.3984375
-1000.0,-208.0078125,-209.9609375,-729.4921875
-579.58984375,-315.4296875,-382.32421875,-859.375
786.62109375,-60.546875,-98.6328125,65.91796875
999.51171875,185.546875,245.1171875,826.66015625
175.78125,142.08984375,236.81640625,502.44140625
-1000.0,-173.828125,-166.015625,-607.421875
-830.56640625,-330.56640625,-397.4609375,-929.19921875
516.6015625,-118.1640625,-158.203125,-70.3125
999.51171875,164.55078125,205.078125,791.015625
151.3671875,179.19921875,261.23046875,602.05078125
-1000.0,-140.13671875,-122.55859375,-505.37109375
-1000.0,-339.84375,-402.34375,-967.7734375
196.77734375,-148.92578125,-193.84765625,-178.7109375
999.51171875,150.87890625,182.6171875,748.53515625
208.984375,206.54296875,290.0390625,686.5234375
-1000.0,-104.98046875,-78.125,-395.5078125
-1000.0,-341.30859375,-406.25,-994.62890625
-24.4140625,-165.0390625,-228.02734375,-291.015625
999.51171875,134.765625,153.3203125,668.9453125
376.46484375,221.19140625,302.24609375,757.32421875
-925.29296875,-38.0859375,-4.8828125,-230.46875
-1000.0,-301.7578125,-357.91015625,-970.21484375
-191.89453125,-199.70703125,-263.671875,-414.0625
999.51171875,88.37890625,90.33203125,555.6640625
594.7265625,223.14453125,292.96875,793.45703125
-782.71484375,9.27734375,48.828125,-84.9609375
-1000.0,-292.96875,-343.26171875,-951.66015625
-212.890625,-251.46484375,-312.5,-540.52734375
999.51171875,48.828125,50.29296875,457.51953125
828.61328125,218.75,294.43359375,825.1953125
-505.37109375,37.59765625,100.5859375,56.15234375
-1000.0,-271.97265625,-301.7578125,-910.64453125
-182.6171875,-261.71875,-327.1484375,-637.6953125
999.51171875,15.13671875,2.9296875,353.02734375
999.51171875,216.796875,282.71484375,831.0546875
-183.10546875,88.8671875,159.1796875,192.87109375
-1000.0,-242.1875,-261.23046875,-839.35546875
-296.38671875,-283.203125,-352.05078125,-718.26171875
946.77734375,-22.4609375,-47.8515625,249.51171875
999.51171875,187.01171875,253.90625,832.03125
27.83203125,105.95703125,198.2421875,337.40234375
-1000.0,-221.6796875,-218.26171875,-750.48828125
-486.328125,-307.6171875,-373.53515625,-828.125
853.02734375,-44.921875,-80.56640625,117.67578125
999.51171875,207.03125,254.39453125,823.73046875
162.59765625,151.3671875,229.00390625,434.08203125
-1000.0,-182.12890625,-184.5703125,-660.15625
-729.00390625,-318.359375,-392.08984375,-886.23046875
641.6015625,-84.47265625,-125.48828125,16.6015625
999.51171875,186.5234375,233.3984375,840.8203125
163.0859375,170.8984375,258.7890625,556.15234375
-1000.0,-152.34375,-137.6953125,-567.3828125
-954.1015625,-330.56640625,-395.5078125,-943.84765625
324.70703125,-144.53125,-188.4765625,-140.625
999.51171875,127.9296875,154.296875,731.4453125
164.0625,187.98828125,262.6953125,636.71875
-1000.0,-104.98046875,-79.58984375,-440.91796875
-1000.0,-333.49609375,-384.27734375,-992.1875
48.828125,-166.50390625,-198.73046875,-261.23046875
999.51171875,134.27734375,174.8046875,699.21875
302.734375,204.1015625,302.24609375,725.5859375
-960.9375,-68.84765625,-18.5546875,-301.26953125
-1000.0,-317.87109375,-363.76953125,-989.2578125
-131.34765625,-199.70703125,-241.2109375,-369.140625
999.51171875,103.02734375,130.37109375,609.86328125
490.234375,200.68359375,289.0625,756.34765625
-864.2578125,-47.36328125,11.71875,-186.03515625
-1000.0,-303.7109375,-343.26171875,-969.7265625
-220.21484375,-208.49609375,-276.3671875,-465.33203125
999.51171875,85.44921875,86.42578125,527.83203125
738.28125,233.88671875,314.453125,850.5859375
-626.46484375,35.64453125,91.796875,26.85546875
-1000.0,-274.90234375,-316.40625,-917.96875
-193.359375,-244.140625,-313.96484375,-572.265625
999.51171875,45.8984375,29.296875,401.85546875
945.3125,224.609375,286.1328125,830.56640625
-308.10546875,63.96484375,124.51171875,145.99609375
-1000.0,-258.30078125,-292.96875,-872.55859375
-230.95703125,-271.97265625,-344.23828125,-679.6875
978.515625,3.90625,-11.23046875,300.78125
999.51171875,211.9140625,278.80859375,847.65625
-55.6640625,99.12109375,171.875,281.25
-1000.0,-227.5390625,-248.53515625,-801.26953125
-401.3671875,-293.45703125,-365.234375,-786.1328125
895.99609375,-33.69140625,-61.5234375,179.6875
999.51171875,205.078125,258.7890625,836.9140625
121.58203125,137.20703125,208.984375,398.4375
-1000.0,-194.3359375,-205.56640625,-697.75390625
-615.72265625,-325.68359375,-392.08984375,-872.0703125
756.34765625,-88.37890625,-116.2109375,50.29296875
999.51171875,182.12890625,246.09375,833.0078125
177.734375,143.5546875,250.0,522.4609375
-1000.0,-184.08203125,-158.69140625,-589.84375
-868.65234375,-336.9140625,-394.53125,-930.17578125
464.35546875,-114.74609375,-150.390625,-66.40625
999.51171875,163.0859375,208.984375,791.015625
147.4609375,169.921875,256.34765625,588.37890625
-1000.0,-135.25390625,-115.234375,-495.1171875
-1000.0,-331.54296875,-393.06640625,-961.42578125
152.34375,-155.2734375,-197.265625,-178.22265625
999.51171875,129.39453125,172.8515625,762.20703125
230.95703125,202.1484375,284.66796875,708.984375
-993.65234375,-80.56640625,-63.4765625,-370.1171875
-1000.0,-318.359375,-395.01953125,-989.2578125
-59.5703125,-168.45703125,-255.37109375,-317.87109375
999.51171875,131.8359375,110.3515625,642.578125
411.62109375,236.81640625,270.99609375,744.140625
-908.203125,-18.5546875,-29.296875,-244.140625
-1000.0,-295.41015625,-396.484375,-993.1640625
-208.0078125,-191.89453125,-299.8046875,-437.98828125
999.51171875,113.28125,73.2421875,547.8515625
634.765625,230.95703125,267.08984375,803.22265625
-743.1640625,4.39453125,19.53125,-80.078125
-1000.0,-274.4140625,-351.5625,-940.4296875
-206.54296875,-217.7734375,-319.3359375,-512.6953125
999.51171875,70.3125,34.1796875,456.54296875
871.09375,243.1640625,290.0390625,839.84375
-437.01171875,71.2890625,109.86328125,106.93359375
-1000.0,-250.48828125,-302.734375,-870.60546875
-192.3828125,-246.58203125,-335.44921875,-608.3984375
999.51171875,33.69140625,-4.39453125,362.79296875
999.51171875,235.3515625,275.87890625,854.00390625
-143.5546875,106.93359375,147.94921875,236.81640625
-1000.0,-228.515625,-279.296875,-829.1015625
-325.68359375,-273.92578125,-367.67578125,-744.62890625
933.10546875,0.48828125,-45.8984375,243.1640625
999.51171875,222.16796875,257.8125,852.5390625
55.6640625,133.30078125,190.91796875,375.0
-1000.0,-198.73046875,-210.9375,-707.51953125
-509.27734375,-295.41015625,-375.9765625,-819.3359375
840.33203125,-43.9453125,-97.16796875,105.46875
999.51171875,203.125,243.1640625,817.87109375
173.33984375,154.296875,224.12109375,465.33203125
-1000.0,-171.875,-188.4765625,-628.90625
-759.765625,-317.87109375,-406.25,-902.83203125
608.3984375,-94.23828125,-142.578125,-22.94921875
999.51171875,187.98828125,221.6796875,811.5234375
158.69140625,183.10546875,247.55859375,578.61328125
-1000.0,-146.484375,-150.390625,-533.69140625
-979.00390625,-325.68359375,-408.69140625,-950.68359375
280.2734375,-111.81640625,-178.22265625,-126.46484375
999.51171875,169.43359375,189.453125,780.2734375
173.828125,189.94140625,270.5078125,665.0390625
-1000.0,-104.00390625,-76.66015625,-422.36328125
-1000.0,-318.84765625,-384.27734375,-978.515625
24.4140625,-157.71484375,-216.796875,-252.9296875
999.51171875,137.6953125,154.296875,696.2890625
328.125,215.8203125,289.0625,738.28125
-947.75390625,-46.875,-16.11328125,-286.62109375
-1000.0,-312.01171875,-375.0,-992.1875
-160.64453125,-207.03125,-273.92578125,-389.6484375
999.51171875,102.5390625,112.3046875,607.91015625
533.203125,225.09765625,299.8046875,791.9921875
-832.03125,-13.671875,24.90234375,-166.9921875
-1000.0,-295.41015625,-356.93359375,-986.328125
-221.19140625,-219.7265625,-297.8515625,-497.0703125
999.51171875,68.359375,60.05859375,509.27734375
776.85546875,215.8203125,281.73828125,836.9140625
-576.171875,29.78515625,77.1484375,20.99609375
-1000.0,-266.11328125,-314.94140625,-911.62109375
-188.96484375,-239.2578125,-319.82421875,-567.3828125
999.51171875,23.4375,6.8359375,412.109375
967.28515625,215.8203125,278.3203125,845.703125
-258.30078125,83.0078125,143.5546875,172.8515625
-1000.0,-250.0,-275.87890625,-863.28125
-254.8828125,-273.92578125,-344.7265625,-707.51953125
967.28515625,-3.41796875,-20.5078125,288.57421875
999.51171875,214.35546875,273.92578125,864.2578125
-25.87890625,107.421875,172.36328125,311.5234375
-1000.0,-225.5859375,-249.0234375,-765.13671875
-435.546875,-289.0625,-374.0234375,-780.76171875
877.9296875,-22.94921875,-63.4765625,166.9921875
999.51171875,207.51953125,254.39453125,824.70703125
142.578125,133.30078125,207.03125,415.0390625
-1000.0,-192.87109375,-195.3125,-672.8515625
-658.203125,-307.6171875,-383.30078125,-862.3046875
716.30859375,-77.63671875,-115.234375,41.9921875
999.51171875,180.17578125,234.375,818.359375
173.33984375,169.43359375,248.046875,527.83203125
-1000.0,-152.34375,-155.2734375,-587.40234375
-892.578125,-327.1484375,-409.66796875,-937.5
427.24609375,-115.72265625,-170.41015625,-93.26171875
999.51171875,176.26953125,206.0546875,803.22265625
145.5078125,194.3359375,267.08984375,627.9296875
-1000.0,-118.1640625,-108.88671875,-491.2109375
-1000.0,-323.73046875,-395.99609375,-979.98046875
122.55859375,-145.99609375,-203.61328125,-212.890625
999.51171875,145.01953125,173.33984375,744.62890625
250.0,202.1484375,286.1328125,719.7265625
-984.86328125,-78.125,-56.640625,-360.3515625
-1000.0,-314.94140625,-391.6015625,-1000.0
-81.54296875,-178.7109375,-248.53515625,-327.63671875
999.51171875,113.76953125,128.41796875,671.875
442.87109375,213.37890625,287.109375,783.69140625
-893.06640625,-36.1328125,-0.9765625,-219.23828125
-1000.0,-317.87109375,-372.0703125,-1000.0
-214.35546875,-229.98046875,-291.9921875,-475.09765625
999.51171875,73.2421875,80.56640625,560.05859375
671.875,214.35546875,294.43359375,834.9609375
-703.125,9.27734375,60.05859375,-63.4765625
-1000.0,-284.66796875,-333.0078125,-960.44921875
-201.171875,-244.62890625,-308.59375,-552.24609375
999.51171875,34.1796875,38.0859375,437.98828125
902.83203125,212.890625,284.1796875,832.51953125
-383.30078125,55.17578125,112.79296875,107.91015625
-1000.0,-264.16015625,-296.875,-886.23046875
-205.56640625,-259.765625,-337.890625,-663.0859375
994.140625,10.7421875,-8.7890625,338.8671875
999.51171875,208.984375,275.87890625,877.44140625
-106.4453125,102.5390625,158.203125,250.0
-1000.0,-226.5625,-262.6953125,-831.54296875
-358.3984375,-282.71484375,-360.3515625,-764.16015625
917.48046875,-25.87890625,-51.7578125,211.9140625
999.51171875,200.1953125,263.671875,843.75
81.54296875,125.0,201.66015625,370.1171875
-1000.0,-207.03125,-217.7734375,-725.09765625
-557.6171875,-314.453125,-381.8359375,-863.76953125
802.734375,-62.5,-93.26171875,64.94140625
999.51171875,189.453125,244.140625,809.5703125
173.828125,131.8359375,215.33203125,455.56640625
-1000.0,-185.05859375,-183.10546875,-638.18359375
-800.78125,-325.1953125,-387.20703125,-900.390625
554.19921875,-104.4921875,-135.25390625,-19.04296875
999.51171875,179.19921875,224.609375,808.59375
154.78515625,176.26953125,264.6484375,580.078125
-1000.0,-142.08984375,-117.67578125,-525.390625
-1000.0,-333.984375,-391.6015625,-964.35546875
233.3984375,-138.18359375,-183.10546875,-160.64453125
999.51171875,160.15625,188.96484375,748.046875
191.40625,205.56640625,278.80859375,646.484375
-1000.0,-82.03125,-72.75390625,-422.36328125
-1000.0,-315.4296875,-386.23046875,-979.00390625
-2.44140625,-167.96875,-219.23828125,-260.25390625
999.51171875,133.30078125,151.85546875,696.2890625
361.328125,218.75,295.41015625,763.18359375
-932.6171875,-47.36328125,-10.25390625,-257.8125
-1000.0,-307.12890625,-364.74609375,-974.609375
-181.15234375,-197.265625,-264.6484375,-390.13671875
999.51171875,98.6328125,94.7265625,578.125
570.3125,226.07421875,277.34375,782.71484375
-804.6875,-10.25390625,20.99609375,-144.04296875
-1000.0,-302.24609375,-353.515625,-986.81640625
-215.33203125,-221.6796875,-303.7109375,-526.3671875
999.51171875,55.6640625,51.7578125,473.14453125
818.359375,207.03125,291.9921875,820.80078125
-520.5078125,32.71484375,89.84375,18.06640625
-1000.0,-280.2734375,-320.3125,-930.6640625
-184.5703125,-255.859375,-329.58984375,-622.55859375
999.51171875,26.85546875,6.34765625,354.4921875
987.3046875,212.40234375,270.99609375,836.42578125
-211.42578125,74.21875,133.7890625,195.3125
-1000.0,-244.140625,-275.390625,-844.7265625
-281.25,-273.92578125,-354.00390625,-727.5390625
954.58984375,-8.30078125,-36.62109375,260.7421875
999.51171875,212.890625,267.578125,848.6328125
8.30078125,113.76953125,185.05859375,304.6875
-1000.0,-224.12109375,-233.3984375,-786.62109375
-468.26171875,-309.5703125,-379.39453125,-809.5703125
862.3046875,-57.12890625,-76.171875,200.68359375
999.51171875,185.546875,266.6015625,907.71484375
152.34375,129.39453125,236.328125,452.1484375
-1000.0,-202.1484375,-181.640625,-681.640625
-703.125,-326.171875,-385.25390625,-896.484375
669.921875,-85.9375,-108.3984375,37.109375
999.51171875,178.7109375,239.74609375,877.44140625
166.9921875,164.0625,249.0234375,571.2890625
-1000.0,-154.78515625,-140.625,-581.54296875
-932.12890625,-334.47265625,-393.5546875,-949.21875
363.28125,-124.0234375,-167.48046875,10.7421875
999.51171875,161.62109375,200.68359375,930.17578125
153.80859375,180.6640625,271.484375,688.4765625
-1000.0,-121.58203125,-89.35546875,-461.42578125
-1000.0,-333.0078125,-386.23046875,-996.58203125
81.54296875,-157.2265625,-204.1015625,-217.7734375
999.51171875,138.18359375,174.31640625,773.92578125
280.76171875,201.171875,291.50390625,740.72265625
-970.21484375,-84.9609375,-39.0625,-361.81640625
-1000.0,-329.58984375,-374.0234375,-1000.0
-116.2109375,-187.01171875,-242.67578125,-366.69921875
999.51171875,105.46875,132.32421875,639.16015625
468.26171875,203.61328125,300.29296875,786.1328125
-880.37109375,-40.0390625,19.04296875,-217.28515625
-1000.0,-309.5703125,-342.7734375,-1000.0
-218.75,-221.6796875,-270.99609375,-457.03125
999.51171875,70.3125,83.984375,543.45703125
710.9375,220.21484375,301.26953125,834.47265625
-661.62109375,19.04296875,82.03125,-18.06640625
-1000.0,-283.203125,-311.5234375,-933.10546875
-195.80078125,-239.74609375,-303.22265625,-559.5703125
999.51171875,46.38671875,38.57421875,442.3828125
932.12890625,223.6328125,291.50390625,872.0703125
-333.49609375,75.1953125,132.8125,153.3203125
-1000.0,-236.81640625,-270.99609375,-865.72265625
-219.23828125,-261.23046875,-332.03125,-660.64453125
983.88671875,7.8125,-10.25390625,328.125
999.51171875,221.6796875,278.3203125,852.05078125
-68.84765625,104.00390625,166.50390625,280.76171875
-1000.0,-230.46875,-250.48828125,-783.69140625
-385.7421875,-284.1796875,-359.86328125,-757.8125
903.80859375,-20.99609375,-56.15234375,211.9140625
999.51171875,209.9609375,260.7421875,862.3046875
111.328125,135.7421875,205.078125,389.6484375
-1000.0,-192.87109375,-211.42578125,-725.5859375
-591.796875,-297.36328125,-375.9765625,-843.75
777.34375,-55.6640625,-94.7265625,89.35546875
999.51171875,197.75390625,234.375,829.1015625
174.31640625,161.62109375,232.421875,480.46875
-1000.0,-167.96875,-171.38671875,-631.8359375
-848.6328125,-320.80078125,-402.83203125,-917.96875
491.2109375,-100.09765625,-150.87890625,-30.76171875
999.51171875,177.734375,210.44921875,804.6875
149.90234375,187.98828125,257.32421875,588.37890625
-1000.0,-129.39453125,-116.69921875,-504.8828125
-1000.0,-331.54296875,-391.6015625,-956.54296875
178.22265625,-141.11328125,-194.82421875,-159.66796875
999.51171875,145.5078125,174.31640625,748.046875
215.8203125,190.91796875,278.80859375,671.38671875
-1000.0,-99.12109375,-65.4296875,-395.99609375
-1000.0,-339.35546875,-386.23046875,-994.62890625
-42.48046875,-189.453125,-231.4453125,-310.546875
999.51171875,112.3046875,140.13671875,662.59765625
390.13671875,195.80078125,290.0390625,752.9296875
-918.9453125,-63.4765625,-6.34765625,-252.9296875
-1000.0,-324.70703125,-359.375,-976.07421875
-202.63671875,-219.7265625,-269.04296875,-411.62109375
999.51171875,79.1015625,89.84375,593.75
608.3984375,214.35546875,285.64453125,848.14453125
-770.01953125,-5.859375,32.2265625,-117.67578125
-1000.0,-295.41015625,-356.93359375,-1000.0
-210.9375,-231.93359375,-316.89453125,-565.4296875
999.51171875,51.26953125,38.0859375,441.40625
844.23828125,219.23828125,276.85546875,832.51953125
-480.95703125,46.38671875,88.8671875,45.8984375
-1000.0,-271.97265625,-307.6171875,-920.8984375
-189.453125,-264.16015625,-341.30859375,-667.48046875
999.51171875,14.6484375,-14.6484375,300.29296875
999.51171875,205.56640625,268.5546875,821.2890625
-168.45703125,74.21875,141.11328125,204.1015625
-1000.0,-244.140625,-275.390625,-846.6796875
-305.17578125,-286.1328125,-364.74609375,-742.67578125
942.87109375,-24.4140625,-54.6875,256.8359375
999.51171875,198.73046875,247.55859375,871.09375
36.62109375,108.88671875,172.36328125,339.35546875
-1000.0,-217.28515625,-234.86328125,-758.7890625
-493.1640625,-296.38671875,-379.8828125,-833.49609375
848.6328125,-45.41015625,-87.40234375,113.76953125
999.51171875,200.68359375,249.51171875,821.77734375
171.875,152.34375,222.16796875,420.41015625
-1000.0,-177.24609375,-186.5234375,-667.96875
-738.76953125,-316.89453125,-392.08984375,-897.4609375
632.32421875,-83.984375,-127.9296875,-20.5078125
999.51171875,186.03515625,219.7265625,799.31640625
161.62109375,172.8515625,246.58203125,554.19921875
-1000.0,-153.3203125,-140.13671875,-553.7109375
-963.8671875,-333.984375,-400.87890625,-949.70703125
307.12890625,-124.0234375,-174.31640625,-130.859375
999.51171875,158.203125,188.96484375,748.046875
170.41015625,189.453125,268.5546875,647.94921875
-1000.0,-106.93359375,-83.0078125,-407.71484375
-1000.0,-319.82421875,-390.13671875,-978.02734375
36.1328125,-153.3203125,-218.75,-265.13671875
999.51171875,138.671875,154.78515625,681.640625
317.87109375,216.796875,284.66796875,719.7265625
-952.63671875,-52.734375,-31.25,-295.41015625
-1000.0,-309.5703125,-369.62890625,-967.28515625
-149.90234375,-184.5703125,-254.8828125,-363.28125
999.51171875,106.93359375,113.28125,594.23828125
519.53125,215.8203125,297.36328125,787.59765625
-842.28515625,-19.53125,27.83203125,-153.80859375
-1000.0,-299.8046875,-342.28515625,-949.70703125
-218.75,-227.05078125,-283.69140625,-445.3125
999.51171875,59.5703125,62.5,509.765625
757.8125,220.21484375,286.1328125,829.1015625
-600.5859375,30.2734375,81.0546875,15.13671875
-1000.0,-276.85546875,-314.94140625,-921.38671875
-190.91796875,-245.1171875,-320.3125,-588.37890625
999.51171875,30.76171875,17.08984375,396.484375
956.0546875,217.28515625,284.66796875,848.6328125
-281.73828125,74.70703125,134.27734375,159.1796875
-1000.0,-245.1171875,-278.80859375,-855.95703125
-244.140625,-264.6484375,-346.19140625,-679.19921875
971.6796875,0.0,-28.80859375,273.92578125
999.51171875,213.37890625,267.578125,819.82421875
-32.2265625,110.83984375,170.41015625,306.640625
-1000.0,-223.6328125,-247.0703125,-765.625
-418.9453125,-291.015625,-367.67578125,-803.7109375
887.6953125,-19.53125,-63.4765625,148.92578125
999.51171875,215.8203125,250.0,805.17578125
131.8359375,135.7421875,192.3828125,388.18359375
-1000.0,-194.3359375,-216.796875,-685.546875
-634.27734375,-312.5,-397.4609375,-857.91015625
739.2578125,-73.2421875,-124.51171875,48.33984375
999.51171875,186.03515625,224.609375,800.29296875
176.26953125,161.62109375,236.81640625,518.06640625
-1000.0,-163.0859375,-158.69140625,-564.453125
-876.46484375,-326.171875,-399.4140625,-917.96875
453.125,-109.375,-161.62109375,-99.12109375
999.51171875,171.38671875,198.2421875,751.953125
146.484375,194.82421875,256.8359375,607.421875
-1000.0,-126.46484375,-125.48828125,-479.4921875
-1000.0,-340.33203125,-409.66796875,-970.703125
137.20703125,-145.5078125,-201.171875,-197.75390625
999.51171875,147.4609375,171.38671875,724.609375
241.2109375,206.54296875,279.78515625,703.61328125
-988.28125,-75.1953125,-53.7109375,-331.0546875
-1000.0,-325.1953125,-378.90625,-963.37890625
-73.73046875,-182.12890625,-235.83984375,-313.96484375
999.51171875,116.69921875,137.20703125,632.8125
425.78125,208.984375,291.015625,749.0234375
-901.85546875,-38.0859375,0.9765625,-228.02734375
-1000.0,-308.10546875,-356.93359375,-980.95703125
-210.9375,-211.42578125,-272.4609375,-414.0625
999.51171875,79.1015625,88.8671875,551.26953125
660.64453125,214.84375,296.875,784.1796875
-714.84375,6.8359375,58.10546875,-69.82421875
-1000.0,-291.9921875,-332.03125,-941.40625
-203.61328125,-237.3046875,-299.8046875,-533.69140625
999.51171875,50.29296875,49.8046875,451.66015625
883.7890625,216.796875,293.9453125,837.40234375
-415.0390625,44.921875,113.28125,87.40234375
-1000.0,-266.11328125,-294.43359375,-892.578125
-202.63671875,-266.6015625,-327.63671875,-656.73828125
997.55859375,7.8125,-4.39453125,306.15234375
999.51171875,208.0078125,271.97265625,813.4765625
-125.9765625,81.0546875,155.2734375,211.42578125
-1000.0,-244.140625,-253.90625,-821.77734375
-347.16796875,-312.01171875,-370.1171875,-771.97265625
922.8515625,-47.36328125,-66.40625,177.24609375
999.51171875,205.078125,261.23046875,819.82421875
70.80078125,125.9765625,192.3828125,364.74609375
-1000.0,-209.47265625,-227.05078125,-716.796875
-539.55078125,-310.546875,-386.71875,-833.0078125
816.40625,-58.59375,-98.6328125,93.26171875
999.51171875,197.265625,233.88671875,813.4765625
173.828125,149.4140625,217.7734375,487.3046875
-1000.0,-181.15234375,-182.6171875,-610.3515625
-783.69140625,-324.21875,-396.97265625,-911.62109375
577.1484375,-98.6328125,-144.53125,-41.015625
999.51171875,176.26953125,212.890625,785.64453125
156.25,181.15234375,251.46484375,562.5
-1000.0,-130.37109375,-126.953125,-533.203125
-992.1875,-322.75390625,-394.04296875,-952.63671875
253.90625,-127.9296875,-177.24609375,-147.4609375
999.51171875,159.66796875,198.2421875,734.375
182.6171875,192.87109375,281.25,646.484375
-1000.0,-99.609375,-72.75390625,-404.296875
-1000.0,-323.73046875,-384.765625,-979.00390625
10.25390625,-164.0625,-225.09765625,-288.57421875
999.51171875,136.71875,145.99609375,658.69140625
349.609375,211.42578125,281.73828125,714.84375
-937.98828125,-55.17578125,-28.80859375,-289.0625
-1000.0,-302.24609375,-364.74609375,-967.7734375
-173.828125,-188.4765625,-254.8828125,-371.58203125
999.51171875,99.609375,99.609375,577.63671875
564.453125,225.5859375,286.62109375,771.97265625
-808.59375,0.0,32.2265625,-133.30078125
-1000.0,-298.33984375,-344.23828125,-950.68359375
-217.28515625,-232.91015625,-294.43359375,-489.2578125
999.51171875,71.77734375,60.546875,475.5859375
797.8515625,230.46875,294.43359375,810.05859375
-547.36328125,29.78515625,85.44921875,16.11328125
-1000.0,-290.0390625,-324.70703125,-910.64453125
-186.03515625,-260.25390625,-328.125,-579.58984375
999.51171875,25.87890625,15.13671875,385.25390625
982.421875,216.30859375,280.76171875,840.33203125
-223.6328125,77.63671875,138.671875,202.1484375
-1000.0,-244.140625,-270.99609375,-804.6875
-271.484375,-273.4375,-345.21484375,-663.57421875
958.49609375,-8.30078125,-26.3671875,280.76171875
999.51171875,207.03125,266.6015625,838.8671875
0.9765625,111.81640625,176.26953125,333.49609375
-1000.0,-212.890625,-231.4453125,-729.98046875
-458.984375,-314.453125,-378.90625,-794.43359375
866.69921875,-72.265625,-90.33203125,132.8125
999.51171875,195.80078125,256.8359375,833.0078125
152.83203125,142.578125,224.609375,451.66015625
-1000.0,-193.84765625,-184.5703125,-649.90234375
-685.05859375,-318.84765625,-369.140625,-867.1875
689.94140625,-83.49609375,-105.46875,37.59765625
999.51171875,178.7109375,235.3515625,808.59375
168.9453125,163.57421875,252.44140625,524.4140625
-1000.0,-159.66796875,-141.11328125,-569.82421875
-920.8984375,-326.66015625,-383.30078125,-910.64453125
380.37109375,-121.09375,-154.78515625,-91.30859375
999.51171875,147.4609375,194.82421875,735.3515625
155.2734375,175.78125,266.6015625,618.1640625
-1000.0,-121.09375,-87.40234375,-453.125
-1000.0,-331.54296875,-384.765625,-967.7734375
93.26171875,-158.69140625,-197.75390625,-206.54296875
999.51171875,137.20703125,182.12890625,727.05078125
270.99609375,205.56640625,298.828125,708.49609375
-976.07421875,-77.63671875,-33.69140625,-342.28515625
-1000.0,-324.21875,-367.1875,-986.328125
-98.14453125,-188.4765625,-229.4921875,-337.40234375
999.51171875,112.3046875,134.27734375,628.41796875
456.54296875,209.47265625,291.50390625,749.0234375
-886.71875,-40.0390625,12.20703125,-197.265625
-1000.0,-302.24609375,-350.09765625,-949.21875
-217.7734375,-210.9375,-279.296875,-440.4296875
999.51171875,82.03125,77.1484375,520.5078125
700.68359375,228.02734375,294.43359375,805.17578125
-672.8515625,21.484375,67.87109375,-35.15625
-1000.0,-282.71484375,-335.44921875,-932.6171875
-196.77734375,-240.234375,-323.73046875,-553.7109375
999.51171875,54.6875,30.2734375,419.921875
927.734375,230.95703125,287.59765625,831.54296875
-341.796875,68.84765625,121.09375,127.9296875
-1000.0,-251.953125,-289.0625,-869.62890625
-216.796875,-260.7421875,-338.8671875,-654.296875
988.28125,12.20703125,-16.6015625,299.8046875
999.51171875,220.21484375,265.625,820.80078125
-85.9375,110.3515625,154.78515625,256.8359375
-1000.0,-225.09765625,-252.9296875,-792.96875
-380.859375,-287.109375,-362.79296875,-736.81640625
906.25,-28.3203125,-58.10546875,204.58984375
999.51171875,205.56640625,257.32421875,817.87109375
99.609375,133.30078125,188.96484375,374.0234375
-1000.0,-197.265625,-228.515625,-715.33203125
-583.984375,-307.12890625,-393.5546875,-848.14453125
782.71484375,-69.82421875,-114.2578125,84.47265625
999.51171875,188.4765625,226.5625,831.0546875
173.828125,159.66796875,230.46875,497.0703125
-1000.0,-167.96875,-165.0390625,-608.3984375
-838.8671875,-323.73046875,-390.625,-908.203125
504.39453125,-106.93359375,-144.53125,-41.9921875
999.51171875,165.52734375,209.47265625,784.1796875
150.87890625,175.78125,254.8828125,578.125
-1000.0,-132.32421875,-119.140625,-514.6484375
-1000.0,-328.125,-392.08984375,-955.56640625
192.87109375,-138.18359375,-187.98828125,-145.01953125
999.51171875,155.76171875,177.24609375,768.06640625
208.0078125,201.66015625,279.78515625,693.84765625
-1000.0,-87.890625,-61.03515625,-380.859375
-1000.0,-323.2421875,-381.8359375,-978.515625
-30.2734375,-181.15234375,-233.3984375,-285.64453125
999.51171875,117.1875,137.6953125,662.59765625
385.7421875,214.35546875,288.57421875,738.28125
-921.38671875,-44.921875,-14.16015625,-265.625
-1000.0,-308.59375,-364.2578125,-987.79296875
-191.89453125,-199.70703125,-260.25390625,-398.92578125
999.51171875,95.703125,98.14453125,580.078125
601.07421875,223.14453125,289.0625,803.7109375
-774.90234375,0.9765625,44.921875,-99.12109375
-1000.0,-294.43359375,-333.984375,-935.546875
-211.9140625,-240.234375,-298.828125,-487.3046875
999.51171875,54.6875,53.22265625,465.33203125
838.37890625,222.65625,289.55078125,826.171875
-490.72265625,38.0859375,94.7265625,57.12890625
-1000.0,-274.4140625,-306.15234375,-915.52734375
-184.08203125,-258.7890625,-322.75390625,-616.69921875
999.51171875,20.01953125,7.32421875,356.93359375
999.51171875,220.703125,272.94921875,825.1953125
-179.19921875,85.9375,145.99609375,197.75390625
-1000.0,-250.48828125,-266.6015625,-831.0546875
-299.8046875,-283.203125,-355.46875,-712.890625
945.3125,-14.6484375,-32.2265625,265.13671875
999.51171875,198.2421875,270.5078125,856.93359375
29.296875,108.88671875,189.94140625,339.35546875
-1000.0,-220.21484375,-217.28515625,-747.0703125
-488.28125,-305.17578125,-366.69921875,-812.01171875
852.05078125,-42.96875,-77.1484375,141.11328125
999.51171875,208.984375,256.8359375,840.33203125
162.59765625,148.92578125,222.16796875,436.5234375
-1000.0,-188.96484375,-187.98828125,-666.50390625
-725.5859375,-326.66015625,-392.08984375,-876.46484375
645.5078125,-87.890625,-126.46484375,42.48046875
999.51171875,182.12890625,227.05078125,833.984375
162.59765625,163.57421875,247.0703125,542.96875
-1000.0,-161.62109375,-137.6953125,-556.640625
-958.984375,-333.49609375,-386.23046875,-939.453125
316.40625,-131.34765625,-164.55078125,-119.140625
999.51171875,151.85546875,201.171875,762.20703125
165.0390625,185.546875,274.4140625,640.13671875
-1000.0,-119.62890625,-84.9609375,-444.3359375
-1000.0,-337.40234375,-384.765625,-972.16796875
45.41015625,-166.50390625,-213.8671875,-234.375
999.51171875,132.32421875,154.296875,686.5234375
303.22265625,198.73046875,276.85546875,686.03515625
-959.9609375,-67.87109375,-41.9921875,-336.42578125
-1000.0,-318.359375,-379.39453125,-983.88671875
-135.7421875,-200.68359375,-252.44140625,-354.00390625
999.51171875,99.12109375,115.72265625,622.0703125
499.51171875,211.42578125,286.1328125,787.59765625
-855.95703125,-27.83203125,19.04296875,-193.84765625
-1000.0,-307.6171875,-347.16796875,-1000.0
-219.23828125,-222.65625,-284.66796875,-473.6328125
999.51171875,66.40625,65.91796875,541.50390625
739.74609375,212.40234375,287.59765625,838.37890625
-624.0234375,20.5078125,77.1484375,-32.71484375
-1000.0,-281.73828125,-321.77734375,-935.546875
-192.87109375,-247.55859375,-313.4765625,-544.921875
999.51171875,34.66796875,29.296875,416.9921875
949.70703125,211.42578125,282.71484375,839.84375
-296.38671875,57.6171875,130.37109375,156.25
-1000.0,-266.11328125,-276.85546875,-870.1171875
-237.3046875,-278.80859375,-335.44921875,-676.26953125
975.5859375,-6.34765625,-13.671875,312.01171875
999.51171875,207.03125,273.92578125,853.02734375
-48.33984375,98.6328125,169.921875,267.08984375
-1000.0,-235.3515625,-242.1875,-810.546875
-406.73828125,-296.875,-363.76953125,-777.83203125
893.06640625,-31.73828125,-64.94140625,232.421875
999.51171875,211.9140625,253.90625,912.59765625
127.44140625,135.25390625,204.1015625,409.66796875
-1000.0,-200.1953125,-197.75390625,-722.65625
-620.1171875,-310.05859375,-372.55859375,-854.00390625
752.9296875,-71.77734375,-103.02734375,114.74609375
999.51171875,188.4765625,236.328125,878.41796875
177.734375,166.015625,239.74609375,506.8359375
-1000.0,-160.64453125,-155.2734375,-619.140625
-868.1640625,-323.2421875,-389.16015625,-931.640625
464.84375,-111.81640625,-149.4140625,-13.671875
999.51171875,166.9921875,211.9140625,902.34375
147.4609375,179.6875,263.18359375,660.64453125
-1000.0,-125.48828125,-110.3515625,-497.55859375
-1000.0,-329.1015625,-389.6484375,-975.5859375
152.34375,-150.390625,-191.40625,-154.296875
999.51171875,150.87890625,178.22265625,827.1484375
231.4453125,199.21875,273.4375,741.69921875
-993.1640625,-88.37890625,-63.4765625,-383.30078125
-1000.0,-320.80078125,-379.39453125,-994.140625
-62.5,-180.17578125,-238.76953125,-319.3359375
999.51171875,111.328125,125.9765625,628.90625
417.48046875,208.49609375,281.73828125,740.72265625
-904.78515625,-38.57421875,-6.8359375,-237.3046875
-1000.0,-306.640625,-360.83984375,-982.421875
-208.0078125,-199.21875,-269.53125,-403.80859375
999.51171875,97.16796875,94.23828125,591.796875
644.04296875,223.14453125,294.43359375,811.5234375
-731.93359375,8.30078125,53.7109375,-95.703125
-1000.0,-286.62109375,-332.51953125,-958.0078125
-205.078125,-235.3515625,-309.08203125,-486.328125
999.51171875,47.36328125,35.64453125,520.5078125
877.44140625,220.21484375,281.73828125,855.95703125
-425.29296875,52.24609375,101.07421875,43.9453125
-1000.0,-262.20703125,-301.26953125,-951.66015625
-198.73046875,-262.20703125,-335.44921875,-665.0390625
999.51171875,10.25390625,-10.25390625,334.9609375
999.51171875,213.37890625,270.5078125,857.91015625
-136.23046875,82.51953125,148.4375,204.1015625
-1000.0,-249.0234375,-262.6953125,-878.41796875
-335.9375,-291.015625,-355.95703125,-733.3984375
928.7109375,-25.87890625,-51.26953125,253.90625
999.51171875,204.58984375,254.8828125,810.546875
57.12890625,123.53515625,188.96484375,309.5703125
-1000.0,-213.37890625,-221.6796875,-760.7421875
-522.4609375,-309.5703125,-380.37109375,-818.359375
828.125,-60.546875,-96.19140625,131.8359375
999.51171875,190.91796875,240.234375,826.171875
173.828125,143.06640625,229.98046875,451.66015625
-1000.0,-180.17578125,-168.9453125,-651.85546875
-763.671875,-322.265625,-387.6953125,-905.76171875
602.05078125,-102.5390625,-137.20703125,44.43359375
999.51171875,174.8046875,218.26171875,896.97265625
158.203125,177.24609375,255.859375,608.88671875
-1000.0,-138.671875,-124.51171875,-543.45703125
-983.3984375,-323.2421875,-390.13671875,-966.796875
272.4609375,-118.1640625,-174.31640625,-117.67578125
999.51171875,170.41015625,198.73046875,806.15234375
178.22265625,197.265625,275.87890625,664.0625
-1000.0,-102.05078125,-84.47265625,-438.4765625
-1000.0,-323.73046875,-387.6953125,-995.60546875
17.578125,-155.2734375,-220.21484375,-268.06640625
999.51171875,140.13671875,149.90234375,704.1015625
340.8203125,206.54296875,282.2265625,734.86328125
-942.3828125,-60.546875,-28.3203125,-292.48046875
-1000.0,-313.96484375,-369.140625,-970.703125
-165.0390625,-192.87109375,-262.6953125,-372.0703125
999.51171875,98.14453125,101.07421875,602.05078125
544.921875,220.703125,289.55078125,801.26953125
-822.75390625,-7.32421875,25.390625,-135.7421875
-1000.0,-292.48046875,-350.09765625,-956.0546875
-219.23828125,-216.30859375,-291.50390625,-460.44921875
999.51171875,69.82421875,63.4765625,512.6953125
788.0859375,218.75,291.9921875,816.89453125
-560.546875,23.92578125,86.9140625,4.39453125
-1000.0,-284.1796875,-307.6171875,-929.19921875
-187.5,-258.7890625,-315.4296875,-583.984375
999.51171875,24.4140625,19.53125,405.76171875
974.609375,216.796875,280.76171875,854.98046875
-240.72265625,73.2421875,134.27734375,166.015625
-1000.0,-253.90625,-271.484375,-852.5390625
-265.13671875,-279.296875,-342.28515625,-666.9921875
961.9140625,-10.7421875,-25.87890625,305.17578125
999.51171875,207.51953125,267.08984375,874.51171875
-12.20703125,110.3515625,174.31640625,300.29296875
-1000.0,-219.23828125,-237.79296875,-794.921875
-446.77734375,-304.6875,-372.55859375,-807.12890625
872.55859375,-51.26953125,-78.61328125,265.625
999.51171875,195.80078125,247.0703125,999.51171875
146.97265625,135.7421875,206.54296875,456.54296875
-1000.0,-198.73046875,-204.1015625,-703.61328125
-672.8515625,-321.77734375,-391.6015625,-899.4140625
700.68359375,-77.63671875,-122.0703125,-5.859375
999.51171875,189.453125,223.6328125,801.26953125
170.8984375,165.52734375,235.83984375,513.18359375
-1000.0,-156.25,-152.34375,-599.609375
-909.1796875,-321.77734375,-393.06640625,-936.5234375
400.390625,-107.421875,-155.76171875,-59.08203125
999.51171875,166.9921875,205.078125,832.03125
149.90234375,181.15234375,267.08984375,620.60546875
-1000.0,-115.234375,-97.65625,-492.67578125
-1000.0,-319.82421875,-387.6953125,-971.6796875
103.02734375,-144.53125,-196.2890625,-187.01171875
999.51171875,146.484375,172.36328125,786.62109375
263.671875,205.56640625,288.0859375,721.19140625
-979.4921875,-77.63671875,-38.0859375,-372.0703125
-1000.0,-319.82421875,-373.53515625,-983.3984375
-92.7734375,-183.59375,-241.69921875,-344.23828125
999.51171875,114.74609375,128.90625,637.6953125
449.70703125,216.30859375,292.48046875,796.875
-890.13671875,-32.71484375,14.6484375,-222.16796875
-1000.0,-312.01171875,-348.14453125,-1000.0
-215.8203125,-225.5859375,-279.78515625,-480.95703125
999.51171875,64.453125,78.61328125,562.5
687.5,204.58984375,290.52734375,860.83984375
-686.5234375,0.48828125,57.12890625,-55.6640625
-1000.0,-298.828125,-333.0078125,-961.9140625
-199.21875,-251.46484375,-315.91796875,-587.890625
999.51171875,36.1328125,27.83203125,390.625
912.109375,212.40234375,280.76171875,812.5
-366.69921875,52.24609375,108.88671875,92.28515625
-1000.0,-260.25390625,-294.921875,-885.7421875
-212.40234375,-268.06640625,-333.49609375,-664.0625
989.2578125,4.8828125,-14.16015625,299.31640625
999.51171875,212.890625,265.625,819.82421875
-87.40234375,88.8671875,152.83203125,236.81640625
-1000.0,-241.69921875,-256.34765625,-794.921875
-374.51171875,-293.45703125,-367.67578125,-761.71875
910.64453125,-31.25,-66.40625,173.828125
999.51171875,200.1953125,253.90625,816.40625
89.35546875,126.46484375,197.265625,359.375
-1000.0,-207.03125,-213.8671875,-721.6796875
-574.70703125,-316.40625,-381.8359375,-858.3984375
789.55078125,-63.96484375,-96.6796875,63.96484375
999.51171875,190.91796875,241.2109375,807.6171875
173.828125,145.99609375,229.98046875,470.21484375
-1000.0,-182.12890625,-171.875,-622.55859375
-821.77734375,-330.56640625,-395.5078125,-906.73828125
526.85546875,-104.00390625,-143.06640625,-46.875
999.51171875,177.24609375,213.8671875,786.1328125
152.34375,182.6171875,250.48828125,574.21875
-1000.0,-131.8359375,-130.859375,-528.3203125
-1000.0,-321.77734375,-400.390625,-961.9140625
207.03125,-125.48828125,-185.546875,-147.4609375
999.51171875,162.59765625,185.05859375,754.8828125
203.61328125,202.1484375,271.484375,668.9453125
-1000.0,-94.7265625,-72.75390625,-389.6484375
-1000.0,-333.49609375,-383.7890625,-967.28515625
-19.53125,-174.8046875,-224.12109375,-272.94921875
999.51171875,131.34765625,143.06640625,648.92578125
375.0,215.33203125,286.1328125,710.44921875
-926.26953125,-52.734375,-21.484375,-270.99609375
-1000.0,-317.3828125,-374.0234375,-981.4453125
-187.5,-203.125,-265.13671875,-404.78515625
999.51171875,98.14453125,98.14453125,554.19921875
590.8203125,214.84375,288.0859375,774.90234375
-785.64453125,-14.16015625,43.45703125,-87.890625
-1000.0,-290.52734375,-328.61328125,-941.89453125
-212.890625,-223.14453125,-291.015625,-531.25
999.51171875,59.08203125,51.26953125,416.9921875
830.078125,219.23828125,279.296875,742.1875
-503.41796875,36.62109375,71.77734375,-37.109375
-1000.0,-268.5546875,-337.40234375,-972.65625
-183.10546875,-248.046875,-364.2578125,-703.61328125
999.51171875,24.90234375,-41.50390625,239.2578125
998.046875,224.12109375,233.88671875,699.21875
-188.4765625,92.28515625,100.5859375,76.66015625
-1000.0,-231.4453125,-327.1484375,-898.4375
-296.875,-265.13671875,-406.73828125,-791.9921875
947.75390625,15.625,-83.0078125,134.27734375
999.51171875,238.76953125,206.0546875,723.14453125
18.5546875,125.48828125,120.1171875,225.09765625
-1000.0,-209.9609375,-289.55078125,-798.828125
-481.93359375,-294.921875,-429.6875,-863.28125
854.98046875,-57.12890625,-133.7890625,37.109375
999.51171875,190.4296875,198.2421875,746.58203125
157.71484375,152.83203125,170.8984375,355.95703125
-1000.0,-164.55078125,-227.05078125,-701.66015625
-722.16796875,-280.76171875,-422.8515625,-888.18359375
648.4375,-47.36328125,-165.0390625,-1.46484375
999.51171875,201.171875,190.91796875,790.52734375
164.0625,182.6171875,216.796875,510.25390625
-1000.0,-116.69921875,-152.83203125,-584.9609375
-949.21875,-289.55078125,-394.04296875,-942.3828125
332.51953125,-93.26171875,-185.546875,-121.58203125
999.51171875,189.94140625,178.22265625,744.62890625
165.52734375,207.03125,261.23046875,617.1875
-1000.0,-103.515625,-90.8203125,-441.40625
-1000.0,-318.84765625,-383.30078125,-957.51953125
60.546875,-146.484375,-204.1015625,-215.8203125
999.51171875,151.85546875,159.66796875,713.37890625
300.29296875,219.23828125,270.01953125,719.23828125
-961.42578125,-53.7109375,-49.8046875,-296.875
-1000.0,-302.24609375,-375.0,-968.75
-130.37109375,-181.15234375,-258.7890625,-352.5390625
999.51171875,114.74609375,105.95703125,624.51171875
496.09375,233.3984375,293.9453125,791.50390625
-858.3984375,-0.9765625,16.11328125,-154.296875
-1000.0,-289.0625,-366.69921875,-948.73046875
-218.75,-215.8203125,-290.52734375,-441.40625
999.51171875,67.3828125,72.75390625,528.80859375
738.28125,225.5859375,296.38671875,816.89453125
-625.0,24.4140625,87.40234375,-20.5078125
-1000.0,-287.59765625,-307.6171875,-923.33984375
-193.84765625,-239.2578125,-309.5703125,-549.31640625
999.51171875,50.78125,22.4609375,439.453125
941.40625,226.07421875,283.203125,862.3046875
-313.4765625,70.80078125,125.48828125,135.25390625
-1000.0,-252.44140625,-282.71484375,-875.0
-229.98046875,-270.99609375,-339.35546875,-670.41015625
979.00390625,5.37109375,-20.99609375,308.10546875
999.51171875,215.8203125,274.4140625,846.19140625
-56.640625,96.19140625,171.38671875,278.80859375
-1000.0,-231.4453125,-243.1640625,-778.3203125
-398.92578125,-280.76171875,-357.91015625,-741.69921875
896.484375,-26.85546875,-66.40625,214.35546875
999.51171875,188.96484375,248.53515625,829.58984375
124.51171875,125.0,197.265625,370.60546875
-1000.0,-195.3125,-212.890625,-714.35546875
-610.3515625,-311.03515625,-380.37109375,-848.14453125
762.6953125,-78.61328125,-110.83984375,75.68359375
999.51171875,178.7109375,221.19140625,812.98828125
173.33984375,160.15625,231.4453125,483.88671875
-1000.0,-156.25,-162.109375,-612.3046875
-859.86328125,-324.21875,-409.66796875,-929.6875
475.09765625,-117.67578125,-175.78125,-65.91796875
999.51171875,157.2265625,195.3125,787.109375
147.94921875,164.0625,255.859375,578.125
-1000.0,-131.34765625,-107.421875,-510.25390625
-1000.0,-318.84765625,-384.27734375,-960.44921875
155.2734375,-138.18359375,-182.6171875,-170.41015625
999.51171875,143.5546875,187.5,752.9296875
229.4921875,205.56640625,293.45703125,693.359375
-994.62890625,-73.73046875,-42.48046875,-377.9296875
-1000.0,-327.63671875,-378.90625,-999.0234375
-56.15234375,-181.15234375,-229.00390625,-302.24609375
999.51171875,119.62890625,144.04296875,668.45703125
410.15625,207.03125,289.0625,745.1171875
-909.1796875,-48.33984375,-4.39453125,-229.98046875
-1000.0,-310.546875,-356.4453125,-969.23828125
-202.63671875,-205.078125,-270.5078125,-401.3671875
999.51171875,92.7734375,86.9140625,583.0078125
634.765625,211.42578125,286.62109375,804.19921875
-740.72265625,-7.8125,45.8984375,-93.75
-1000.0,-293.45703125,-324.70703125,-941.89453125
-206.0546875,-244.140625,-284.66796875,-503.90625
999.51171875,39.55078125,57.6171875,475.5859375
871.58203125,210.44921875,285.64453125,841.796875
-435.546875,42.96875,93.75,79.58984375
-1000.0,-265.13671875,-297.8515625,-896.97265625
-195.3125,-251.953125,-317.87109375,-631.8359375
999.51171875,20.5078125,10.25390625,354.00390625
999.51171875,203.61328125,278.3203125,838.37890625
-149.4140625,75.1953125,140.625,194.3359375
-1000.0,-240.72265625,-275.87890625,-842.28515625
-321.2890625,-269.04296875,-347.65625,-722.65625
935.05859375,-7.32421875,-32.71484375,256.34765625
999.51171875,201.171875,256.8359375,853.515625
50.29296875,120.60546875,181.15234375,339.84375
-1000.0,-207.03125,-230.46875,-755.37109375
-512.6953125,-302.734375,-375.0,-828.125
835.44921875,-54.19921875,-86.9140625,112.79296875
999.51171875,194.82421875,241.69921875,821.77734375
171.875,147.4609375,221.6796875,461.42578125
-1000.0,-184.5703125,-186.5234375,-646.484375
-759.27734375,-322.75390625,-400.87890625,-902.83203125
607.421875,-83.49609375,-139.6484375,-15.625
999.51171875,186.5234375,223.14453125,785.15625
158.69140625,168.9453125,253.41796875,523.4375
-1000.0,-147.94921875,-130.37109375,-561.5234375
-979.98046875,-326.171875,-386.23046875,-937.5
278.3203125,-120.1171875,-167.48046875,-114.2578125
999.51171875,162.109375,193.84765625,768.06640625
175.29296875,185.05859375,270.5078125,639.6484375
-1000.0,-104.4921875,-75.1953125,-430.17578125
-1000.0,-325.68359375,-383.7890625,-982.91015625
21.484375,-170.41015625,-233.3984375,-288.57421875
999.51171875,125.48828125,136.71875,672.8515625
330.078125,201.171875,296.38671875,750.9765625
-947.265625,-66.89453125,-3.90625,-278.80859375
-1000.0,-331.54296875,-360.83984375,-998.046875
-162.109375,-211.9140625,-251.46484375,-376.953125
999.51171875,88.8671875,108.88671875,594.23828125
538.0859375,201.66015625,286.1328125,759.27734375
-827.63671875,-35.15625,23.4375,-163.57421875
-1000.0,-307.6171875,-347.16796875,-971.6796875
-220.703125,-225.09765625,-294.921875,-492.67578125
999.51171875,62.98828125,63.96484375,478.515625
779.296875,215.33203125,292.96875,791.50390625
-572.265625,26.85546875,81.54296875,-0.48828125
-1000.0,-271.484375,-305.17578125,-892.08984375
-188.96484375,-252.9296875,-313.4765625,-561.5234375
999.51171875,20.01953125,11.71875,365.234375
966.796875,211.42578125,274.4140625,791.015625
-257.32421875,61.5234375,128.90625,134.765625
-1000.0,-263.18359375,-275.87890625,-868.1640625
-259.765625,-277.83203125,-337.890625,-691.89453125
963.8671875,-5.859375,-22.94921875,272.4609375
999.51171875,201.66015625,261.23046875,815.4296875
-17.08984375,95.703125,163.57421875,287.59765625
-1000.0,-231.4453125,-247.55859375,-763.671875
-439.453125,-300.29296875,-371.58203125,-777.34375
876.953125,-45.8984375,-81.54296875,159.66796875
999.51171875,191.89453125,229.4921875,805.6640625
142.08984375,128.90625,193.359375,380.859375
-1000.0,-195.80078125,-204.58984375,-691.89453125
-659.66796875,-307.12890625,-389.6484375,-861.328125
713.8671875,-77.1484375,-120.60546875,52.24609375
999.51171875,174.8046875,226.07421875,808.10546875
172.8515625,156.25,236.328125,499.0234375
-1000.0,-167.48046875,-151.85546875,-590.33203125
-898.4375,-333.984375,-389.6484375,-912.59765625
416.50390625,-117.1875,-162.109375,-77.1484375
999.51171875,166.015625,194.3359375,758.7890625
149.4140625,174.8046875,255.859375,604.98046875
-1000.0,-137.20703125,-107.421875,-475.09765625
-1000.0,-338.37890625,-393.06640625,-957.51953125
113.28125,-153.3203125,-201.66015625,-200.68359375
999.51171875,131.8359375,160.15625,704.1015625
256.8359375,187.5,266.6015625,691.89453125
-982.421875,-80.56640625,-52.734375,-329.58984375
-1000.0,-323.2421875,-381.34765625,-968.75
-85.44921875,-187.5,-244.140625,-334.47265625
999.51171875,112.3046875,120.1171875,615.234375
445.3125,205.56640625,261.23046875,739.2578125
-892.08984375,-40.0390625,-16.6015625,-212.890625
-1000.0,-312.5,-354.00390625,-956.54296875
-213.8671875,-229.00390625,-270.99609375,-431.640625
999.51171875,71.2890625,87.890625,557.6171875
678.7109375,218.26171875,298.828125,821.77734375
-695.3125,13.671875,65.4296875,-55.6640625
-1000.0,-282.71484375,-326.171875,-928.7109375
-200.68359375,-236.81640625,-309.5703125,-525.390625
999.51171875,45.8984375,33.203125,458.984375
905.2734375,217.28515625,281.73828125,842.7734375
-377.9296875,54.6875,113.28125,87.40234375
-1000.0,-261.71875,-284.1796875,-891.11328125
-210.44921875,-265.13671875,-330.56640625,-641.6015625
991.2109375,5.859375,-11.71875,323.2421875
999.51171875,201.66015625,272.4609375,833.0078125
-99.12109375,85.9375,160.15625,252.44140625
-1000.0,-236.81640625,-250.48828125,-796.38671875
-368.1640625,-278.3203125,-350.09765625,-736.81640625
913.0859375,-14.6484375,-45.8984375,220.21484375
999.51171875,206.0546875,251.953125,831.54296875
87.40234375,125.0,175.29296875,365.72265625
-1000.0,-208.0078125,-228.02734375,-715.33203125
-562.98828125,-312.98828125,-375.48828125,-820.80078125
798.33984375,-71.77734375,-90.8203125,105.46875
999.51171875,181.15234375,244.62890625,831.0546875
173.828125,142.578125,234.375,492.67578125
-1000.0,-193.84765625,-163.57421875,-621.09375
-813.4765625,-345.21484375,-378.41796875,-902.34375
537.59765625,-119.62890625,-126.953125,-26.85546875
999.51171875,147.94921875,227.05078125,791.50390625
152.83203125,147.4609375,271.484375,566.89453125
-1000.0,-167.48046875,-98.6328125,-532.71484375
-1000.0,-358.3984375,-365.234375,-970.703125
214.35546875,-174.8046875,-155.76171875,-168.45703125
999.51171875,103.515625,212.40234375,757.8125
192.3828125,146.484375,299.31640625,654.296875
-1000.0,-137.20703125,-41.50390625,-427.734375
-1000.0,-365.234375,-347.65625,-1000.0
-16.11328125,-216.796875,-191.40625,-331.54296875
999.51171875,84.47265625,179.19921875,615.72265625
359.86328125,169.43359375,321.77734375,681.15234375
-934.5703125,-100.09765625,9.27734375,-293.45703125
-1000.0,-361.81640625,-349.609375,-989.2578125
-185.05859375,-245.60546875,-241.2109375,-417.48046875
999.51171875,60.546875,129.8828125,589.84375
580.56640625,190.91796875,321.77734375,833.49609375
-794.921875,-34.66796875,73.2421875,-86.42578125
-1000.0,-314.94140625,-299.8046875,-937.5
-213.8671875,-242.1875,-251.46484375,-358.88671875
999.51171875,45.41015625,92.7734375,692.87109375
824.70703125,196.77734375,317.87109375,915.0390625
-511.23046875,20.99609375,123.046875,82.51953125
-1000.0,-291.015625,-270.99609375,-871.58203125
-184.08203125,-272.94921875,-283.69140625,-560.546875
999.51171875,10.7421875,40.0390625,407.71484375
989.2578125,198.73046875,295.8984375,874.0234375
-205.56640625,51.26953125,156.73828125,223.14453125
-1000.0,-277.34375,-246.58203125,-837.40234375
-287.59765625,-303.22265625,-317.87109375,-673.828125
951.171875,-25.87890625,-5.859375,319.82421875
999.51171875,197.75390625,287.59765625,878.90625
14.6484375,95.703125,193.84765625,355.95703125
-1000.0,-229.00390625,-215.8203125,-732.421875
-474.609375,-306.15234375,-351.07421875,-761.71875
858.3984375,-56.640625,-61.03515625,228.515625
999.51171875,189.94140625,266.6015625,958.0078125
159.66796875,139.16015625,234.86328125,529.78515625
-1000.0,-189.94140625,-169.921875,-645.01953125
-708.984375,-321.2890625,-367.1875,-856.4453125
665.0390625,-81.0546875,-106.4453125,66.40625
999.51171875,181.640625,240.72265625,883.7890625
165.52734375,157.2265625,257.8125,600.5859375
-1000.0,-151.85546875,-129.8828125,-555.17578125
-939.453125,-325.1953125,-378.41796875,-919.43359375
349.12109375,-128.41796875,-154.296875,-43.45703125
999.51171875,160.64453125,206.0546875,823.2421875
161.62109375,190.4296875,273.92578125,652.83203125
-1000.0,-115.72265625,-85.9375,-447.265625
-1000.0,-330.56640625,-376.953125,-958.984375
70.80078125,-159.66796875,-195.3125,-185.546875
999.51171875,137.20703125,173.33984375,742.1875
290.0390625,206.54296875,286.1328125,724.12109375
-966.30859375,-69.82421875,-34.66796875,-324.21875
-1000.0,-315.4296875,-362.79296875,-974.12109375
-120.1171875,-178.22265625,-239.74609375,-304.6875
999.51171875,117.67578125,124.51171875,656.25
482.91015625,216.30859375,295.41015625,777.34375
-867.1875,-25.390625,23.92578125,-168.45703125
-1000.0,-300.78125,-347.65625,-948.73046875
-220.21484375,-222.65625,-282.71484375,-437.98828125
999.51171875,68.359375,76.171875,539.0625
723.6328125,221.6796875,291.9921875,817.3828125
-644.53125,13.671875,68.359375,-37.59765625
-1000.0,-285.15625,-312.5,-935.05859375
-194.82421875,-244.140625,-295.8984375,-557.12890625
999.51171875,37.109375,35.64453125,419.43359375
937.5,218.75,286.1328125,839.35546875
-321.77734375,60.05859375,127.44140625,137.6953125
-1000.0,-257.8125,-273.4375,-853.515625
-226.5625,-271.97265625,-332.51953125,-626.953125
980.46875,-3.90625,-13.671875,339.84375
999.51171875,214.35546875,271.97265625,859.375
-60.546875,105.46875,164.0625,296.875
-1000.0,-229.98046875,-245.1171875,-779.78515625
-394.53125,-292.48046875,-359.86328125,-758.30078125
898.4375,-28.3203125,-57.6171875,189.453125
999.51171875,205.56640625,259.27734375,818.84765625
123.046875,137.6953125,204.1015625,376.46484375
-1000.0,-185.546875,-203.125,-700.68359375
-604.4921875,-301.7578125,-375.48828125,-854.4921875
767.08984375,-67.3828125,-113.76953125,58.59375
999.51171875,183.10546875,218.75,810.546875
175.29296875,159.66796875,226.07421875,495.1171875
-1000.0,-160.15625,-163.57421875,-601.07421875
-854.4921875,-323.2421875,-386.71875,-900.87890625
482.91015625,-110.3515625,-142.08984375,-43.45703125
999.51171875,169.921875,211.9140625,787.109375
148.4375,179.19921875,255.859375,559.5703125
-1000.0,-133.7890625,-122.55859375,-540.52734375
-1000.0,-327.63671875,-400.87890625,-983.3984375
163.57421875,-130.859375,-188.96484375,-185.05859375
999.51171875,160.15625,179.19921875,749.0234375
225.09765625,194.3359375,270.01953125,670.41015625
-996.58203125,-97.16796875,-64.453125,-387.6953125
-1000.0,-323.73046875,-370.60546875,-976.5625
-49.8046875,-169.43359375,-216.796875,-258.7890625
999.51171875,126.46484375,145.99609375,696.2890625
407.71484375,209.47265625,296.38671875,760.25390625
-909.66796875,-45.8984375,2.44140625,-215.8203125
-1000.0,-309.5703125,-351.5625,-961.42578125
-201.66015625,-206.0546875,-261.71875,-374.51171875
999.51171875,88.8671875,96.19140625,646.97265625
634.765625,217.7734375,298.828125,843.26171875
-740.234375,-0.9765625,58.10546875,-86.9140625
-1000.0,-295.41015625,-325.68359375,-946.2890625
-207.03125,-237.79296875,-292.96875,-511.71875
999.51171875,45.8984375,51.26953125,455.56640625
866.69921875,216.30859375,293.45703125,816.40625
-442.87109375,47.36328125,109.86328125,78.125
-1000.0,-269.53125,-294.921875,-879.39453125
-195.3125,-259.27734375,-321.2890625,-607.91015625
999.51171875,18.06640625,2.9296875,350.5859375
999.51171875,222.65625,278.80859375,833.49609375
-150.87890625,97.65625,155.76171875,222.65625
-1000.0,-231.4453125,-256.8359375,-819.82421875
-321.2890625,-277.34375,-348.6328125,-715.33203125
935.546875,-18.5546875,-43.9453125,251.46484375
999.51171875,208.984375,260.25390625,844.23828125
49.31640625,120.60546875,188.96484375,341.30859375
-1000.0,-217.7734375,-222.65625,-747.0703125
-503.41796875,-308.10546875,-373.046875,-816.40625
843.26171875,-54.19921875,-88.8671875,125.9765625
999.51171875,193.84765625,239.74609375,829.1015625
171.875,150.390625,218.26171875,459.9609375
-1000.0,-177.24609375,-182.6171875,-646.484375
-750.9765625,-318.84765625,-390.13671875,-896.97265625
618.1640625,-85.44921875,-133.7890625,41.50390625
999.51171875,177.24609375,209.9609375,839.84375
159.66796875,159.1796875,234.86328125,563.4765625
-1000.0,-150.87890625,-138.18359375,-527.83203125
-976.5625,-333.0078125,-397.94921875,-950.68359375
284.1796875,-141.11328125,-189.453125,-115.234375
999.51171875,158.203125,178.7109375,780.76171875
175.29296875,195.3125,259.27734375,631.34765625
-1000.0,-114.2578125,-97.16796875,-451.171875
-1000.0,-331.0546875,-394.04296875,-979.98046875
27.34375,-165.0390625,-229.00390625,-241.2109375
999.51171875,127.9296875,137.20703125,709.47265625
329.1015625,203.125,269.53125,727.5390625
-947.75390625,-67.3828125,-42.96875,-293.9453125
-1000.0,-316.89453125,-374.51171875,-972.16796875
-155.2734375,-201.66015625,-259.765625,-367.67578125
999.51171875,91.796875,100.09765625,581.0546875
532.2265625,217.28515625,281.73828125,761.23046875
-831.54296875,-11.71875,15.625,-146.97265625
-1000.0,-297.36328125,-357.421875,-948.2421875
-220.703125,-221.19140625,-294.43359375,-475.09765625
999.51171875,67.3828125,58.59375,489.2578125
779.78515625,216.796875,277.34375,813.96484375
-571.2890625,36.1328125,79.58984375,27.83203125
-1000.0,-260.7421875,-300.78125,-887.6953125
-188.96484375,-250.0,-310.546875,-581.54296875
999.51171875,20.5078125,17.08984375,373.53515625
968.26171875,217.7734375,280.76171875,837.890625
-253.90625,76.171875,133.30078125,165.52734375
-1000.0,-250.48828125,-273.4375,-850.5859375
-259.27734375,-273.4375,-336.9140625,-671.38671875
965.33203125,0.0,-17.578125,303.22265625
999.51171875,218.75,270.01953125,871.09375
-24.4140625,113.28125,172.36328125,308.10546875
-1000.0,-216.796875,-236.328125,-779.78515625
-434.5703125,-283.69140625,-360.83984375,-752.44140625
878.90625,-23.4375,-67.3828125,252.9296875
999.51171875,204.1015625,243.65234375,895.99609375
140.13671875,133.7890625,202.1484375,422.8515625
-1000.0,-191.89453125,-199.21875,-690.91796875
-653.80859375,-311.03515625,-382.8125,-858.3984375
719.7265625,-72.265625,-115.234375,84.47265625
999.51171875,193.84765625,221.6796875,908.203125
172.8515625,171.38671875,229.4921875,560.05859375
-1000.0,-157.2265625,-162.59765625,-611.328125
-897.4609375,-327.1484375,-398.92578125,-945.80078125
418.45703125,-114.74609375,-155.76171875,-89.84375
999.51171875,165.52734375,202.1484375,783.69140625
148.4375,185.546875,256.34765625,600.09765625
-1000.0,-110.83984375,-102.05078125,-496.58203125
-1000.0,-317.3828125,-386.23046875,-969.23828125
121.58203125,-145.01953125,-201.66015625,-164.0625
999.51171875,147.94921875,165.52734375,776.3671875
253.90625,201.171875,270.99609375,698.73046875
-983.3984375,-83.984375,-56.15234375,-360.3515625
-1000.0,-316.89453125,-375.0,-982.421875
-83.0078125,-177.734375,-241.69921875,-338.37890625
999.51171875,114.74609375,122.0703125,608.88671875
439.453125,217.7734375,285.15625,733.3984375
-894.53125,-33.203125,-3.90625,-221.6796875
-1000.0,-309.5703125,-364.2578125,-969.7265625
-213.37890625,-220.703125,-278.80859375,-442.87109375
999.51171875,71.77734375,78.61328125,510.7421875
679.19921875,216.796875,285.15625,773.92578125
-694.3359375,11.23046875,57.6171875,-73.73046875
-1000.0,-285.64453125,-325.68359375,-958.0078125
-200.1953125,-242.1875,-304.19921875,-549.31640625
999.51171875,40.52734375,38.0859375,425.78125
905.2734375,220.703125,285.64453125,813.96484375
-377.9296875,55.6640625,114.74609375,105.95703125
-1000.0,-268.06640625,-289.55078125,-882.32421875
-210.9375,-270.5078125,-329.58984375,-648.92578125
992.67578125,16.11328125,-6.34765625,352.5390625
999.51171875,215.33203125,272.94921875,846.6796875
-106.93359375,81.54296875,156.25,244.62890625
-1000.0,-239.2578125,-252.44140625,-783.203125
-366.2109375,-287.59765625,-348.6328125,-734.375
913.57421875,-26.3671875,-49.31640625,209.47265625
999.51171875,201.66015625,254.8828125,816.40625
83.984375,116.69921875,191.89453125,339.35546875
-1000.0,-210.44921875,-218.26171875,-734.86328125
-561.03515625,-303.7109375,-379.8828125,-826.171875
799.31640625,-64.453125,-93.75,105.95703125
999.51171875,180.17578125,244.62890625,833.49609375
172.36328125,144.53125,235.3515625,468.26171875
-1000.0,-180.6640625,-158.203125,-643.06640625
-811.03515625,-336.42578125,-372.0703125,-901.85546875
540.0390625,-117.67578125,-123.53515625,-12.6953125
999.51171875,156.25,231.93359375,812.98828125
153.80859375,158.203125,268.06640625,580.56640625
-1000.0,-155.2734375,-114.2578125,-527.34375
-1000.0,-342.28515625,-380.859375,-943.359375
222.65625,-148.92578125,-176.26953125,-139.16015625
999.51171875,140.625,190.91796875,740.234375
200.1953125,177.734375,281.73828125,656.73828125
-1000.0,-110.3515625,-58.59375,-402.34375
-1000.0,-331.54296875,-364.74609375,-969.7265625
-9.765625,-186.5234375,-214.35546875,-275.390625
999.51171875,106.4453125,153.3203125,655.76171875
367.67578125,200.68359375,298.828125,731.93359375
-929.6875,-52.24609375,-4.8828125,-263.671875
-1000.0,-317.87109375,-354.98046875,-976.07421875
-182.12890625,-208.0078125,-249.51171875,-382.8125
999.51171875,85.44921875,111.81640625,582.51953125
577.63671875,207.51953125,298.33984375,788.0859375
-797.36328125,-13.671875,50.29296875,-108.88671875
-1000.0,-302.24609375,-324.70703125,-942.87109375
-214.35546875,-229.4921875,-280.76171875,-489.2578125
999.51171875,68.359375,70.3125,497.0703125
824.21875,225.09765625,297.8515625,837.890625
-511.71875,34.1796875,99.12109375,65.91796875
-1000.0,-275.390625,-297.36328125,-863.76953125
-183.10546875,-257.32421875,-315.4296875,-575.68359375
999.51171875,22.4609375,16.6015625,380.859375
997.55859375,217.28515625,279.78515625,842.28515625
-190.4296875,77.63671875,142.578125,194.82421875
-1000.0,-248.046875,-260.25390625,-836.9140625
-288.0859375,-277.34375,-340.8203125,-704.1015625
951.66015625,-9.765625,-30.76171875,246.58203125
999.51171875,208.49609375,267.578125,816.89453125
16.11328125,118.1640625,181.640625,312.01171875
-1000.0,-211.9140625,-226.07421875,-749.0234375
-473.14453125,-294.921875,-360.83984375,-785.15625
859.86328125,-43.45703125,-73.2421875,148.92578125
999.51171875,190.91796875,250.9765625,817.87109375
157.71484375,133.7890625,220.21484375,431.15234375
-1000.0,-192.3828125,-188.96484375,-657.71484375
-712.40234375,-313.4765625,-379.39453125,-874.0234375
660.15625,-76.66015625,-111.81640625,14.6484375
999.51171875,180.6640625,228.515625,788.57421875
165.0390625,162.109375,241.2109375,538.57421875
-1000.0,-153.3203125,-144.53125,-555.17578125
-943.359375,-327.63671875,-389.16015625,-923.828125
341.30859375,-122.0703125,-164.0625,-93.75
999.51171875,160.15625,193.359375,743.65234375
163.57421875,186.03515625,264.6484375,611.81640625
-1000.0,-112.79296875,-87.890625,-447.75390625
-1000.0,-327.1484375,-384.765625,-964.35546875
66.89453125,-155.2734375,-200.68359375,-226.07421875
999.51171875,132.8125,168.45703125,696.2890625
296.875,193.84765625,284.1796875,714.35546875
-962.890625,-75.68359375,-40.0390625,-313.4765625
-1000.0,-318.359375,-373.046875,-967.28515625
-125.9765625,-188.4765625,-240.72265625,-319.82421875
999.51171875,111.81640625,125.0,639.6484375
484.86328125,214.35546875,294.43359375,790.52734375
-867.1875,-28.80859375,24.4140625,-145.01953125
-1000.0,-297.8515625,-334.47265625,-937.01171875
-219.23828125,-213.8671875,-270.01953125,-454.58984375
999.51171875,77.1484375,78.61328125,508.30078125
723.6328125,224.609375,290.0390625,798.828125
-644.04296875,21.97265625,66.89453125,-21.97265625
-1000.0,-280.2734375,-322.265625,-913.57421875
-194.3359375,-239.74609375,-307.6171875,-545.41015625
999.51171875,37.59765625,33.203125,416.015625
939.94140625,215.8203125,282.2265625,820.80078125
-317.3828125,72.265625,122.0703125,130.37109375
-1000.0,-244.62890625,-279.296875,-854.00390625
-225.09765625,-267.578125,-332.03125,-660.15625
980.95703125,1.953125,-14.6484375,301.26953125
999.51171875,210.44921875,267.578125,826.66015625
-58.10546875,97.65625,163.57421875,266.6015625
-1000.0,-231.4453125,-239.2578125,-785.64453125
-395.01953125,-289.55078125,-349.609375,-755.859375
899.90234375,-35.15625,-57.6171875,207.03125
999.51171875,197.75390625,254.39453125,846.19140625
115.234375,131.8359375,207.51953125,403.80859375
-1000.0,-199.21875,-200.1953125,-684.5703125
-606.4453125,-307.6171875,-375.48828125,-834.47265625
764.16015625,-56.640625,-98.14453125,79.1015625
999.51171875,202.1484375,246.09375,829.58984375
173.33984375,163.57421875,237.79296875,507.32421875
-1000.0,-158.69140625,-163.0859375,-600.09765625
-854.98046875,-311.03515625,-393.06640625,-914.55078125
482.421875,-97.16796875,-154.296875,-50.29296875
999.51171875,171.875,207.51953125,786.62109375
148.92578125,180.17578125,255.859375,595.703125
-1000.0,-127.44140625,-117.67578125,-492.1875
-1000.0,-326.66015625,-387.6953125,-952.63671875
164.55078125,-142.08984375,-188.4765625,-155.2734375
999.51171875,151.3671875,175.29296875,766.11328125
226.07421875,204.58984375,284.1796875,707.03125
-995.60546875,-86.42578125,-52.734375,-363.28125
-1000.0,-322.75390625,-373.046875,-984.375
-53.22265625,-175.29296875,-225.5859375,-316.40625
999.51171875,121.09375,139.16015625,630.859375
405.2734375,212.40234375,281.73828125,726.5625
-911.62109375,-41.9921875,-17.08984375,-251.46484375
-1000.0,-306.15234375,-369.62890625,-980.95703125
-202.1484375,-211.42578125,-281.73828125,-421.38671875
999.51171875,81.0546875,84.9609375,560.546875
638.671875,215.8203125,291.9921875,801.26953125
-736.328125,-2.9296875,44.43359375,-95.703125
-1000.0,-305.6640625,-341.30859375,-953.125
-207.03125,-248.53515625,-303.22265625,-520.01953125
999.51171875,43.45703125,43.9453125,456.0546875
862.3046875,211.9140625,288.57421875,829.58984375
-449.21875,40.0390625,107.91015625,74.21875
-1000.0,-270.01953125,-288.57421875,-886.23046875
-196.2890625,-255.859375,-312.5,-610.83984375
999.51171875,18.5546875,4.39453125,363.76953125
999.51171875,214.84375,269.53125,850.09765625
