TP9,AF7,AF8,TP10
-234.375,157.71484375,158.203125,-45.41015625
-686.5234375,-1000.0,-1000.0,-36.1328125
-297.36328125,-978.515625,-729.4921875,-10.7421875
401.85546875,254.8828125,625.0,-7.8125
463.37890625,999.51171875,999.51171875,-23.4375
-142.578125,421.875,166.015625,-41.015625
-654.78515625,-929.19921875,-1000.0,-36.62109375
-377.9296875,-1000.0,-934.5703125,-11.23046875
355.95703125,142.578125,339.35546875,12.6953125
523.4375,999.51171875,999.51171875,1.46484375
-70.80078125,279.78515625,183.59375,-35.15625
-627.44140625,-959.47265625,-1000.0,-32.2265625
-436.03515625,-1000.0,-1000.0,-4.39453125
276.3671875,-187.98828125,66.40625,11.23046875
551.26953125,999.51171875,999.51171875,0.48828125
23.4375,475.09765625,301.7578125,-37.109375
-596.19140625,-905.2734375,-968.75,-43.45703125
-493.65234375,-1000.0,-1000.0,-11.71875
229.4921875,-93.26171875,-70.3125,5.859375
557.12890625,999.51171875,999.51171875,-21.484375
104.00390625,720.21484375,511.71875,-55.6640625
-535.64453125,-625.0,-831.0546875,-44.921875
-564.453125,-1000.0,-1000.0,-14.6484375
150.87890625,-153.80859375,-163.57421875,11.71875
576.171875,999.51171875,999.51171875,11.71875
208.984375,999.51171875,777.34375,-16.6015625
-457.51953125,-109.375,-545.41015625,-35.64453125
-627.9296875,-1000.0,-1000.0,-21.484375
42.96875,-247.0703125,-191.89453125,6.8359375
570.80078125,968.75,999.51171875,6.34765625
271.97265625,999.51171875,944.82421875,-26.3671875
-419.43359375,58.59375,-280.2734375,-42.96875
-667.96875,-1000.0,-1000.0,-22.4609375
-58.10546875,-552.734375,-272.4609375,9.765625
525.87890625,810.546875,968.26171875,5.37109375
316.40625,999.51171875,999.51171875,-28.3203125
-354.4921875,132.8125,-64.94140625,-47.36328125
-692.3828125,-1000.0,-1000.0,-43.45703125
-172.36328125,-644.53125,-400.87890625,-10.7421875
482.421875,731.93359375,895.01953125,2.44140625
380.37109375,999.51171875,999.51171875,-29.78515625
-276.3671875,170.41015625,106.93359375,-54.19921875
-687.01171875,-1000.0,-1000.0,-42.96875
-278.3203125,-1000.0,-676.26953125,-15.13671875
419.921875,210.44921875,679.19921875,-2.9296875
456.0546875,999.51171875,999.51171875,-25.87890625
-187.98828125,151.85546875,151.3671875,-48.33984375
-661.1328125,-1000.0,-1000.0,-29.78515625
-324.21875,-1000.0,-867.1875,0.0
377.9296875,153.80859375,442.3828125,1.953125
502.44140625,999.51171875,999.51171875,-19.53125
-110.83984375,308.10546875,166.9921875,-51.26953125
-667.96875,-1000.0,-1000.0,-56.640625
-417.96875,-959.47265625,-983.3984375,-28.80859375
313.4765625,334.9609375,243.65234375,-10.7421875
524.4140625,999.51171875,999.51171875,-19.04296875
-23.92578125,422.36328125,230.95703125,-43.9453125
-627.44140625,-867.67578125,-981.4453125,-49.8046875
-505.37109375,-1000.0,-1000.0,-24.4140625
212.40234375,-231.4453125,-124.0234375,-8.30078125
547.8515625,999.51171875,999.51171875,-22.4609375
79.1015625,718.26171875,397.94921875,-47.8515625
-570.80078125,-656.73828125,-921.38671875,-52.24609375
-551.7578125,-1000.0,-1000.0,-20.5078125
164.55078125,-196.2890625,-203.125,4.8828125
569.3359375,999.51171875,999.51171875,-14.6484375
164.0625,926.26953125,640.13671875,-46.38671875
-512.20703125,-350.09765625,-720.703125,-54.6875
-611.81640625,-1000.0,-1000.0,-26.85546875
83.984375,-187.98828125,-195.3125,3.90625
562.5,979.4921875,999.51171875,-3.41796875
240.72265625,999.51171875,904.296875,-35.15625
-416.9921875,34.66796875,-358.88671875,-43.9453125
-636.23046875,-1000.0,-1000.0,-21.97265625
-2.44140625,-355.95703125,-206.54296875,1.46484375
569.3359375,918.9453125,999.51171875,-2.44140625
323.2421875,999.51171875,999.51171875,-31.73828125
-350.09765625,212.40234375,-109.86328125,-53.22265625
-656.73828125,-1000.0,-1000.0,-41.50390625
-107.91015625,-527.83203125,-324.21875,-22.4609375
512.6953125,854.4921875,937.98828125,-27.83203125
361.328125,999.51171875,999.51171875,-49.8046875
-306.640625,176.26953125,55.6640625,-64.453125
-674.31640625,-1000.0,-1000.0,-51.26953125
-199.70703125,-804.6875,-515.625,-20.01953125
472.16796875,552.734375,822.265625,-12.20703125
438.96484375,999.51171875,999.51171875,-31.73828125
-213.8671875,192.3828125,171.38671875,-48.33984375
-673.33984375,-1000.0,-1000.0,-40.52734375
-273.92578125,-601.07421875,-636.71875,-13.18359375
446.2890625,779.78515625,729.98046875,2.44140625
494.140625,999.51171875,999.51171875,-14.16015625
-135.25390625,237.3046875,172.8515625,-41.015625
-651.3671875,-1000.0,-1000.0,-35.15625
-365.72265625,-1000.0,-917.96875,15.625
370.60546875,160.15625,362.3046875,220.21484375
570.3125,999.51171875,999.51171875,456.0546875
-11.71875,397.94921875,216.30859375,488.28125
-603.515625,-912.59765625,-1000.0,464.35546875
-425.29296875,-1000.0,-1000.0,537.59765625
301.7578125,-51.7578125,80.56640625,668.9453125
578.61328125,999.51171875,999.51171875,723.6328125
73.73046875,796.38671875,405.76171875,626.953125
-581.0546875,-508.7890625,-905.76171875,500.9765625
-539.55078125,-1000.0,-1000.0,509.765625
211.42578125,-199.70703125,-95.703125,631.8359375
584.9609375,999.51171875,999.51171875,678.22265625
144.53125,825.1953125,586.42578125,576.66015625
-522.4609375,-510.25390625,-762.20703125,441.40625
-574.70703125,-1000.0,-1000.0,425.78125
136.23046875,-165.52734375,-179.19921875,525.87890625
572.75390625,981.4453125,999.51171875,577.63671875
213.37890625,999.51171875,833.0078125,495.1171875
-453.125,45.41015625,-472.65625,364.2578125
-628.90625,-1000.0,-1000.0,331.54296875
19.04296875,-377.44140625,-195.80078125,411.1328125
549.8046875,962.890625,999.51171875,478.02734375
279.296875,999.51171875,951.171875,417.48046875
-406.73828125,-151.3671875,-270.01953125,275.390625
-665.52734375,-1000.0,-1000.0,233.3984375
-48.828125,-388.18359375,-248.53515625,329.1015625
551.26953125,885.7421875,968.75,400.87890625
346.19140625,999.51171875,999.51171875,343.75
-326.66015625,195.3125,1.46484375,212.890625
-679.6875,-1000.0,-1000.0,153.3203125
-145.5078125,-392.08984375,-380.859375,237.3046875
521.97265625,918.9453125,906.73828125,343.75
411.62109375,999.51171875,999.51171875,274.90234375
-246.09375,246.09375,157.71484375,114.2578125
-683.59375,-1000.0,-1000.0,69.3359375
-270.01953125,-955.56640625,-658.203125,149.4140625
445.80078125,349.609375,706.0546875,261.71875
480.95703125,999.51171875,999.51171875,269.53125
-170.41015625,137.20703125,162.59765625,147.4609375
-669.43359375,-1000.0,-1000.0,57.6171875
-347.16796875,-1000.0,-892.08984375,113.76953125
368.65234375,1.953125,403.80859375,221.19140625
514.6484375,999.51171875,999.51171875,239.74609375
-82.51953125,386.71875,194.3359375,126.953125
-650.87890625,-928.22265625,-1000.0,27.34375
-426.7578125,-1000.0,-1000.0,72.75390625
297.8515625,-110.3515625,131.8359375,180.17578125
533.203125,999.51171875,999.51171875,205.56640625
2.9296875,596.19140625,298.828125,102.5390625
-624.51171875,-768.06640625,-960.9375,-13.18359375
-524.90234375,-1000.0,-1000.0,10.7421875
220.703125,-218.75,-104.98046875,135.7421875
562.5,999.51171875,999.51171875,173.828125
80.56640625,748.046875,436.03515625,66.89453125
-567.3828125,-588.8671875,-887.6953125,-32.71484375
-605.95703125,-1000.0,-1000.0,-517.08984375
54.6875,-533.69140625,-211.9140625,-994.140625
507.8125,958.0078125,999.51171875,-991.2109375
142.578125,765.625,608.88671875,-992.1875
-531.73828125,-670.41015625,-753.41796875,-972.65625
-630.859375,-1000.0,-1000.0,-891.11328125
42.48046875,-415.52734375,-241.2109375,-813.96484375
542.48046875,892.578125,999.51171875,-778.80859375
229.4921875,999.51171875,778.80859375,-766.6015625
-462.890625,-94.7265625,-553.22265625,-741.2109375
-676.26953125,-1000.0,-1000.0,-693.84765625
-36.62109375,-197.265625,-295.8984375,-636.23046875
532.2265625,991.69921875,999.51171875,-602.05078125
297.36328125,999.51171875,924.8046875,-583.49609375
-368.65234375,41.015625,-336.9140625,-556.640625
-662.109375,-1000.0,-1000.0,-513.18359375
-127.44140625,-696.77734375,-500.0,-459.47265625
514.16015625,651.85546875,838.37890625,-431.15234375
401.85546875,999.51171875,999.51171875,-437.5
-276.85546875,152.34375,-82.51953125,-432.12890625
-659.1796875,-1000.0,-1000.0,-400.390625
-206.0546875,-849.609375,-667.96875,-355.95703125
475.5859375,457.03125,656.73828125,-328.61328125
470.703125,999.51171875,999.51171875,-333.49609375
-180.6640625,434.5703125,139.6484375,-333.0078125
-661.62109375,-925.29296875,-1000.0,-309.5703125
-317.87109375,-1000.0,-869.62890625,-272.4609375
398.92578125,194.82421875,438.4765625,-246.58203125
502.44140625,999.51171875,999.51171875,-249.0234375
-119.140625,280.2734375,150.390625,-255.37109375
-649.90234375,-985.3515625,-1000.0,-232.421875
-379.8828125,-1000.0,-995.60546875,-199.21875
343.75,29.296875,220.21484375,-187.98828125
545.41015625,999.51171875,999.51171875,-194.82421875
-29.296875,292.96875,195.3125,-209.47265625
-604.00390625,-955.56640625,-1000.0,-188.4765625
-428.7109375,-1000.0,-1000.0,-145.5078125
278.80859375,-234.375,-42.48046875,-132.8125
576.66015625,999.51171875,999.51171875,-137.6953125
89.35546875,745.1171875,399.90234375,-148.92578125
-546.875,-622.55859375,-914.55078125,-143.06640625
-518.5546875,-1000.0,-1000.0,-116.2109375
190.4296875,-180.6640625,-154.296875,-104.4921875
574.21875,999.51171875,999.51171875,-108.88671875
171.38671875,999.51171875,665.52734375,-121.58203125
-492.67578125,-158.69140625,-687.5,-122.0703125
-585.44921875,-1000.0,-1000.0,-104.00390625
134.765625,-182.6171875,-168.45703125,-84.9609375
590.8203125,999.51171875,999.51171875,-84.9609375
221.6796875,957.51953125,826.66015625,-98.6328125
-447.265625,-282.71484375,-479.4921875,-103.02734375
-622.0703125,-1000.0,-1000.0,-75.1953125
40.0390625,-226.5625,-184.5703125,-45.41015625
585.9375,963.37890625,999.51171875,-54.19921875
304.19921875,999.51171875,999.51171875,-78.61328125
-381.8359375,74.70703125,-154.78515625,-89.35546875
-668.9453125,-1000.0,-1000.0,-70.3125
-86.42578125,-516.11328125,-281.25,-32.2265625
535.64453125,837.40234375,948.73046875,-22.4609375
373.046875,999.51171875,999.51171875,-45.8984375
-303.7109375,200.68359375,87.890625,-65.4296875
-696.2890625,-1000.0,-1000.0,-59.5703125
-196.77734375,-674.31640625,-455.078125,-26.85546875
491.2109375,716.30859375,873.53515625,-13.18359375
431.15234375,999.51171875,999.51171875,-36.62109375
-222.65625,162.59765625,158.203125,-49.8046875
-664.0625,-1000.0,-1000.0,-40.0390625
-272.4609375,-978.02734375,-697.265625,-14.6484375
429.19921875,288.0859375,661.62109375,-7.8125
477.5390625,999.51171875,999.51171875,-38.0859375
-172.36328125,132.8125,156.73828125,-62.5
-665.52734375,-1000.0,-1000.0,-51.26953125
-358.3984375,-1000.0,-940.91796875,-28.80859375
344.7265625,-72.265625,322.265625,-16.11328125
514.16015625,999.51171875,999.51171875,-33.69140625
-62.98828125,387.20703125,190.4296875,-59.08203125
-631.8359375,-946.2890625,-1000.0,-55.17578125
-435.05859375,-1000.0,-1000.0,-25.87890625
294.921875,-47.8515625,121.58203125,-2.9296875
552.24609375,999.51171875,999.51171875,-22.94921875
23.4375,472.65625,293.9453125,-60.546875
-588.37890625,-887.20703125,-967.28515625,-63.4765625
-495.1171875,-1000.0,-1000.0,-36.1328125
231.93359375,-90.8203125,-73.73046875,-16.11328125
578.61328125,999.51171875,999.51171875,-25.390625
107.421875,761.71875,525.87890625,-59.08203125
-537.109375,-566.40625,-815.4296875,-56.15234375
-560.05859375,-1000.0,-1000.0,-22.4609375
144.04296875,-185.546875,-185.05859375,-6.8359375
576.171875,999.51171875,999.51171875,-12.6953125
196.77734375,987.3046875,765.13671875,-44.921875
-472.16796875,-222.16796875,-569.3359375,-59.5703125
-614.2578125,-1000.0,-1000.0,-39.0625
49.31640625,-251.46484375,-182.6171875,-24.90234375
541.9921875,941.40625,999.51171875,-26.85546875
262.20703125,999.51171875,998.046875,-43.9453125
-395.5078125,198.2421875,-175.29296875,-59.5703125
-661.1328125,-1000.0,-1000.0,-40.52734375
-40.0390625,-318.84765625,-227.05078125,-8.7890625
549.8046875,970.21484375,989.74609375,-5.37109375
332.51953125,999.51171875,999.51171875,-29.78515625
-337.890625,104.4921875,-46.38671875,-51.7578125
-669.43359375,-1000.0,-1000.0,-42.96875
-121.58203125,-494.62890625,-328.125,-13.18359375
526.85546875,855.46875,927.24609375,-5.37109375
398.4375,999.51171875,999.51171875,-36.62109375
-264.16015625,198.2421875,159.66796875,-60.546875
-668.45703125,-1000.0,-1000.0,-45.41015625
-221.19140625,-736.328125,-521.484375,-12.20703125
468.75,642.578125,831.0546875,-4.8828125
461.42578125,999.51171875,999.51171875,-30.76171875
-173.828125,180.17578125,184.5703125,-52.24609375
-655.76171875,-1000.0,-1000.0,-43.9453125
-295.8984375,-802.734375,-730.46875,-13.671875
417.96875,547.36328125,625.0,-3.41796875
497.0703125,999.51171875,999.51171875,-33.203125
-109.375,217.28515625,178.7109375,-56.640625
-653.80859375,-1000.0,-1000.0,-51.26953125
-400.87890625,-999.0234375,-944.82421875,-32.2265625
335.44921875,240.234375,311.03515625,-17.578125
539.55078125,999.51171875,999.51171875,-26.3671875
-9.27734375,503.41796875,285.64453125,-54.6875
-613.28125,-805.6640625,-972.16796875,-54.19921875
-489.74609375,-1000.0,-1000.0,-22.4609375
233.88671875,-229.98046875,-0.9765625,-11.23046875
547.8515625,999.51171875,999.51171875,-20.99609375
82.51953125,666.015625,465.8203125,-41.50390625
-553.7109375,-719.23828125,-866.2109375,-44.43359375
-535.15625,-1000.0,-1000.0,-23.92578125
179.19921875,-166.9921875,-116.2109375,-8.30078125
559.5703125,973.6328125,999.51171875,-14.6484375
168.45703125,999.51171875,768.5546875,-44.43359375
-482.91015625,72.75390625,-550.78125,-48.33984375
-615.72265625,-1000.0,-1000.0,-24.90234375
79.1015625,-214.84375,-190.91796875,91.30859375
582.03125,999.51171875,999.51171875,309.08203125
248.046875,999.51171875,877.9296875,396.484375
-437.5,-46.38671875,-404.296875,351.5625
-646.97265625,-1000.0,-1000.0,369.62890625
10.7421875,-247.0703125,-195.3125,509.27734375
579.1015625,956.54296875,995.1171875,620.1171875
330.078125,999.51171875,999.51171875,580.56640625
-350.09765625,208.984375,-77.63671875,455.078125
-671.38671875,-1000.0,-1000.0,404.78515625
-91.796875,-326.66015625,-266.11328125,494.62890625
537.59765625,955.56640625,960.9375,584.9609375
366.2109375,999.51171875,999.51171875,540.52734375
-301.26953125,202.63671875,92.7734375,412.59765625
-683.59375,-1000.0,-1000.0,341.796875
-198.73046875,-771.97265625,-481.4453125,406.73828125
487.79296875,597.16796875,851.5625,500.9765625
448.2421875,999.51171875,999.51171875,476.07421875
-213.37890625,172.36328125,180.17578125,335.9375
-678.7109375,-1000.0,-1000.0,254.39453125
-290.0390625,-871.58203125,-668.9453125,317.87109375
433.59375,459.47265625,699.21875,418.9453125
495.60546875,999.51171875,999.51171875,410.15625
-155.2734375,143.06640625,173.828125,276.3671875
-666.015625,-1000.0,-1000.0,186.03515625
-361.328125,-1000.0,-895.5078125,237.3046875
362.3046875,-44.43359375,394.53125,339.35546875
534.66796875,999.51171875,999.51171875,351.07421875
-54.6875,294.921875,229.00390625,231.4453125
-645.99609375,-966.796875,-1000.0,95.703125
-464.35546875,-1000.0,-1000.0,176.26953125
267.08984375,-171.875,99.609375,98.14453125
513.18359375,999.51171875,999.51171875,-340.33203125
23.92578125,942.87109375,448.2421875,-373.046875
-578.125,-308.10546875,-874.51171875,-209.9609375
-532.2265625,-1000.0,-1000.0,-90.33203125
212.40234375,-205.56640625,-98.14453125,103.515625
581.0546875,999.51171875,999.51171875,203.61328125
134.765625,812.01171875,549.8046875,147.94921875
-525.87890625,-526.3671875,-794.43359375,48.33984375
-586.42578125,-1000.0,-1000.0,52.734375
124.0234375,-188.4765625,-196.77734375,173.828125
574.70703125,999.51171875,999.51171875,238.28125
204.58984375,969.7265625,775.87890625,158.69140625
-467.7734375,-261.71875,-556.15234375,41.015625
-616.2109375,-1000.0,-1000.0,21.484375
47.8515625,-269.04296875,-197.265625,115.72265625
564.94140625,961.9140625,999.51171875,185.546875
278.3203125,999.51171875,932.12890625,122.55859375
-402.83203125,-31.25,-304.6875,7.32421875
-668.9453125,-1000.0,-1000.0,-13.671875
-73.2421875,-439.94140625,-274.90234375,94.23828125
537.59765625,868.1640625,954.1015625,198.2421875
346.6796875,999.51171875,999.51171875,161.1328125
-327.1484375,208.984375,12.6953125,35.15625
-682.6171875,-1000.0,-1000.0,-8.7890625
-167.96875,-616.2109375,-406.73828125,87.40234375
502.44140625,776.85546875,898.92578125,188.4765625
406.73828125,999.51171875,999.51171875,161.1328125
-267.08984375,170.41015625,125.48828125,38.57421875
-692.87109375,-1000.0,-1000.0,-24.90234375
-263.18359375,-888.18359375,-619.140625,52.24609375
444.3359375,434.5703125,738.28125,156.25
474.12109375,999.51171875,999.51171875,151.3671875
-184.08203125,145.99609375,170.41015625,32.2265625
-683.59375,-1000.0,-1000.0,-46.875
-343.75,-1000.0,-848.14453125,16.11328125
381.8359375,124.51171875,466.30859375,135.25390625
518.06640625,999.51171875,999.51171875,139.16015625
-62.5,571.77734375,209.47265625,16.6015625
-624.51171875,-764.6484375,-1000.0,-79.58984375
-431.640625,-1000.0,-1000.0,-38.0859375
302.24609375,-142.08984375,156.25,90.8203125
551.26953125,999.51171875,999.51171875,131.34765625
-6.34765625,395.99609375,274.4140625,25.87890625
-616.2109375,-932.12890625,-977.5390625,-67.87109375
-484.86328125,-1000.0,-1000.0,-21.97265625
254.8828125,-219.23828125,-53.22265625,104.98046875
593.75,999.51171875,999.51171875,165.0390625
117.67578125,727.05078125,462.40234375,80.56640625
-541.015625,-669.921875,-874.51171875,-36.1328125
-540.0390625,-1000.0,-1000.0,-21.484375
194.82421875,-17.08984375,-112.3046875,92.7734375
585.44921875,999.51171875,999.51171875,141.6015625
181.640625,978.515625,745.1171875,59.08203125
-485.83984375,-175.29296875,-579.58984375,-61.03515625
-623.046875,-1000.0,-1000.0,-71.77734375
67.3828125,-297.8515625,-188.4765625,48.33984375
566.40625,959.47265625,999.51171875,132.8125
256.8359375,999.51171875,935.546875,68.359375
-426.7578125,-61.03515625,-307.6171875,-59.5703125
-656.25,-1000.0,-1000.0,-83.0078125
-15.13671875,-413.0859375,-215.33203125,26.85546875
570.3125,882.32421875,987.79296875,120.1171875
348.6328125,999.51171875,999.51171875,75.1953125
-336.42578125,195.80078125,-51.26953125,-47.36328125
-668.9453125,-1000.0,-1000.0,-86.42578125
-107.91015625,-507.32421875,-332.51953125,7.8125
542.48046875,863.76953125,933.59375,110.3515625
404.296875,999.51171875,999.51171875,82.03125
-276.85546875,185.05859375,90.8203125,-44.43359375
-681.640625,-1000.0,-1000.0,-104.98046875
-224.12109375,-871.09375,-561.5234375,-20.99609375
468.26171875,446.77734375,787.109375,94.23828125
460.9375,999.51171875,999.51171875,87.890625
-191.89453125,260.7421875,172.36328125,-33.69140625
-666.015625,-1000.0,-1000.0,-101.07421875
-306.640625,-1000.0,-793.45703125,-29.296875
411.62109375,135.25390625,550.29296875,77.1484375
510.7421875,999.51171875,999.51171875,81.0546875
-125.0,201.171875,160.15625,-35.15625
-662.109375,-1000.0,-1000.0,-121.09375
-386.71875,-1000.0,-970.21484375,-62.01171875
346.19140625,-11.71875,266.6015625,60.05859375
555.17578125,999.51171875,999.51171875,93.26171875
-22.4609375,460.9375,247.0703125,-12.6953125
-623.53515625,-913.0859375,-1000.0,-112.3046875
-447.75390625,-1000.0,-1000.0,-72.75390625
291.9921875,57.12890625,99.609375,46.38671875
565.4296875,999.51171875,999.51171875,96.6796875
53.7109375,566.40625,378.90625,4.8828125
-581.54296875,-767.578125,-916.9921875,-104.4921875
-541.9921875,-1000.0,-1000.0,-87.40234375
186.03515625,-212.890625,-133.7890625,26.3671875
575.1953125,999.51171875,999.51171875,90.8203125
147.94921875,825.1953125,604.98046875,11.71875
-520.01953125,-512.6953125,-749.0234375,-104.98046875
-583.49609375,-1000.0,-1000.0,-95.703125
120.60546875,-165.0390625,-174.31640625,22.4609375
576.66015625,979.98046875,999.51171875,92.28515625
240.72265625,999.51171875,916.9921875,31.25
-440.4296875,55.6640625,-340.8203125,-91.30859375
-657.2265625,-1000.0,-1000.0,-118.1640625
9.765625,-364.74609375,-198.2421875,-4.8828125
566.40625,934.08203125,999.51171875,83.49609375
298.828125,999.51171875,996.58203125,29.78515625
-386.71875,75.1953125,-173.828125,-107.91015625
-668.9453125,-1000.0,-1000.0,-111.81640625
-77.1484375,-472.16796875,-268.5546875,-110.83984375
519.04296875,864.2578125,956.54296875,-225.5859375
347.16796875,999.51171875,999.51171875,-188.96484375
-306.640625,188.96484375,64.94140625,-189.453125
-678.22265625,-1000.0,-1000.0,-199.21875
-193.359375,-850.09765625,-499.0234375,-81.0546875
493.1640625,492.67578125,843.26171875,51.7578125
434.08203125,999.51171875,999.51171875,52.24609375
-256.8359375,160.64453125,123.046875,-70.80078125
-693.359375,-1000.0,-1000.0,-134.27734375
-279.78515625,-957.51953125,-694.82421875,-55.6640625
428.22265625,322.75390625,658.203125,64.94140625
490.72265625,999.51171875,999.51171875,78.125
-154.78515625,170.41015625,166.9921875,-41.9921875
-670.8984375,-1000.0,-1000.0,-120.1171875
-350.09765625,-964.35546875,-863.76953125,-52.24609375
378.90625,289.0625,444.82421875,67.3828125
518.06640625,999.51171875,999.51171875,86.42578125
-81.54296875,354.00390625,197.265625,-20.5078125
-646.97265625,-943.84765625,-1000.0,-106.4453125
-442.87109375,-1000.0,-1000.0,-59.5703125
295.41015625,27.34375,142.08984375,60.05859375
549.8046875,999.51171875,999.51171875,99.12109375
12.20703125,511.23046875,318.359375,-2.44140625
-609.86328125,-823.2421875,-952.63671875,-109.375
-517.08984375,-1000.0,-1000.0,-84.47265625
220.703125,-210.44921875,-82.03125,38.57421875
576.66015625,999.51171875,999.51171875,100.5859375
123.046875,878.90625,568.359375,20.5078125
-547.8515625,-433.59375,-779.78515625,-96.19140625
-586.9140625,-1000.0,-1000.0,-90.33203125
141.6015625,-187.98828125,-178.7109375,32.2265625
570.80078125,999.51171875,999.51171875,94.23828125
185.05859375,972.16796875,749.0234375,14.16015625
-489.74609375,-272.94921875,-592.28515625,-107.91015625
-626.953125,-1000.0,-1000.0,-114.74609375
69.3359375,-155.76171875,-186.03515625,8.7890625
572.265625,970.703125,999.51171875,95.703125
263.18359375,999.51171875,957.03125,39.0625
-405.76171875,233.88671875,-251.46484375,-85.9375
-669.921875,-1000.0,-1000.0,-124.51171875
-64.94140625,-498.53515625,-247.55859375,-14.16015625
535.64453125,881.8359375,981.4453125,85.44921875
324.21875,999.51171875,999.51171875,39.0625
-349.609375,127.9296875,-68.84765625,-81.54296875
-684.08203125,-1000.0,-1000.0,-128.90625
-157.71484375,-596.6796875,-375.9765625,-41.50390625
501.953125,778.3203125,906.25,70.80078125
404.296875,999.51171875,999.51171875,54.19921875
-261.23046875,202.63671875,121.09375,-65.91796875
-675.78125,-1000.0,-1000.0,-119.62890625
-208.0078125,-495.1171875,-534.1796875,-34.1796875
485.3515625,870.1171875,818.84765625,72.75390625
448.2421875,999.51171875,999.51171875,60.546875
-204.58984375,195.3125,156.25,-50.78125
-679.6875,-1000.0,-1000.0,-114.74609375
-333.49609375,-1000.0,-833.49609375,-44.43359375
390.625,104.4921875,487.79296875,73.2421875
508.30078125,999.51171875,999.51171875,80.56640625
-118.65234375,209.47265625,171.38671875,-45.8984375
-670.8984375,-1000.0,-1000.0,-138.18359375
-411.1328125,-1000.0,-976.07421875,-78.125
333.0078125,-5.37109375,253.90625,53.7109375
555.6640625,999.51171875,999.51171875,90.8203125
-2.44140625,514.16015625,276.85546875,-18.06640625
-614.74609375,-828.125,-979.4921875,-122.55859375
-485.83984375,-1000.0,-1000.0,-88.37890625
247.0703125,-204.58984375,4.39453125,32.2265625
560.546875,999.51171875,999.51171875,81.0546875
60.05859375,495.60546875,375.0,-10.7421875
-584.9609375,-881.34765625,-921.875,-121.09375
-551.7578125,-1000.0,-1000.0,-104.4921875
171.38671875,-209.9609375,-180.17578125,12.6953125
572.265625,999.51171875,999.51171875,76.171875
159.1796875,903.3203125,626.953125,-6.34765625
-501.953125,-390.13671875,-730.95703125,-126.46484375
-587.890625,-1000.0,-1000.0,-120.60546875
101.5625,-172.8515625,-195.3125,3.41796875
577.1484375,996.09375,999.51171875,83.49609375
250.48828125,999.51171875,876.46484375,25.87890625
-423.828125,-49.8046875,-406.73828125,-95.21484375
-638.671875,-1000.0,-1000.0,-124.51171875
3.90625,-337.890625,-208.49609375,-14.16015625
577.63671875,939.453125,999.51171875,93.26171875
328.61328125,999.51171875,999.51171875,45.8984375
-373.046875,30.2734375,-169.921875,-89.84375
-683.10546875,-1000.0,-1000.0,-128.90625
-76.171875,-208.0078125,-256.8359375,-28.80859375
545.41015625,980.46875,961.42578125,69.82421875
353.02734375,999.51171875,999.51171875,43.9453125
-318.359375,207.51953125,68.84765625,-74.21875
-692.87109375,-1000.0,-1000.0,-129.39453125
-205.078125,-704.1015625,-464.84375,-41.9921875
479.98046875,678.7109375,861.328125,70.3125
436.5234375,999.51171875,999.51171875,62.01171875
-221.6796875,161.1328125,169.43359375,-62.98828125
-664.55078125,-1000.0,-1000.0,-136.71875
-271.484375,-979.4921875,-696.2890625,-52.734375
433.59375,280.76171875,663.0859375,42.48046875
502.9296875,999.51171875,999.51171875,26.3671875
-135.7421875,168.45703125,165.52734375,-73.73046875
-659.66796875,-1000.0,-1000.0,-145.99609375
-365.72265625,-1000.0,-941.40625,-83.984375
359.375,-49.8046875,317.87109375,39.55078125
539.0625,999.51171875,999.51171875,77.63671875
-40.0390625,418.9453125,221.6796875,-42.96875
-629.8828125,-907.71484375,-1000.0,-166.9921875
-456.0546875,-1000.0,-1000.0,-161.1328125
272.94921875,-184.08203125,60.05859375,-120.1171875
539.0625,999.51171875,999.51171875,-270.01953125
3.90625,416.50390625,334.9609375,-593.75
-621.09375,-959.9609375,-954.58984375,-730.46875
-513.18359375,-1000.0,-1000.0,-559.08203125
241.2109375,30.76171875,-55.6640625,-253.90625
590.8203125,999.51171875,999.51171875,-69.3359375
133.7890625,695.80078125,507.32421875,-79.58984375
-519.53125,-624.0234375,-825.1953125,-138.671875
-562.01171875,-1000.0,-1000.0,-94.7265625
138.671875,-165.0390625,-192.3828125,39.0625
571.77734375,974.609375,999.51171875,124.0234375
222.65625,999.51171875,825.1953125,73.73046875
-442.3828125,66.89453125,-487.79296875,-34.1796875
-632.32421875,-1000.0,-1000.0,-42.96875
54.6875,-181.15234375,-187.01171875,71.2890625
572.265625,992.67578125,999.51171875,153.80859375
259.27734375,999.51171875,960.44921875,85.44921875
-410.64453125,216.30859375,-243.65234375,-103.515625
-675.29296875,-1000.0,-1000.0,-158.69140625
-74.21875,-512.20703125,-268.06640625,-5.37109375
536.1328125,866.2109375,966.30859375,115.72265625
354.98046875,999.51171875,999.51171875,92.7734375
-318.359375,157.71484375,-24.4140625,-12.20703125
-668.45703125,-1000.0,-1000.0,-55.17578125
-155.2734375,-677.24609375,-409.1796875,24.90234375
507.32421875,702.1484375,889.6484375,137.20703125
430.17578125,999.51171875,999.51171875,128.90625
-247.0703125,165.52734375,147.4609375,-0.48828125
-680.6640625,-1000.0,-1000.0,-65.91796875
-250.0,-949.70703125,-640.13671875,10.25390625
452.63671875,323.73046875,721.19140625,124.0234375
476.5625,999.51171875,999.51171875,111.81640625
-175.78125,240.72265625,168.9453125,-128.90625
-663.57421875,-996.09375,-1000.0,-236.328125
-336.9140625,-1000.0,-881.8359375,-93.26171875
384.27734375,39.0625,422.36328125,55.6640625
531.73828125,999.51171875,999.51171875,99.12109375
-72.265625,353.02734375,178.7109375,-8.30078125
-634.765625,-945.80078125,-1000.0,-100.09765625
-408.203125,-1000.0,-1000.0,-42.96875
320.80078125,-81.0546875,166.50390625,81.0546875
545.8984375,999.51171875,999.51171875,110.83984375
-4.8828125,328.61328125,246.58203125,16.6015625
-603.02734375,-953.61328125,-986.81640625,-73.73046875
-480.46875,-1000.0,-1000.0,-42.96875
250.0,-205.56640625,-70.80078125,73.2421875
578.125,999.51171875,999.51171875,118.65234375
112.3046875,916.50390625,520.5078125,27.83203125
-541.50390625,-380.37109375,-830.078125,-88.8671875
-566.89453125,-1000.0,-1000.0,-78.125
166.50390625,-117.67578125,-137.6953125,51.7578125
580.56640625,999.51171875,999.51171875,118.65234375
159.1796875,793.9453125,656.73828125,37.59765625
-519.04296875,-523.4375,-689.453125,-80.56640625
-629.39453125,-1000.0,-1000.0,-98.6328125
67.87109375,-238.28125,-199.70703125,5.37109375
566.40625,988.28125,999.51171875,-64.453125
230.46875,999.51171875,909.66796875,-481.4453125
-457.03125,-160.15625,-352.05078125,-862.79296875
-681.15234375,-1000.0,-1000.0,-1000.0
-39.55078125,-391.11328125,-205.56640625,-940.4296875
541.015625,880.859375,985.83984375,-853.515625
310.05859375,999.51171875,999.51171875,-883.7890625
-350.09765625,195.3125,-26.3671875,-927.24609375
-679.6875,-1000.0,-1000.0,-885.25390625
-145.99609375,-835.44921875,-385.7421875,-804.6875
507.8125,513.671875,912.59765625,-752.44140625
391.11328125,999.51171875,999.51171875,-752.9296875
-277.34375,163.0859375,69.82421875,-756.8359375
-664.55078125,-1000.0,-1000.0,-701.66015625
-212.890625,-790.52734375,-536.1328125,-613.28125
464.35546875,568.84765625,808.59375,-550.78125
447.75390625,999.51171875,999.51171875,-540.0390625
-206.54296875,203.125,168.9453125,-551.26953125
-668.45703125,-1000.0,-1000.0,-519.04296875
-292.96875,-748.53515625,-712.890625,-441.40625
416.015625,623.53515625,644.04296875,-377.9296875
500.0,999.51171875,999.51171875,-376.953125
-127.44140625,199.70703125,160.64453125,-413.0859375
-665.0390625,-990.72265625,-1000.0,-384.765625
-386.23046875,-1000.0,-985.83984375,-295.41015625
339.84375,-71.77734375,237.3046875,-213.37890625
540.0390625,999.51171875,999.51171875,-201.171875
-30.76171875,455.56640625,235.83984375,-269.53125
-630.37109375,-939.94140625,-1000.0,-286.1328125
-464.35546875,-1000.0,-1000.0,-209.9609375
278.80859375,136.23046875,101.07421875,-142.578125
566.89453125,999.51171875,999.51171875,-138.18359375
47.8515625,556.15234375,358.88671875,-178.7109375
-583.984375,-767.08984375,-924.31640625,-194.82421875
-528.3203125,-1000.0,-1000.0,-135.7421875
187.98828125,-213.37890625,-153.3203125,-43.9453125
575.68359375,999.51171875,999.51171875,-25.390625
140.13671875,823.73046875,579.1015625,-105.95703125
-528.80859375,-514.6484375,-774.90234375,-169.43359375
-595.703125,-1000.0,-1000.0,-126.46484375
104.98046875,-161.62109375,-189.453125,-38.0859375
566.40625,974.12109375,999.51171875,-24.4140625
225.5859375,999.51171875,883.7890625,-93.26171875
-441.40625,102.05078125,-395.99609375,-155.76171875
-650.87890625,-1000.0,-1000.0,-131.34765625
10.7421875,-239.74609375,-197.75390625,-39.55078125
555.17578125,982.421875,999.51171875,7.8125
276.3671875,999.51171875,969.23828125,-37.59765625
-391.6015625,159.1796875,-222.65625,-98.6328125
-671.875,-1000.0,-1000.0,-89.35546875
-96.19140625,-539.0625,-298.828125,-4.8828125
521.97265625,835.9375,942.87109375,48.33984375
351.5625,999.51171875,999.51171875,-15.13671875
-314.453125,180.6640625,43.9453125,-97.16796875
-672.36328125,-1000.0,-1000.0,-97.16796875
-193.359375,-885.25390625,-493.65234375,-23.92578125
469.7265625,440.91796875,841.796875,32.2265625
412.59765625,999.51171875,999.51171875,-20.5078125
-250.9765625,172.8515625,131.34765625,-120.60546875
-683.10546875,-1000.0,-1000.0,-122.0703125
-265.625,-844.7265625,-655.76171875,-17.578125
449.21875,483.88671875,702.1484375,61.03515625
491.2109375,999.51171875,999.51171875,26.3671875
-151.85546875,279.296875,172.8515625,-67.3828125
-666.015625,-1000.0,-1000.0,-104.00390625
-360.83984375,-1000.0,-897.94921875,-35.15625
369.62890625,211.9140625,400.390625,38.57421875
515.13671875,999.51171875,999.51171875,13.18359375
-89.35546875,255.859375,182.12890625,-68.84765625
-646.97265625,-975.5859375,-1000.0,-100.09765625
-440.4296875,-1000.0,-1000.0,-49.8046875
286.1328125,-93.26171875,124.51171875,29.296875
546.875,999.51171875,999.51171875,35.64453125
14.6484375,472.16796875,298.33984375,-50.78125
-604.98046875,-875.9765625,-961.42578125,-106.93359375
-501.953125,-1000.0,-1000.0,-51.7578125
229.00390625,-179.6875,-97.65625,34.66796875
557.6171875,987.3046875,999.51171875,40.0390625
121.09375,999.51171875,596.19140625,-36.62109375
-519.53125,-50.29296875,-757.8125,-101.5625
-574.70703125,-1000.0,-1000.0,-64.453125
148.4375,-159.1796875,-152.83203125,23.92578125
570.80078125,999.51171875,999.51171875,48.828125
185.546875,940.4296875,718.75,-18.5546875
-477.05078125,-299.31640625,-621.58203125,-100.5859375
-613.76953125,-1000.0,-1000.0,-79.1015625
65.91796875,-231.93359375,-191.89453125,19.04296875
583.0078125,956.54296875,999.51171875,58.10546875
284.1796875,999.51171875,955.078125,-11.71875
-397.94921875,101.07421875,-268.06640625,-96.6796875
-648.92578125,-1000.0,-1000.0,-89.35546875
-15.625,-237.79296875,-219.23828125,3.41796875
564.94140625,986.328125,996.09375,50.78125
325.68359375,999.51171875,999.51171875,-9.765625
-350.09765625,132.32421875,-91.30859375,-95.21484375
-677.24609375,-1000.0,-1000.0,-94.7265625
-128.90625,-360.3515625,-342.7734375,-13.671875
512.6953125,929.6875,924.8046875,31.25
385.25390625,999.51171875,999.51171875,-13.18359375
-277.83203125,178.7109375,95.21484375,-88.8671875
-678.22265625,-1000.0,-1000.0,-110.83984375
-233.3984375,-872.55859375,-587.40234375,-30.76171875
463.37890625,454.58984375,765.13671875,82.51953125
468.75,999.51171875,999.51171875,91.796875
-194.82421875,145.5078125,164.0625,20.5078125
-675.78125,-1000.0,-1000.0,-31.25
-321.2890625,-1000.0,-799.8046875,-2.9296875
395.5078125,127.44140625,537.109375,66.40625
504.39453125,999.51171875,999.51171875,12.6953125
-119.140625,169.43359375,168.9453125,-132.32421875
-654.78515625,-1000.0,-1000.0,-194.3359375
-401.3671875,-1000.0,-988.28125,-194.3359375
319.82421875,-76.171875,226.5625,-240.234375
530.76171875,999.51171875,999.51171875,-286.1328125
-0.48828125,821.2890625,299.31640625,-306.640625
-601.5625,-474.609375,-963.37890625,-308.10546875
-483.88671875,-1000.0,-1000.0,-123.046875
253.41796875,-209.47265625,-40.0390625,-13.671875
561.5234375,999.51171875,999.51171875,-141.6015625
77.1484375,711.42578125,423.33984375,-214.84375
-558.10546875,-663.57421875,-895.99609375,-184.5703125
-536.1328125,-1000.0,-1000.0,25.87890625
181.15234375,-186.03515625,-163.0859375,287.109375
574.70703125,999.51171875,999.51171875,427.24609375
166.50390625,999.51171875,646.484375,402.83203125
-505.859375,-219.7265625,-708.984375,315.91796875
-627.9296875,-1000.0,-1000.0,310.546875
71.2890625,-96.19140625,-181.640625,425.29296875
527.83203125,999.51171875,999.51171875,500.9765625
166.50390625,980.95703125,834.9609375,427.734375
-502.44140625,-187.5,-467.28515625,295.8984375
-708.984375,-1000.0,-1000.0,261.71875
-66.89453125,-310.546875,-203.125,356.93359375
501.46484375,919.43359375,994.140625,440.91796875
253.90625,999.51171875,999.51171875,394.53125
-419.921875,201.66015625,-95.703125,261.71875
-718.26171875,-1000.0,-1000.0,212.40234375
-140.625,-523.4375,-304.6875,300.78125
492.1875,853.515625,943.359375,387.20703125
343.75,999.51171875,999.51171875,355.46875
-321.77734375,180.6640625,87.40234375,231.4453125
-705.078125,-1000.0,-1000.0,162.59765625
-239.74609375,-903.80859375,-521.484375,240.72265625
442.87109375,414.0625,823.73046875,347.16796875
417.96875,999.51171875,999.51171875,328.125
-230.95703125,155.2734375,158.203125,203.61328125
-669.43359375,-1000.0,-1000.0,127.44140625
-284.1796875,-981.4453125,-727.05078125,188.4765625
422.36328125,259.765625,624.0234375,295.8984375
498.046875,999.51171875,999.51171875,298.828125
-102.05078125,702.1484375,176.7578125,181.640625
-629.8828125,-628.41796875,-1000.0,88.37890625
-380.859375,-1000.0,-958.984375,127.9296875
356.4453125,8.7890625,296.38671875,239.2578125
536.62109375,999.51171875,999.51171875,257.32421875
-43.9453125,404.296875,211.9140625,145.01953125
-609.86328125,-917.48046875,-1000.0,50.78125
-434.08203125,-1000.0,-1000.0,83.0078125
290.52734375,-144.04296875,71.2890625,198.2421875
571.2890625,999.51171875,999.51171875,238.76953125
44.921875,473.14453125,320.80078125,136.71875
-585.9375,-886.23046875,-952.63671875,25.390625
-502.44140625,-1000.0,-1000.0,41.015625
233.88671875,-213.37890625,-116.2109375,154.78515625
598.14453125,999.51171875,999.51171875,208.0078125
154.78515625,701.66015625,495.60546875,120.60546875
-504.8828125,-673.33984375,-845.21484375,-0.9765625
-557.12890625,-1000.0,-1000.0,0.0
151.85546875,-167.48046875,-207.03125,115.72265625
598.14453125,977.05078125,999.51171875,183.59375
235.3515625,999.51171875,803.7109375,118.1640625
-435.546875,51.7578125,-519.04296875,-2.44140625
-621.09375,-1000.0,-1000.0,-28.3203125
34.1796875,-314.453125,-189.94140625,74.70703125
573.73046875,956.54296875,999.51171875,154.78515625
303.22265625,999.51171875,982.91015625,98.6328125
-386.71875,72.75390625,-205.078125,-28.80859375
-671.38671875,-1000.0,-1000.0,-59.5703125
-69.82421875,-501.46484375,-266.6015625,40.0390625
541.015625,853.515625,970.21484375,127.9296875
351.07421875,999.51171875,999.51171875,88.8671875
-324.70703125,142.578125,-31.73828125,-31.73828125
-678.22265625,-1000.0,-1000.0,-83.49609375
-167.48046875,-703.125,-423.828125,7.32421875
502.9296875,669.43359375,883.7890625,123.046875
418.45703125,999.51171875,999.51171875,102.05078125
-249.0234375,164.55078125,130.37109375,-25.87890625
-667.48046875,-1000.0,-1000.0,-93.75
-250.0,-955.56640625,-646.484375,-17.578125
454.1015625,328.125,712.890625,105.46875
489.2578125,999.51171875,999.51171875,107.421875
-166.9921875,142.08984375,164.0625,-20.5078125
-658.69140625,-1000.0,-1000.0,-99.12109375
-329.58984375,-1000.0,-869.62890625,-34.1796875
391.11328125,65.91796875,437.98828125,83.984375
538.57421875,999.51171875,999.51171875,104.4921875
-66.89453125,349.12109375,186.5234375,-10.25390625
-631.34765625,-997.55859375,-1000.0,-97.16796875
-397.4609375,-1000.0,-981.93359375,-37.59765625
336.9140625,227.05078125,245.1171875,81.54296875
552.734375,999.51171875,999.51171875,118.65234375
19.04296875,695.3125,299.8046875,20.01953125
-593.75,-598.6328125,-956.0546875,-90.33203125
-494.140625,-1000.0,-1000.0,-62.5
245.1171875,-200.68359375,-79.58984375,56.640625
587.890625,999.51171875,999.51171875,107.91015625
120.1171875,862.79296875,497.55859375,16.6015625
-549.8046875,-457.03125,-845.21484375,-104.98046875
-563.4765625,-1000.0,-1000.0,-90.33203125
170.41015625,-190.4296875,-168.9453125,40.0390625
590.8203125,999.51171875,999.51171875,110.3515625
197.75390625,954.1015625,712.40234375,37.109375
-485.3515625,-301.26953125,-634.27734375,-84.9609375
-618.1640625,-1000.0,-1000.0,-94.7265625
73.2421875,-191.40625,-193.359375,20.99609375
574.21875,993.65234375,999.51171875,99.12109375
255.37109375,999.51171875,905.2734375,37.59765625
-428.22265625,-54.19921875,-357.421875,-88.8671875
-656.25,-1000.0,-1000.0,-114.2578125
-23.92578125,-382.32421875,-219.7265625,-2.44140625
552.24609375,894.53125,986.81640625,89.84375
325.1953125,999.51171875,999.51171875,45.41015625
-345.21484375,213.37890625,-63.96484375,-77.63671875
-676.7578125,-1000.0,-1000.0,-122.55859375
-137.20703125,-618.65234375,-364.2578125,-28.3203125
518.5546875,773.4375,917.96875,79.1015625
393.06640625,999.51171875,999.51171875,51.26953125
-287.109375,197.265625,92.28515625,-73.73046875
-692.87109375,-1000.0,-1000.0,-127.9296875
-215.33203125,-651.3671875,-511.71875,-36.1328125
489.2578125,741.2109375,831.0546875,84.47265625
458.0078125,999.51171875,999.51171875,75.68359375
-199.21875,190.4296875,167.96875,-50.78125
-671.38671875,-1000.0,-1000.0,-123.53515625
-292.96875,-721.19140625,-704.58984375,-53.22265625
424.8046875,659.1796875,655.2734375,59.08203125
488.28125,999.51171875,999.51171875,68.84765625
-141.11328125,150.390625,162.59765625,-48.828125
-678.7109375,-1000.0,-1000.0,-150.390625
-412.109375,-1000.0,-963.37890625,-95.703125
336.9140625,-2.9296875,278.80859375,45.8984375
540.0390625,999.51171875,999.51171875,76.66015625
-30.2734375,433.10546875,232.421875,-28.3203125
-610.3515625,-891.6015625,-1000.0,-112.79296875
-454.58984375,-1000.0,-1000.0,-79.1015625
264.16015625,-175.29296875,20.5078125,25.390625
560.05859375,999.51171875,999.51171875,79.58984375
75.1953125,787.109375,423.828125,-3.90625
-570.3125,-554.19921875,-891.11328125,-114.2578125
-545.41015625,-1000.0,-1000.0,-93.75
178.22265625,-203.125,-154.78515625,20.5078125
563.4765625,999.51171875,999.51171875,79.58984375
137.6953125,859.86328125,593.75,-2.44140625
-519.04296875,-461.9140625,-762.20703125,-120.1171875
-593.75,-1000.0,-1000.0,-118.1640625
111.328125,-165.52734375,-198.73046875,2.44140625
588.8671875,982.91015625,999.51171875,86.9140625
242.67578125,999.51171875,822.75390625,23.92578125
-431.15234375,41.015625,-487.79296875,-96.6796875
-624.0234375,-1000.0,-1000.0,-112.79296875
19.04296875,-322.265625,-203.61328125,-4.8828125
560.05859375,968.75,999.51171875,76.171875
289.0625,999.51171875,964.35546875,19.53125
-380.859375,-42.48046875,-239.74609375,-90.8203125
-650.87890625,-1000.0,-1000.0,-116.2109375
-70.80078125,-498.046875,-297.36328125,-20.5078125
543.45703125,834.47265625,946.2890625,68.84765625
379.8828125,999.51171875,999.51171875,30.2734375
-293.9453125,191.89453125,18.5546875,-90.8203125
-669.43359375,-1000.0,-1000.0,-138.18359375
-149.90234375,-384.765625,-399.4140625,-50.29296875
524.90234375,929.19921875,899.4140625,69.82421875
433.59375,999.51171875,999.51171875,62.5
-240.72265625,188.96484375,148.4375,-68.359375
-679.6875,-1000.0,-1000.0,-134.27734375
-268.5546875,-930.17578125,-686.5234375,-66.89453125
437.5,371.58203125,671.875,39.0625
478.02734375,999.51171875,999.51171875,49.8046875
-169.43359375,138.18359375,159.66796875,-63.4765625
-669.43359375,-1000.0,-1000.0,-145.5078125
-373.53515625,-1000.0,-920.41015625,-83.984375
347.65625,15.13671875,356.93359375,41.50390625
519.53125,999.51171875,999.51171875,64.453125
-75.1953125,381.8359375,201.66015625,-47.36328125
-660.64453125,-936.5234375,-1000.0,-142.578125
-463.37890625,-1000.0,-1000.0,-93.75
287.109375,-52.24609375,136.23046875,35.64453125
547.8515625,999.51171875,999.51171875,75.1953125
22.94921875,636.71875,338.37890625,-24.90234375
-593.26171875,-718.26171875,-942.87109375,-126.46484375
-515.625,-1000.0,-1000.0,-105.46875
215.33203125,-136.71875,-80.56640625,12.6953125
558.10546875,999.51171875,999.51171875,62.01171875
110.83984375,960.9375,536.62109375,-25.390625
-529.296875,-258.7890625,-803.22265625,-129.8828125
-573.2421875,-1000.0,-1000.0,-118.1640625
126.953125,-192.87109375,-192.87109375,-4.8828125
566.89453125,999.51171875,999.51171875,68.84765625
201.171875,975.09765625,732.91015625,8.30078125
-479.4921875,-256.8359375,-613.28125,-106.93359375
-621.58203125,-1000.0,-1000.0,-114.2578125
66.89453125,-221.6796875,-195.80078125,-0.9765625
581.54296875,986.81640625,999.51171875,83.49609375
268.5546875,999.51171875,924.31640625,21.484375
-417.48046875,-77.63671875,-327.63671875,-99.12109375
-659.66796875,-1000.0,-1000.0,-122.0703125
-31.25,-187.98828125,-214.35546875,-20.01953125
551.7578125,982.91015625,987.79296875,68.359375
324.21875,999.51171875,999.51171875,22.4609375
-347.65625,147.4609375,-53.22265625,-99.12109375
-684.08203125,-1000.0,-1000.0,-144.04296875
-137.6953125,-520.5078125,-360.3515625,-46.875
522.94921875,845.703125,918.45703125,64.94140625
399.90234375,999.51171875,999.51171875,40.52734375
-275.390625,170.8984375,98.14453125,-84.9609375
-685.05859375,-1000.0,-1000.0,-147.4609375
-244.62890625,-902.83203125,-618.65234375,-63.96484375
453.125,403.80859375,733.3984375,57.12890625
469.7265625,999.51171875,999.51171875,60.05859375
-193.359375,220.21484375,176.7578125,-68.84765625
-693.84765625,-1000.0,-1000.0,-158.69140625
-334.9609375,-1000.0,-803.7109375,-83.0078125
396.97265625,249.0234375,533.203125,38.57421875
509.765625,999.51171875,999.51171875,41.9921875
-109.86328125,251.46484375,172.36328125,-67.3828125
-656.25,-975.09765625,-1000.0,-144.53125
-415.52734375,-1000.0,-999.0234375,-90.8203125
319.82421875,-93.26171875,208.49609375,29.78515625
545.41015625,999.51171875,999.51171875,63.96484375
-4.8828125,602.5390625,298.33984375,-41.9921875
-610.83984375,-765.625,-976.5625,-143.06640625
-487.79296875,-1000.0,-1000.0,-104.00390625
248.53515625,-168.9453125,30.76171875,20.99609375
562.01171875,999.51171875,999.51171875,68.359375
72.75390625,604.4921875,410.64453125,-25.87890625
-574.21875,-774.4140625,-895.99609375,-141.11328125
-545.41015625,-1000.0,-1000.0,-126.46484375
176.7578125,-197.75390625,-162.59765625,-5.859375
571.77734375,999.51171875,999.51171875,60.546875
175.29296875,946.77734375,643.5546875,-1.46484375
-480.95703125,-316.89453125,-710.44921875,-108.88671875
-596.19140625,-1000.0,-1000.0,-120.1171875
111.328125,-181.640625,-189.94140625,-0.9765625
594.23828125,999.51171875,999.51171875,80.56640625
226.07421875,999.51171875,850.5859375,4.8828125
-458.49609375,-156.73828125,-444.82421875,-124.51171875
-660.15625,-1000.0,-1000.0,-147.4609375
-26.3671875,-416.9921875,-218.75,-42.96875
538.57421875,870.1171875,993.65234375,52.734375
308.10546875,999.51171875,999.51171875,11.23046875
-360.83984375,195.3125,-121.09375,-106.4453125
-672.36328125,-1000.0,-1000.0,-138.671875
-100.5859375,-488.28125,-311.03515625,-34.66796875
538.57421875,875.0,934.5703125,63.96484375
379.39453125,999.51171875,999.51171875,24.4140625
-300.29296875,197.75390625,113.28125,-103.515625
-686.03515625,-1000.0,-1000.0,-157.71484375
-208.0078125,-761.71875,-499.0234375,-73.2421875
470.703125,611.81640625,843.75,38.57421875
436.5234375,999.51171875,999.51171875,35.15625
-216.30859375,151.3671875,161.62109375,-80.078125
-668.45703125,-1000.0,-1000.0,-137.20703125
-296.875,-1000.0,-740.72265625,-65.91796875
410.15625,174.8046875,612.3046875,45.41015625
497.55859375,999.51171875,999.51171875,57.12890625
-132.8125,275.87890625,172.36328125,-58.10546875
-658.203125,-1000.0,-1000.0,-136.71875
-357.421875,-840.33203125,-869.140625,-71.77734375
373.53515625,511.23046875,435.05859375,41.9921875
528.3203125,999.51171875,999.51171875,37.59765625
-62.98828125,287.59765625,198.73046875,-84.9609375
-633.30078125,-938.4765625,-1000.0,-165.0390625
-443.359375,-1000.0,-1000.0,-119.62890625
272.94921875,-194.82421875,35.64453125,-8.7890625
541.9921875,999.51171875,999.51171875,34.66796875
41.50390625,681.640625,360.3515625,-51.26953125
-583.49609375,-705.56640625,-939.453125,-148.92578125
-524.4140625,-1000.0,-1000.0,-120.1171875
212.890625,-111.81640625,-84.9609375,3.90625
573.73046875,999.51171875,999.51171875,63.96484375
109.375,614.74609375,507.32421875,-19.53125
-548.33984375,-750.48828125,-832.03125,-137.20703125
-590.33203125,-1000.0,-1000.0,-131.34765625
123.046875,-185.05859375,-200.68359375,-14.6484375
577.1484375,999.51171875,999.51171875,61.03515625
208.49609375,999.51171875,749.51171875,-0.48828125
-459.9609375,-156.25,-588.8671875,-109.375
-627.9296875,-1000.0,-1000.0,-125.9765625
34.66796875,-265.13671875,-198.2421875,-18.5546875
575.1953125,944.3359375,999.51171875,71.2890625
300.29296875,999.51171875,975.09765625,20.5078125
-388.671875,168.45703125,-219.7265625,-100.5859375
-658.203125,-1000.0,-1000.0,-121.09375
-51.26953125,-518.06640625,-272.94921875,-10.7421875
551.7578125,850.5859375,955.078125,77.1484375
365.72265625,999.51171875,999.51171875,38.57421875
-314.94140625,199.21875,44.43359375,-86.42578125
-686.03515625,-1000.0,-1000.0,-138.671875
-179.6875,-707.03125,-422.36328125,-51.7578125
491.69921875,678.7109375,891.11328125,54.19921875
418.9453125,999.51171875,999.51171875,39.55078125
-241.69921875,186.03515625,149.4140625,-83.0078125
-671.38671875,-1000.0,-1000.0,-139.6484375
-243.1640625,-747.55859375,-593.75,-57.12890625
450.68359375,628.90625,766.11328125,58.59375
468.75,999.51171875,999.51171875,62.98828125
-182.12890625,153.3203125,168.45703125,-54.6875
-670.41015625,-1000.0,-1000.0,-126.46484375
-333.49609375,-1000.0,-836.42578125,-61.03515625
392.08984375,183.10546875,480.46875,54.6875
530.2734375,999.51171875,999.51171875,56.15234375
-69.3359375,437.98828125,211.9140625,-69.82421875
-645.99609375,-885.7421875,-1000.0,-202.63671875
-438.96484375,-1000.0,-1000.0,-210.9375
319.82421875,-71.2890625,155.76171875,-33.203125
568.359375,999.51171875,999.51171875,-76.66015625
-23.4375,209.47265625,250.9765625,-406.25
-634.765625,-1000.0,-983.3984375,-486.328125
-481.93359375,-1000.0,-1000.0,-318.359375
246.09375,-258.30078125,-83.0078125,-121.58203125
572.265625,999.51171875,999.51171875,-30.2734375
100.09765625,617.67578125,432.12890625,-95.21484375
-547.36328125,-773.92578125,-892.08984375,-166.015625
-553.7109375,-1000.0,-1000.0,-286.62109375
153.80859375,-162.109375,-167.48046875,-358.3984375
570.80078125,962.40234375,999.51171875,-275.87890625
195.80078125,999.51171875,805.6640625,-364.74609375
-461.42578125,186.03515625,-511.71875,-497.55859375
-609.86328125,-1000.0,-1000.0,-490.72265625
65.91796875,-259.765625,-193.359375,-411.62109375
567.87109375,999.51171875,999.51171875,-277.34375
263.18359375,999.51171875,890.13671875,-210.44921875
-409.1796875,-68.84765625,-379.39453125,-255.859375
-638.18359375,-1000.0,-1000.0,-213.37890625
-13.671875,-386.23046875,-235.83984375,-64.94140625
554.6875,906.73828125,991.69921875,19.53125
327.63671875,999.51171875,999.51171875,-29.296875
-345.21484375,91.796875,-133.7890625,-124.0234375
-655.76171875,-1000.0,-1000.0,-131.34765625
-99.12109375,-467.7734375,-328.125,-6.34765625
538.57421875,870.1171875,928.22265625,124.0234375
407.71484375,999.51171875,999.51171875,117.1875
-273.92578125,195.80078125,96.19140625,-0.48828125
-687.01171875,-1000.0,-1000.0,-57.6171875
-230.95703125,-789.55078125,-544.43359375,29.296875
457.51953125,577.63671875,806.15234375,138.18359375
442.3828125,999.51171875,999.51171875,132.32421875
-219.23828125,180.17578125,165.0390625,10.25390625
-687.5,-1000.0,-1000.0,-59.08203125
-304.19921875,-787.59765625,-728.02734375,14.6484375
422.8515625,576.171875,630.859375,123.046875
505.37109375,999.51171875,999.51171875,127.9296875
-131.34765625,164.0625,161.62109375,22.94921875
-674.31640625,-1000.0,-1000.0,-53.7109375
-393.5546875,-1000.0,-964.84375,3.41796875
347.16796875,14.6484375,276.3671875,120.1171875
537.109375,999.51171875,999.51171875,132.8125
-42.48046875,385.25390625,231.93359375,21.484375
-632.8125,-923.33984375,-1000.0,-66.40625
-472.65625,-1000.0,-1000.0,-29.78515625
253.90625,-122.0703125,37.109375,77.63671875
551.26953125,999.51171875,999.51171875,124.0234375
66.40625,858.88671875,433.59375,36.1328125
-579.58984375,-435.546875,-882.32421875,-67.87109375
-556.15234375,-1000.0,-1000.0,-45.8984375
167.96875,-214.84375,-142.08984375,59.08203125
559.5703125,999.51171875,999.51171875,118.1640625
140.13671875,734.86328125,574.21875,53.22265625
-533.203125,-636.23046875,-778.3203125,-63.96484375
-602.5390625,-1000.0,-1000.0,-69.3359375
110.3515625,-177.734375,-194.82421875,45.8984375
583.984375,997.0703125,999.51171875,122.0703125
231.4453125,999.51171875,847.65625,50.29296875
-451.171875,-106.93359375,-455.56640625,-70.3125
-640.625,-1000.0,-1000.0,-86.42578125
20.5078125,-229.00390625,-189.94140625,18.5546875
561.5234375,984.86328125,999.51171875,92.28515625
290.52734375,999.51171875,984.86328125,28.3203125
-384.765625,-7.8125,-194.3359375,-85.44921875
-662.109375,-1000.0,-1000.0,-115.234375
-87.40234375,-601.5625,-303.22265625,-20.01953125
522.4609375,743.65234375,940.4296875,78.61328125
371.09375,999.51171875,999.51171875,42.48046875
-300.78125,189.94140625,53.22265625,-75.1953125
-683.59375,-1000.0,-1000.0,-122.0703125
-188.96484375,-742.67578125,-467.28515625,-41.9921875
499.51171875,633.30078125,858.88671875,63.4765625
445.80078125,999.51171875,999.51171875,46.875
-235.3515625,165.52734375,160.15625,-77.63671875
-691.89453125,-1000.0,-1000.0,-144.04296875
-301.26953125,-1000.0,-728.02734375,-70.80078125
405.2734375,164.0625,627.44140625,40.52734375
468.26171875,999.51171875,999.51171875,47.8515625
-169.43359375,187.01171875,163.0859375,-62.98828125
-673.828125,-1000.0,-1000.0,-141.6015625
-369.62890625,-1000.0,-913.57421875,-84.47265625
357.421875,36.1328125,366.2109375,34.66796875
527.83203125,999.51171875,999.51171875,59.08203125
-55.17578125,589.35546875,213.37890625,-45.8984375
-643.06640625,-782.71484375,-1000.0,-145.99609375
-465.8203125,-1000.0,-1000.0,-116.2109375
280.2734375,-2.44140625,120.1171875,3.41796875
550.29296875,999.51171875,999.51171875,51.7578125
13.18359375,463.37890625,304.6875,-37.59765625
-613.76953125,-872.0703125,-959.47265625,-140.13671875
-515.13671875,-1000.0,-1000.0,-112.3046875
216.796875,-204.58984375,-95.21484375,7.8125
573.73046875,999.51171875,999.51171875,71.2890625
131.34765625,915.0390625,543.9453125,-5.37109375
-530.76171875,-371.58203125,-801.7578125,-116.69921875
-566.89453125,-1000.0,-1000.0,-109.375
134.765625,-184.08203125,-180.17578125,-12.20703125
549.8046875,999.51171875,999.51171875,39.0625
193.359375,999.51171875,749.0234375,-24.4140625
-471.6796875,-211.42578125,-591.30859375,-129.39453125
-625.48828125,-1000.0,-1000.0,-133.7890625
69.3359375,-177.24609375,-191.40625,-18.5546875
571.77734375,999.51171875,999.51171875,64.94140625
255.37109375,999.51171875,924.8046875,6.34765625
-423.828125,-57.12890625,-320.3125,-117.1875
-667.96875,-1000.0,-1000.0,-148.4375
-51.26953125,-436.03515625,-249.51171875,-44.43359375
543.45703125,877.44140625,976.5625,45.8984375
326.171875,999.51171875,999.51171875,-0.9765625
-354.00390625,122.0703125,-69.3359375,-106.4453125
-682.6171875,-1000.0,-1000.0,-139.16015625
-149.4140625,-547.36328125,-373.53515625,-56.640625
506.34765625,823.2421875,906.73828125,52.24609375
395.5078125,999.51171875,999.51171875,37.59765625
-273.4375,193.359375,123.53515625,-79.1015625
-684.08203125,-1000.0,-1000.0,-134.765625
-236.81640625,-738.28125,-567.87109375,-61.5234375
458.49609375,612.79296875,784.66796875,32.2265625
452.63671875,999.51171875,999.51171875,20.01953125
-184.08203125,454.1015625,175.29296875,-91.30859375
-672.36328125,-887.20703125,-1000.0,-164.55078125
-349.12109375,-1000.0,-848.14453125,-100.09765625
382.8125,73.73046875,472.16796875,18.06640625
511.23046875,999.51171875,999.51171875,40.52734375
-99.12109375,308.59375,173.828125,-53.22265625
-645.01953125,-972.16796875,-1000.0,-129.8828125
-405.2734375,-1000.0,-996.09375,-79.1015625
325.1953125,-35.64453125,215.33203125,35.15625
551.26953125,999.51171875,999.51171875,62.01171875
-0.9765625,551.26953125,280.2734375,-34.66796875
-610.3515625,-854.98046875,-990.72265625,-126.953125
-468.26171875,-1000.0,-1000.0,-83.49609375
266.11328125,104.98046875,64.94140625,32.71484375
563.96484375,999.51171875,999.51171875,81.54296875
55.6640625,274.90234375,355.46875,2.44140625
-586.42578125,-957.03125,-927.734375,-103.02734375
-545.41015625,-1000.0,-1000.0,-87.890625
178.22265625,-212.40234375,-162.59765625,21.484375
581.0546875,999.51171875,999.51171875,81.0546875
183.59375,992.1875,687.5,12.6953125
-479.98046875,-227.05078125,-657.71484375,-95.21484375
-595.703125,-1000.0,-1000.0,-95.703125
100.5859375,-176.26953125,-196.77734375,5.37109375
592.28515625,999.51171875,999.51171875,72.75390625
257.8125,999.51171875,884.27734375,11.71875
-426.26953125,-50.78125,-395.01953125,-105.95703125
-638.18359375,-1000.0,-1000.0,-129.8828125
-13.671875,-394.04296875,-210.9375,-232.91015625
528.3203125,920.41015625,999.51171875,-427.24609375
295.41015625,999.51171875,999.51171875,-408.69140625
-360.83984375,-18.06640625,-165.52734375,-336.9140625
-651.3671875,-1000.0,-1000.0,-265.625
-80.56640625,-472.65625,-311.03515625,-91.30859375
540.0390625,849.609375,931.15234375,10.7421875
394.53125,999.51171875,999.51171875,67.87109375
-280.2734375,210.44921875,113.28125,-253.41796875
-724.12109375,-1000.0,-1000.0,-896.97265625
-251.46484375,-903.80859375,-543.45703125,-704.1015625
463.8671875,422.36328125,812.98828125,-431.15234375
440.4296875,999.51171875,999.51171875,-407.71484375
-205.078125,144.04296875,146.484375,-289.0625
-669.43359375,-1000.0,-1000.0,-404.78515625
-308.59375,-1000.0,-765.625,-425.78125
400.87890625,103.515625,578.61328125,-321.2890625
500.48828125,999.51171875,999.51171875,-153.3203125
-118.1640625,281.73828125,169.921875,-89.35546875
-646.484375,-1000.0,-1000.0,-85.9375
-358.3984375,-899.4140625,-890.625,27.34375
375.0,424.31640625,403.80859375,167.96875
538.0859375,999.51171875,999.51171875,215.8203125
-40.52734375,415.0390625,225.09765625,127.44140625
-618.1640625,-936.5234375,-1000.0,59.08203125
-435.05859375,-1000.0,-1000.0,78.61328125
287.109375,181.640625,140.625,62.01171875
551.26953125,999.51171875,999.51171875,77.63671875
42.48046875,468.75,330.078125,61.5234375
-579.1015625,-844.7265625,-941.40625,0.0
-514.6484375,-1000.0,-1000.0,38.0859375
212.40234375,-208.49609375,-118.65234375,148.92578125
586.42578125,999.51171875,999.51171875,203.125
145.5078125,857.421875,571.2890625,131.34765625
-522.94921875,-463.8671875,-777.83203125,27.34375
-593.26171875,-1000.0,-1000.0,23.92578125
114.2578125,-186.5234375,-193.359375,129.8828125
564.453125,999.51171875,999.51171875,194.82421875
206.54296875,975.5859375,783.69140625,123.53515625
-471.19140625,-242.1875,-543.9453125,5.37109375
-643.5546875,-1000.0,-1000.0,-9.765625
19.53125,-291.9921875,-197.75390625,87.40234375
551.26953125,921.38671875,999.51171875,166.9921875
283.69140625,999.51171875,962.40234375,122.55859375
-379.8828125,219.7265625,-234.86328125,2.44140625
-649.4140625,-1000.0,-1000.0,-32.2265625
-74.21875,-627.9296875,-306.15234375,57.12890625
531.73828125,773.4375,955.078125,147.94921875
358.88671875,999.51171875,999.51171875,116.2109375
-310.546875,125.9765625,-57.6171875,2.9296875
-660.15625,-1000.0,-1000.0,-47.8515625
-161.62109375,-721.19140625,-446.2890625,28.3203125
496.09375,645.01953125,865.234375,132.32421875
412.109375,999.51171875,999.51171875,112.79296875
-251.46484375,195.80078125,135.25390625,-8.7890625
-684.08203125,-1000.0,-1000.0,-73.2421875
-229.98046875,-410.64453125,-540.0390625,5.37109375
473.6328125,903.3203125,814.94140625,117.67578125
461.9140625,999.51171875,999.51171875,115.234375
-165.0390625,375.9765625,170.8984375,4.39453125
-658.203125,-922.8515625,-1000.0,-71.2890625
-359.86328125,-1000.0,-922.36328125,-19.04296875
355.95703125,-51.26953125,360.3515625,95.703125
519.53125,999.51171875,999.51171875,120.60546875
-93.75,164.0625,156.73828125,3.41796875
-651.3671875,-1000.0,-1000.0,-88.8671875
-418.9453125,-1000.0,-1000.0,-51.7578125
293.45703125,-201.171875,93.75,36.1328125
546.38671875,999.51171875,999.51171875,69.82421875
24.90234375,594.7265625,301.7578125,-3.90625
-593.26171875,-786.62109375,-967.7734375,-98.14453125
-492.67578125,-1000.0,-1000.0,-71.2890625
226.5625,-179.19921875,-63.4765625,37.59765625
546.38671875,999.51171875,999.51171875,87.40234375
96.19140625,947.265625,535.64453125,15.625
-555.6640625,-310.05859375,-807.12890625,-97.65625
-586.42578125,-1000.0,-1000.0,-91.796875
140.625,-161.62109375,-181.640625,30.2734375
553.7109375,978.515625,999.51171875,99.12109375
172.36328125,999.51171875,727.5390625,37.59765625
-474.609375,123.53515625,-615.72265625,-70.80078125
-615.234375,-1000.0,-1000.0,-83.49609375
60.05859375,-264.16015625,-195.80078125,18.5546875
559.08203125,999.51171875,999.51171875,88.8671875
240.72265625,999.51171875,894.53125,31.73828125
-425.78125,-64.453125,-370.1171875,-74.21875
-652.34375,-1000.0,-1000.0,-100.5859375
-39.55078125,-462.890625,-237.79296875,-6.34765625
546.875,856.4453125,979.98046875,82.51953125
332.03125,999.51171875,999.51171875,43.9453125
-338.8671875,156.73828125,-73.73046875,-71.77734375
-673.33984375,-1000.0,-1000.0,-128.41796875
-105.46875,-257.8125,-297.36328125,-41.015625
539.0625,977.5390625,944.82421875,68.84765625
392.578125,999.51171875,999.51171875,45.8984375
-259.27734375,198.2421875,113.28125,-62.5
-660.64453125,-1000.0,-1000.0,-121.58203125
-229.98046875,-932.12890625,-584.9609375,-55.17578125
453.61328125,367.1875,769.53125,58.59375
457.03125,999.51171875,999.51171875,62.98828125
-198.2421875,148.92578125,159.66796875,-53.22265625
-663.0859375,-1000.0,-1000.0,-122.0703125
-303.22265625,-1000.0,-793.45703125,-54.19921875
402.83203125,169.921875,542.48046875,53.22265625
503.41796875,999.51171875,999.51171875,63.4765625
-82.03125,686.03515625,192.3828125,-33.203125
-622.55859375,-660.15625,-1000.0,-113.76953125
-397.94921875,-1000.0,-972.65625,-72.265625
340.33203125,29.78515625,273.92578125,46.875
549.8046875,999.51171875,999.51171875,78.61328125
-26.3671875,352.5390625,227.05078125,-30.2734375
-623.53515625,-940.91796875,-1000.0,-132.8125
-457.51953125,-1000.0,-1000.0,-96.6796875
269.53125,-137.20703125,22.94921875,18.5546875
558.10546875,999.51171875,999.51171875,63.4765625
76.171875,804.19921875,417.48046875,-18.5546875
-558.10546875,-516.11328125,-889.6484375,-116.2109375
-537.59765625,-1000.0,-1000.0,-95.21484375
176.26953125,-211.9140625,-180.17578125,16.6015625
573.73046875,999.51171875,999.51171875,74.70703125
149.4140625,774.90234375,599.609375,-14.6484375
-514.6484375,-582.51953125,-761.71875,-129.39453125
-580.56640625,-1000.0,-1000.0,-109.375
111.328125,-190.4296875,-201.66015625,8.30078125
574.70703125,999.51171875,999.51171875,89.84375
239.74609375,999.51171875,829.1015625,44.43359375
-438.4765625,-154.78515625,-484.375,-78.61328125
-633.7890625,-1000.0,-1000.0,-130.859375
34.1796875,-184.5703125,-188.96484375,-107.421875
561.03515625,999.51171875,999.51171875,-132.32421875
264.16015625,999.51171875,969.7265625,-275.390625
-403.80859375,-115.234375,-223.14453125,-485.83984375
-686.5234375,-1000.0,-1000.0,-588.8671875
-103.02734375,-307.12890625,-271.97265625,-557.12890625
522.94921875,931.15234375,959.9609375,-523.92578125
346.6796875,999.51171875,999.51171875,-528.80859375
-308.59375,154.296875,16.11328125,-527.83203125
-659.66796875,-1000.0,-1000.0,-456.54296875
-174.8046875,-701.66015625,-479.00390625,-260.25390625
503.41796875,670.8984375,844.23828125,-47.8515625
463.8671875,999.51171875,999.51171875,17.08984375
-206.0546875,177.24609375,164.55078125,-46.875
-669.43359375,-1000.0,-1000.0,-83.49609375
-271.97265625,-840.8203125,-695.80078125,2.44140625
433.59375,498.046875,666.015625,129.8828125
486.328125,999.51171875,999.51171875,158.203125
-148.92578125,202.63671875,163.57421875,54.6875
-658.203125,-1000.0,-1000.0,-32.71484375
-357.91015625,-1000.0,-916.015625,15.625
366.2109375,199.70703125,367.67578125,123.53515625
524.4140625,999.51171875,999.51171875,145.5078125
-70.3125,352.5390625,195.80078125,25.87890625
-637.6953125,-929.6875,-1000.0,-96.19140625
-446.2890625,-1000.0,-1000.0,-95.703125
277.83203125,-101.5625,103.515625,-35.15625
545.8984375,999.51171875,999.51171875,43.9453125
23.92578125,458.49609375,290.52734375,30.2734375
-590.33203125,-886.23046875,-963.37890625,-41.9921875
-508.30078125,-1000.0,-1000.0,-2.44140625
211.42578125,-201.66015625,-124.0234375,105.46875
564.94140625,999.51171875,999.51171875,149.4140625
127.9296875,967.7734375,551.7578125,75.1953125
-527.83203125,-312.98828125,-803.22265625,-45.8984375
-583.0078125,-1000.0,-1000.0,-43.9453125
138.18359375,-26.3671875,-146.484375,86.9140625
563.4765625,999.51171875,999.51171875,166.015625
175.78125,909.1796875,733.3984375,100.09765625
-492.1875,-308.10546875,-599.12109375,-18.5546875
-642.08984375,-1000.0,-1000.0,-43.9453125
34.1796875,-334.9609375,-197.265625,53.22265625
563.4765625,933.10546875,999.51171875,112.3046875
273.92578125,999.51171875,945.80078125,43.9453125
-406.25,-40.0390625,-286.1328125,-68.84765625
-652.34375,-1000.0,-1000.0,-99.609375
-46.38671875,-380.37109375,-239.2578125,-0.9765625
543.9453125,898.92578125,965.33203125,109.375
354.4921875,999.51171875,999.51171875,94.7265625
-318.359375,212.890625,35.15625,-8.30078125
-673.33984375,-1000.0,-1000.0,-49.31640625
-149.4140625,-633.7890625,-394.04296875,34.1796875
510.25390625,757.8125,906.73828125,143.06640625
414.0625,999.51171875,999.51171875,125.9765625
-258.30078125,186.03515625,124.51171875,-0.9765625
-676.7578125,-1000.0,-1000.0,-62.98828125
-240.234375,-791.50390625,-589.35546875,7.32421875
457.03125,574.70703125,767.08984375,114.74609375
467.28515625,999.51171875,999.51171875,120.1171875
-185.546875,147.4609375,169.921875,9.27734375
-666.015625,-1000.0,-1000.0,-64.94140625
-333.984375,-1000.0,-841.30859375,-12.20703125
373.046875,97.65625,478.02734375,95.703125
504.39453125,999.51171875,999.51171875,117.1875
-93.26171875,294.921875,181.15234375,17.08984375
-643.06640625,-993.1640625,-1000.0,-71.2890625
-405.2734375,-1000.0,-979.4921875,-35.15625
316.89453125,74.21875,250.0,71.2890625
534.1796875,999.51171875,999.51171875,106.4453125
-3.90625,473.14453125,285.15625,8.7890625
-605.46875,-894.53125,-979.98046875,-83.0078125
-478.02734375,-1000.0,-1000.0,-47.8515625
257.32421875,49.8046875,26.85546875,46.38671875
570.80078125,999.51171875,999.51171875,90.33203125
88.37890625,656.25,444.3359375,14.16015625
-556.640625,-670.41015625,-870.1171875,-89.35546875
-540.0390625,-1000.0,-1000.0,-72.265625
178.7109375,-202.1484375,-176.7578125,51.7578125
566.40625,999.51171875,999.51171875,117.1875
155.76171875,884.765625,652.34375,29.296875
-508.7890625,-411.62109375,-702.1484375,-95.21484375
-610.83984375,-1000.0,-1000.0,-100.5859375
72.75390625,-229.00390625,-192.3828125,14.16015625
558.59375,952.63671875,999.51171875,98.14453125
246.58203125,999.51171875,927.24609375,40.52734375
-427.24609375,110.3515625,-322.265625,-79.1015625
-655.76171875,-1000.0,-1000.0,-103.02734375
-14.6484375,-321.77734375,-206.54296875,-0.48828125
553.22265625,977.05078125,999.51171875,84.47265625
302.24609375,999.51171875,999.51171875,39.0625
-378.90625,-36.62109375,-145.01953125,-82.03125
-679.19921875,-1000.0,-1000.0,-124.0234375
-111.328125,-516.6015625,-333.0078125,-29.296875
528.80859375,820.80078125,924.31640625,60.546875
390.625,999.51171875,999.51171875,18.06640625
-276.3671875,205.56640625,102.5390625,-87.40234375
-660.15625,-1000.0,-1000.0,-122.55859375
-184.08203125,-480.46875,-488.76953125,-34.1796875
489.2578125,881.34765625,850.09765625,87.40234375
447.265625,999.51171875,999.51171875,81.54296875
-209.47265625,172.36328125,149.4140625,-40.52734375
-668.9453125,-1000.0,-1000.0,-111.81640625
-298.828125,-993.65234375,-768.06640625,-45.41015625
410.64453125,249.0234375,576.171875,59.08203125
491.69921875,999.51171875,999.51171875,61.03515625
-137.6953125,223.6328125,159.66796875,-51.7578125
-659.66796875,-1000.0,-1000.0,-136.23046875
-382.32421875,-1000.0,-971.6796875,-79.58984375
348.6328125,35.15625,268.5546875,51.7578125
545.41015625,999.51171875,999.51171875,87.40234375
-42.48046875,297.36328125,203.61328125,-28.3203125
-631.8359375,-954.58984375,-1000.0,-125.48828125
-458.984375,-1000.0,-1000.0,-86.42578125
259.765625,-218.75,-1.46484375,23.92578125
554.19921875,999.51171875,999.51171875,67.3828125
56.640625,699.21875,373.53515625,-25.87890625
-584.47265625,-673.828125,-928.7109375,-139.16015625
-540.52734375,-1000.0,-1000.0,-116.69921875
184.08203125,-167.48046875,-127.44140625,4.8828125
556.15234375,977.05078125,999.51171875,62.98828125
154.78515625,999.51171875,714.84375,-7.32421875
-496.58203125,43.9453125,-623.53515625,-110.3515625
-601.07421875,-1000.0,-1000.0,-111.328125
108.3984375,-200.1953125,-188.4765625,-5.859375
562.98828125,999.51171875,999.51171875,58.59375
212.890625,999.51171875,837.890625,-0.9765625
-442.87109375,-55.17578125,-468.26171875,-114.2578125
-632.8125,-1000.0,-1000.0,-140.625
20.01953125,-262.20703125,-186.5234375,-37.109375
555.17578125,964.35546875,999.51171875,44.43359375
284.66796875,999.51171875,990.72265625,-4.39453125
-393.5546875,89.84375,-181.640625,-124.51171875
-675.78125,-1000.0,-1000.0,-164.0625
-77.63671875,-431.15234375,-264.16015625,-88.8671875
539.55078125,892.08984375,963.8671875,0.9765625
361.328125,999.51171875,999.51171875,-20.5078125
-307.6171875,184.5703125,22.94921875,-127.44140625
-663.57421875,-1000.0,-1000.0,-159.66796875
-162.59765625,-625.0,-436.5234375,-67.87109375
505.37109375,751.46484375,877.44140625,48.828125
432.12890625,999.51171875,999.51171875,36.62109375
-228.02734375,278.80859375,165.0390625,-84.9609375
-675.29296875,-1000.0,-1000.0,-142.578125
-274.90234375,-847.65625,-673.828125,-62.5
439.453125,528.3203125,693.359375,57.6171875
476.5625,999.51171875,999.51171875,60.546875
-164.0625,135.25390625,158.69140625,-56.640625
-653.80859375,-1000.0,-1000.0,-126.46484375
-350.5859375,-1000.0,-928.22265625,-61.5234375
361.81640625,-21.484375,342.7734375,47.36328125
527.34375,999.51171875,999.51171875,69.82421875
-56.640625,382.8125,186.03515625,-30.76171875
-628.90625,-931.640625,-1000.0,-124.0234375
-438.4765625,-1000.0,-1000.0,-86.9140625
285.15625,-87.890625,104.4921875,24.90234375
537.109375,999.51171875,999.51171875,59.5703125
49.31640625,927.24609375,388.18359375,-27.34375
-555.6640625,-318.359375,-925.29296875,-123.53515625
-503.41796875,-1000.0,-1000.0,-111.328125
228.515625,-177.24609375,-42.96875,7.8125
569.82421875,999.51171875,999.51171875,64.94140625
114.2578125,802.734375,536.62109375,-20.01953125
-541.50390625,-536.62109375,-804.19921875,-129.8828125
-576.66015625,-1000.0,-1000.0,-127.44140625
144.53125,-191.89453125,-170.41015625,-17.578125
568.84765625,999.51171875,999.51171875,54.6875
177.24609375,946.2890625,734.86328125,-16.6015625
-495.1171875,-316.89453125,-605.46875,-136.71875
-620.60546875,-1000.0,-1000.0,-136.71875
70.80078125,-176.26953125,-187.01171875,-24.90234375
558.10546875,999.51171875,999.51171875,51.26953125
249.0234375,999.51171875,921.38671875,1.46484375
-414.55078125,-83.49609375,-323.73046875,-114.2578125
-663.57421875,-1000.0,-1000.0,-143.5546875
-49.8046875,-448.73046875,-246.09375,-36.1328125
538.0859375,857.421875,971.6796875,58.59375
333.984375,999.51171875,999.51171875,17.08984375
-329.1015625,202.1484375,-31.73828125,-95.703125
-665.52734375,-1000.0,-1000.0,-130.859375
-145.01953125,-583.984375,-374.0234375,-53.22265625
492.1875,805.6640625,911.62109375,31.25
381.8359375,999.51171875,999.51171875,12.20703125
-276.85546875,185.546875,116.69921875,-96.6796875
-669.921875,-1000.0,-1000.0,-148.4375
-227.05078125,-817.87109375,-576.66015625,-69.3359375
468.75,530.76171875,777.34375,53.22265625
489.2578125,999.51171875,999.51171875,64.94140625
-158.69140625,204.58984375,174.8046875,-51.26953125
-649.4140625,-1000.0,-1000.0,-122.0703125
-321.77734375,-1000.0,-828.61328125,-63.4765625
390.13671875,150.390625,498.53515625,42.48046875
515.13671875,999.51171875,999.51171875,69.3359375
-72.265625,587.40234375,185.546875,-25.87890625
-613.76953125,-743.65234375,-1000.0,-113.28125
-392.08984375,-1000.0,-1000.0,-63.4765625
327.63671875,-142.08984375,172.36328125,52.734375
552.734375,999.51171875,999.51171875,77.63671875
-1.46484375,335.9375,229.98046875,-27.34375
-603.02734375,-960.9375,-1000.0,-133.7890625
-452.63671875,-1000.0,-1000.0,-96.19140625
265.625,-205.56640625,-30.76171875,25.390625
571.77734375,999.51171875,999.51171875,78.61328125
112.79296875,899.4140625,470.21484375,2.44140625
-537.109375,-410.64453125,-866.69921875,-107.91015625
-536.1328125,-1000.0,-1000.0,-99.609375
192.87109375,-97.16796875,-120.1171875,14.16015625
566.40625,999.51171875,999.51171875,77.63671875
155.76171875,891.11328125,645.99609375,11.23046875
-497.0703125,-380.37109375,-699.21875,-96.6796875
-602.05078125,-1000.0,-1000.0,-107.421875
89.84375,-164.55078125,-192.3828125,-4.39453125
559.5703125,982.421875,999.51171875,71.77734375
233.3984375,999.51171875,872.55859375,19.04296875
-426.26953125,66.40625,-409.1796875,-96.6796875
-646.97265625,-1000.0,-1000.0,-125.0
-13.671875,-415.0390625,-212.890625,-26.3671875
559.08203125,899.90234375,997.0703125,54.6875
312.01171875,999.51171875,999.51171875,-0.48828125
-370.60546875,145.5078125,-118.65234375,-118.65234375
-663.0859375,-1000.0,-1000.0,-149.4140625
-117.1875,-776.85546875,-361.81640625,-58.10546875
500.48828125,581.0546875,918.9453125,40.0390625
376.46484375,999.51171875,999.51171875,24.4140625
-295.8984375,155.76171875,49.31640625,-89.84375
-678.7109375,-1000.0,-1000.0,-140.625
-211.42578125,-908.69140625,-547.8515625,-55.17578125
465.8203125,385.25390625,794.43359375,57.12890625
442.87109375,999.51171875,999.51171875,47.36328125
-202.63671875,283.69140625,165.0390625,-84.47265625
-659.66796875,-1000.0,-1000.0,-159.1796875
-293.45703125,-999.0234375,-763.18359375,-81.54296875
415.52734375,294.43359375,588.8671875,41.50390625
492.67578125,999.51171875,999.51171875,60.05859375
-134.27734375,166.50390625,154.296875,-56.15234375
-649.90234375,-1000.0,-1000.0,-151.3671875
-370.60546875,-1000.0,-959.9609375,-106.4453125
358.3984375,-13.671875,287.109375,0.48828125
543.45703125,999.51171875,999.51171875,19.53125
-38.0859375,370.1171875,208.49609375,-98.14453125
-614.2578125,-955.078125,-1000.0,-211.9140625
-436.5234375,-1000.0,-1000.0,-200.68359375
282.71484375,2.9296875,82.51953125,-126.953125
558.10546875,999.51171875,999.51171875,-90.8203125
56.640625,543.45703125,338.37890625,-150.390625
-575.68359375,-808.10546875,-942.87109375,-235.3515625
-513.18359375,-1000.0,-1000.0,-199.70703125
211.9140625,-133.7890625,-106.4453125,-79.1015625
561.5234375,999.51171875,999.51171875,-38.57421875
135.7421875,898.4375,575.68359375,-144.53125
-514.16015625,-376.46484375,-770.5078125,-281.25
-589.84375,-1000.0,-1000.0,-267.08984375
122.55859375,-181.15234375,-187.98828125,-144.04296875
583.0078125,999.51171875,999.51171875,-69.3359375
214.84375,999.51171875,803.22265625,-119.140625
-462.890625,-167.96875,-515.625,-245.1171875
-632.8125,-1000.0,-1000.0,-269.53125
33.203125,-248.53515625,-195.3125,-135.25390625
558.59375,977.5390625,999.51171875,-20.99609375
274.90234375,999.51171875,952.63671875,-100.5859375
-397.4609375,-48.33984375,-268.5546875,-253.41796875
-671.875,-1000.0,-1000.0,-248.046875
-60.546875,-203.125,-239.2578125,-83.0078125
542.96875,971.19140625,968.26171875,57.6171875
339.35546875,999.51171875,999.51171875,61.03515625
-313.96484375,222.16796875,29.78515625,-30.76171875
-667.96875,-1000.0,-1000.0,-70.80078125
-170.8984375,-714.35546875,-429.6875,12.20703125
490.234375,669.921875,886.71875,103.515625
410.15625,999.51171875,999.51171875,83.984375
-257.32421875,167.48046875,134.27734375,-47.36328125
-684.5703125,-1000.0,-1000.0,-128.90625
-256.34765625,-928.7109375,-652.83203125,-43.9453125
450.68359375,369.62890625,706.54296875,86.9140625
480.95703125,999.51171875,999.51171875,89.84375
-159.66796875,195.3125,168.9453125,-52.734375
-656.25,-1000.0,-1000.0,-148.92578125
-339.35546875,-888.18359375,-844.23828125,-86.9140625
381.8359375,430.17578125,475.5859375,14.6484375
522.94921875,999.51171875,999.51171875,33.203125
-77.1484375,214.35546875,171.38671875,-49.8046875
-632.8125,-972.65625,-1000.0,-105.46875
-412.59765625,-1000.0,-1000.0,-48.33984375
305.17578125,-187.98828125,105.46875,54.19921875
559.08203125,999.51171875,999.51171875,63.96484375
15.625,467.28515625,290.52734375,-214.35546875
-612.3046875,-893.06640625,-968.75,-370.60546875
-479.98046875,-1000.0,-1000.0,-127.44140625
218.75,-234.86328125,-84.9609375,-475.5859375
522.94921875,999.51171875,999.51171875,-1000.0
79.1015625,543.45703125,454.58984375,-993.1640625
-563.96484375,-844.23828125,-879.8828125,-988.28125
-554.6875,-1000.0,-1000.0,-1000.0
149.90234375,-222.16796875,-167.96875,-1000.0
554.19921875,999.51171875,999.51171875,-1000.0
176.7578125,757.32421875,658.203125,-1000.0
-474.12109375,-586.9140625,-690.4296875,-1000.0
-604.4921875,-1000.0,-1000.0,-1000.0
54.6875,-304.6875,-197.75390625,-1000.0
558.10546875,905.76171875,999.51171875,-1000.0
265.625,999.51171875,926.26953125,-1000.0
-392.08984375,220.21484375,-317.87109375,-1000.0
-645.99609375,-1000.0,-1000.0,-998.53515625
-45.8984375,-501.46484375,-239.2578125,-998.046875
532.2265625,871.09375,979.4921875,-1000.0
324.21875,999.51171875,999.51171875,-891.11328125
-334.47265625,196.77734375,-59.08203125,-848.6328125
-655.76171875,-1000.0,-1000.0,-666.015625
-78.61328125,-377.9296875,-349.609375,-23.4375
542.96875,933.10546875,920.8984375,-35.64453125
388.671875,999.51171875,999.51171875,-197.265625
-258.30078125,216.30859375,121.58203125,-180.17578125
-691.89453125,-1000.0,-1000.0,-455.078125
-255.37109375,-618.1640625,-527.34375,-623.53515625
420.8984375,772.94921875,822.75390625,-790.0390625
397.4609375,999.51171875,999.51171875,-966.796875
-239.74609375,177.24609375,157.2265625,-1000.0
-656.73828125,-1000.0,-1000.0,-897.4609375
-270.5078125,-882.32421875,-763.18359375,-665.52734375
407.71484375,433.59375,559.08203125,-519.53125
513.18359375,999.51171875,999.51171875,-438.4765625
-94.23828125,216.796875,167.96875,-499.0234375
-624.51171875,-985.3515625,-1000.0,-585.9375
-384.27734375,-1000.0,-981.4453125,-613.28125
329.1015625,-76.171875,246.09375,-615.72265625
547.36328125,999.51171875,999.51171875,-728.515625
-1.953125,477.5390625,261.71875,-755.859375
-570.3125,-938.96484375,-989.74609375,-291.015625
-378.41796875,-1000.0,-1000.0,560.05859375
352.5390625,235.3515625,22.4609375,995.1171875
611.328125,999.51171875,999.51171875,943.359375
140.625,989.2578125,464.84375,961.9140625
-499.51171875,-123.046875,-862.79296875,968.26171875
-520.99609375,-1000.0,-1000.0,966.30859375
186.5234375,-59.5703125,-135.25390625,965.8203125
553.22265625,999.51171875,999.51171875,966.30859375
143.5546875,999.51171875,645.5078125,966.30859375
-491.69921875,179.6875,-702.1484375,965.8203125
-591.796875,-1000.0,-1000.0,966.796875
95.21484375,-213.8671875,-187.98828125,961.42578125
549.31640625,999.51171875,999.51171875,970.703125
219.7265625,999.51171875,853.02734375,937.98828125
-434.5703125,-32.2265625,-441.89453125,785.64453125
-652.34375,-1000.0,-1000.0,687.5
-2.44140625,-264.6484375,-208.984375,721.19140625
552.734375,971.6796875,999.51171875,740.234375
285.64453125,999.51171875,988.76953125,657.2265625
-380.859375,39.55078125,-191.89453125,533.69140625
-673.828125,-1000.0,-1000.0,487.79296875
-97.16796875,-360.3515625,-300.78125,565.4296875
527.34375,916.9921875,939.453125,688.4765625
363.76953125,999.51171875,999.51171875,709.9609375
-300.29296875,208.984375,75.68359375,597.16796875
-683.10546875,-1000.0,-1000.0,525.87890625
-204.1015625,-727.5390625,-478.02734375,624.51171875
484.86328125,653.80859375,853.02734375,754.39453125
429.19921875,999.51171875,999.51171875,682.6171875
-249.51171875,157.71484375,164.55078125,453.61328125
-699.21875,-1000.0,-1000.0,347.65625
-303.7109375,-999.51171875,-693.84765625,442.87109375
395.99609375,240.234375,666.015625,521.484375
470.21484375,999.51171875,999.51171875,472.16796875
-143.06640625,207.03125,169.921875,413.57421875
-660.64453125,-1000.0,-1000.0,386.23046875
-376.46484375,-1000.0,-930.17578125,431.640625
336.9140625,-35.64453125,338.8671875,555.6640625
513.671875,999.51171875,999.51171875,610.83984375
-45.41015625,472.16796875,226.07421875,524.4140625
-625.0,-869.140625,-1000.0,385.25390625
-469.23828125,-1000.0,-1000.0,358.88671875
252.9296875,-222.65625,39.0625,441.40625
532.71484375,999.51171875,999.51171875,481.4453125
18.5546875,492.1875,325.68359375,410.64453125
-592.7734375,-886.23046875,-950.1953125,320.80078125
-521.484375,-1000.0,-1000.0,344.23828125
190.91796875,-216.30859375,-135.25390625,453.125
554.19921875,999.51171875,999.51171875,503.90625
117.1875,853.515625,562.98828125,396.484375
-538.0859375,-471.19140625,-789.0625,250.0
-593.26171875,-1000.0,-1000.0,243.1640625
116.69921875,-172.36328125,-184.08203125,344.23828125
562.98828125,993.65234375,999.51171875,409.1796875
208.49609375,999.51171875,828.61328125,315.91796875
-459.47265625,-59.08203125,-482.421875,120.1171875
-642.578125,-1000.0,-1000.0,31.25
20.01953125,-227.05078125,-193.84765625,88.8671875
551.7578125,999.51171875,999.51171875,130.37109375
261.23046875,999.51171875,924.8046875,44.921875
-413.0859375,-137.20703125,-314.453125,-93.75
-656.73828125,-1000.0,-1000.0,-128.41796875
-63.4765625,-590.33203125,-285.64453125,-75.68359375
524.4140625,761.23046875,958.0078125,-57.6171875
333.984375,999.51171875,999.51171875,-138.18359375
-333.0078125,29.78515625,-48.33984375,-285.64453125
-673.828125,-1000.0,-1000.0,-335.9375
-159.1796875,-656.25,-400.87890625,-231.93359375
506.34765625,697.75390625,888.671875,-117.67578125
421.875,999.51171875,999.51171875,-126.953125
-244.62890625,170.8984375,165.52734375,-210.9375
-675.78125,-1000.0,-1000.0,-269.04296875
-274.4140625,-1000.0,-673.33984375,-249.51171875
419.43359375,136.23046875,692.3828125,-167.48046875
464.84375,999.51171875,999.51171875,-174.31640625
-180.17578125,166.015625,166.015625,-301.26953125
-658.69140625,-1000.0,-1000.0,-375.0
-331.0546875,-1000.0,-880.859375,-307.12890625
370.1171875,0.0,422.36328125,-177.734375
517.578125,999.51171875,999.51171875,-102.5390625
-63.4765625,364.2578125,180.6640625,-149.4140625
-593.75,-940.91796875,-1000.0,-171.875
-392.578125,-1000.0,-1000.0,-51.26953125
289.55078125,-104.4921875,146.97265625,111.328125
531.73828125,999.51171875,999.51171875,191.89453125
4.8828125,483.88671875,286.1328125,112.79296875
-611.328125,-872.55859375,-969.23828125,-5.37109375
-503.41796875,-1000.0,-1000.0,41.015625
223.14453125,-219.7265625,-76.171875,195.3125
549.31640625,999.51171875,999.51171875,256.8359375
77.1484375,696.77734375,451.66015625,158.69140625
-565.4296875,-681.640625,-879.39453125,14.16015625
-567.87109375,-1000.0,-1000.0,-5.859375
148.92578125,-187.98828125,-163.57421875,63.4765625
557.12890625,999.51171875,999.51171875,74.70703125
158.69140625,937.98828125,698.2421875,-31.25
-500.0,-323.2421875,-647.94921875,-170.41015625
-621.58203125,-1000.0,-1000.0,-159.1796875
72.265625,-217.7734375,-195.3125,-13.671875
583.0078125,974.12109375,999.51171875,79.1015625
269.53125,999.51171875,921.875,28.80859375
-395.99609375,9.765625,-329.1015625,-28.80859375
-630.37109375,-1000.0,-1000.0,-22.94921875
-24.4140625,-434.5703125,-234.375,58.10546875
549.31640625,875.9765625,975.09765625,188.96484375
339.84375,999.51171875,999.51171875,202.63671875
-326.171875,212.890625,-28.80859375,159.1796875
-653.80859375,-1000.0,-1000.0,276.85546875
-99.12109375,-552.734375,-363.28125,483.88671875
538.0859375,837.40234375,915.52734375,581.54296875
397.4609375,999.51171875,999.51171875,563.96484375
-256.8359375,185.546875,128.41796875,512.6953125
-654.296875,-1000.0,-1000.0,518.06640625
-213.8671875,-841.30859375,-582.03125,630.37109375
467.28515625,504.8828125,776.85546875,742.1875
448.2421875,999.51171875,999.51171875,729.4921875
-198.73046875,160.15625,164.55078125,599.609375
-656.25,-1000.0,-1000.0,511.23046875
-299.8046875,-1000.0,-776.85546875,561.03515625
405.76171875,241.2109375,568.359375,657.71484375
497.0703125,999.51171875,999.51171875,664.0625
-117.67578125,202.1484375,160.64453125,547.36328125
-647.94921875,-997.55859375,-1000.0,431.640625
-405.76171875,-1000.0,-993.65234375,446.77734375
313.96484375,-83.984375,222.16796875,472.16796875
523.92578125,999.51171875,999.51171875,430.6640625
-33.69140625,470.21484375,246.58203125,322.75390625
-628.90625,-894.53125,-997.55859375,160.15625
-486.81640625,-1000.0,-1000.0,164.55078125
250.0,-89.84375,22.4609375,312.98828125
556.15234375,999.51171875,999.51171875,401.85546875
49.8046875,486.328125,369.140625,369.140625
-593.75,-868.65234375,-926.26953125,293.9453125
-538.57421875,-1000.0,-1000.0,333.0078125
194.3359375,-201.66015625,-151.3671875,458.984375
570.3125,999.51171875,999.51171875,504.39453125
162.59765625,960.9375,641.11328125,427.24609375
-466.30859375,-292.48046875,-709.47265625,332.51953125
-574.21875,-1000.0,-1000.0,305.17578125
68.84765625,-164.55078125,-190.91796875,360.3515625
514.6484375,982.91015625,999.51171875,415.0390625
188.4765625,999.51171875,893.06640625,335.44921875
-491.2109375,78.61328125,-381.8359375,176.7578125
-716.796875,-1000.0,-1000.0,110.83984375
-68.84765625,-207.03125,-188.96484375,172.36328125
471.6796875,999.51171875,999.51171875,241.69921875
209.9609375,999.51171875,991.2109375,166.50390625
-459.9609375,-5.37109375,-176.7578125,-63.96484375
-730.46875,-1000.0,-1000.0,-120.60546875
-188.4765625,-892.08984375,-311.03515625,-562.01171875
402.83203125,395.01953125,943.84765625,-1000.0
300.29296875,999.51171875,999.51171875,-988.28125
-340.33203125,49.31640625,19.04296875,-982.421875
-690.91796875,-1000.0,-1000.0,-1000.0
-192.87109375,-734.86328125,-458.49609375,-946.77734375
490.234375,610.83984375,861.81640625,-554.6875
456.54296875,999.51171875,999.51171875,-161.1328125
-191.89453125,203.61328125,140.625,-38.57421875
-640.13671875,-1000.0,-1000.0,64.94140625
-250.0,-636.71875,-671.38671875,228.02734375
437.5,743.1640625,686.03515625,291.015625
474.609375,999.51171875,999.51171875,329.1015625
-162.59765625,279.78515625,160.15625,-91.796875
-719.7265625,-964.35546875,-1000.0,-881.8359375
-438.4765625,-1000.0,-962.890625,-1000.0
312.01171875,-9.27734375,289.0625,-972.65625
498.046875,999.51171875,999.51171875,-1000.0
-84.47265625,148.92578125,175.29296875,-1000.0
-638.671875,-1000.0,-1000.0,-1000.0
-443.359375,-1000.0,-1000.0,-1000.0
266.6015625,-247.55859375,34.66796875,-1000.0
535.64453125,999.51171875,999.51171875,-1000.0
35.15625,658.69140625,337.890625,-1000.0
-571.2890625,-724.12109375,-942.3828125,-1000.0
-511.71875,-1000.0,-1000.0,-1000.0
188.4765625,-190.4296875,-142.08984375,-1000.0
543.9453125,999.51171875,999.51171875,-1000.0
126.46484375,981.93359375,585.44921875,-1000.0
-514.6484375,-246.58203125,-770.01953125,-1000.0
-578.61328125,-1000.0,-1000.0,-1000.0
113.28125,-199.70703125,-196.77734375,-1000.0
548.828125,999.51171875,999.51171875,-1000.0
200.1953125,992.67578125,747.0703125,-1000.0
-448.73046875,-213.37890625,-594.23828125,-1000.0
-603.515625,-1000.0,-1000.0,-1000.0
46.38671875,-275.390625,-195.80078125,-1000.0
556.640625,951.171875,999.51171875,-1000.0
277.83203125,999.51171875,940.91796875,-1000.0
-383.30078125,35.64453125,-293.45703125,-1000.0
-638.671875,-1000.0,-1000.0,-1000.0
-31.73828125,-187.01171875,-229.4921875,-1000.0
549.8046875,991.2109375,981.93359375,-1000.0
338.8671875,999.51171875,999.51171875,-1000.0
-329.58984375,175.78125,-41.50390625,-1000.0
-683.10546875,-1000.0,-1000.0,-1000.0
-179.6875,-769.53125,-444.3359375,-999.51171875
472.16796875,586.9140625,866.2109375,-1000.0
402.34375,999.51171875,999.51171875,-996.09375
-231.93359375,226.07421875,151.85546875,-986.81640625
-659.1796875,-1000.0,-1000.0,-992.67578125
-240.72265625,-652.83203125,-599.609375,-949.21875
453.125,734.86328125,763.671875,-886.23046875
458.984375,999.51171875,999.51171875,-847.16796875
-172.36328125,283.69140625,171.38671875,-804.6875
-655.76171875,-1000.0,-1000.0,-748.53515625
-329.58984375,-1000.0,-854.98046875,-676.7578125
377.9296875,240.72265625,460.44921875,-616.69921875
505.37109375,999.51171875,999.51171875,-586.9140625
-91.796875,350.5859375,174.8046875,-580.078125
-649.4140625,-947.75390625,-1000.0,-555.6640625
-416.015625,-1000.0,-1000.0,-483.88671875
308.10546875,63.96484375,173.828125,-432.6171875
528.80859375,999.51171875,999.51171875,-416.9921875
28.80859375,962.40234375,336.9140625,-416.9921875
-569.82421875,-213.8671875,-947.265625,-382.32421875
-498.046875,-1000.0,-1000.0,-335.9375
237.3046875,-80.078125,-41.015625,-93.26171875
594.7265625,999.51171875,999.51171875,568.84765625
157.71484375,999.51171875,482.421875,983.3984375
-487.79296875,147.94921875,-851.5625,953.61328125
-534.1796875,-1000.0,-1000.0,958.984375
163.57421875,-186.5234375,-167.96875,968.75
565.91796875,999.51171875,999.51171875,965.8203125
172.8515625,999.51171875,689.453125,966.30859375
-479.4921875,62.01171875,-658.203125,965.8203125
-604.98046875,-1000.0,-1000.0,965.8203125
83.984375,-189.453125,-185.05859375,966.30859375
559.08203125,999.51171875,999.51171875,966.30859375
234.86328125,999.51171875,922.36328125,965.8203125
-409.66796875,46.875,-327.1484375,966.30859375
-646.484375,-1000.0,-1000.0,966.30859375
-42.96875,-406.25,-213.8671875,965.8203125
525.87890625,890.13671875,979.4921875,966.30859375
307.6171875,999.51171875,999.51171875,966.30859375
-332.03125,270.01953125,-1.46484375,966.30859375
-662.109375,-1000.0,-1000.0,966.30859375
-126.46484375,-473.6328125,-317.87109375,966.30859375
515.13671875,895.99609375,943.359375,966.30859375
373.046875,999.51171875,999.51171875,965.8203125
-286.62109375,175.29296875,107.91015625,965.8203125
-666.50390625,-1000.0,-1000.0,966.30859375
-230.95703125,-986.328125,-594.23828125,966.30859375
445.80078125,273.4375,762.6953125,966.30859375
451.171875,999.51171875,999.51171875,966.30859375
-195.80078125,148.4375,145.5078125,966.30859375
-655.2734375,-1000.0,-1000.0,966.30859375
-298.33984375,-1000.0,-785.15625,965.8203125
403.80859375,146.484375,550.29296875,965.8203125
497.55859375,999.51171875,999.51171875,965.8203125
-83.0078125,669.921875,183.10546875,965.8203125
-603.515625,-670.8984375,-1000.0,966.30859375
-392.578125,-1000.0,-980.46875,966.30859375
315.4296875,-21.484375,258.30078125,966.30859375
527.34375,999.51171875,999.51171875,965.8203125
-25.390625,364.2578125,217.7734375,965.8203125
-608.3984375,-931.640625,-1000.0,966.30859375
-462.890625,-1000.0,-1000.0,966.796875
247.55859375,-235.83984375,-14.16015625,961.9140625
555.17578125,999.51171875,999.51171875,969.7265625
67.87109375,536.1328125,363.76953125,942.87109375
-573.73046875,-849.609375,-937.01171875,810.05859375
-528.80859375,-1000.0,-1000.0,715.8203125
169.43359375,-205.56640625,-121.58203125,725.09765625
530.76171875,999.51171875,999.51171875,744.140625
141.11328125,875.0,639.16015625,687.01171875
-511.23046875,-428.7109375,-708.0078125,545.41015625
-609.375,-1000.0,-1000.0,488.28125
87.40234375,-237.79296875,-192.87109375,573.73046875
561.03515625,993.1640625,999.51171875,637.20703125
228.515625,999.51171875,855.46875,551.7578125
-441.89453125,-178.7109375,-443.359375,388.18359375
-631.8359375,-1000.0,-1000.0,346.19140625
20.99609375,-283.69140625,-190.91796875,443.84765625
557.12890625,937.5,999.51171875,506.8359375
287.59765625,999.51171875,999.51171875,444.3359375
-387.6953125,143.5546875,-130.37109375,326.66015625
-685.546875,-1000.0,-1000.0,258.7890625
-109.86328125,-579.1015625,-301.7578125,341.30859375
510.25390625,797.8515625,947.265625,455.078125
353.515625,999.51171875,999.51171875,428.22265625
-311.03515625,162.59765625,42.48046875,296.875
-687.01171875,-1000.0,-1000.0,205.56640625
-202.63671875,-881.34765625,-506.8359375,271.484375
474.609375,427.734375,827.1484375,367.1875
430.17578125,999.51171875,999.51171875,340.8203125
-216.30859375,258.7890625,160.15625,218.26171875
-653.80859375,-1000.0,-1000.0,134.27734375
-272.4609375,-1000.0,-743.65234375,188.4765625
424.8046875,140.625,609.86328125,283.203125
484.375,999.51171875,999.51171875,254.39453125
-151.85546875,189.453125,159.1796875,111.81640625
-651.85546875,-1000.0,-1000.0,24.4140625
-361.81640625,-1000.0,-946.77734375,51.26953125
333.0078125,-49.8046875,312.5,130.859375
505.37109375,999.51171875,999.51171875,166.015625
-67.3828125,332.03125,191.40625,85.9375
-635.7421875,-970.21484375,-1000.0,7.8125
-440.91796875,-1000.0,-1000.0,63.96484375
285.64453125,-56.15234375,122.0703125,189.94140625
545.41015625,999.51171875,999.51171875,228.02734375
18.06640625,512.20703125,323.2421875,128.41796875
-576.171875,-838.8671875,-950.1953125,40.52734375
-486.328125,-1000.0,-1000.0,74.21875
211.9140625,-208.49609375,-95.703125,177.24609375
569.3359375,999.51171875,999.51171875,239.2578125
109.375,755.859375,506.34765625,164.0625
-549.8046875,-604.4921875,-835.9375,37.59765625
-583.0078125,-1000.0,-1000.0,7.32421875
130.859375,-174.8046875,-186.5234375,92.7734375
571.2890625,993.1640625,999.51171875,131.34765625
206.54296875,999.51171875,800.29296875,33.69140625
-457.03125,-70.80078125,-522.4609375,-85.9375
-622.0703125,-1000.0,-1000.0,-108.3984375
37.59765625,-362.79296875,-208.49609375,-16.11328125
563.4765625,952.63671875,999.51171875,58.59375
268.5546875,999.51171875,898.4375,0.48828125
-416.50390625,-128.90625,-362.79296875,-134.765625
-664.0625,-1000.0,-1000.0,-187.01171875
-62.98828125,-450.1953125,-265.13671875,-94.23828125
538.0859375,852.5390625,963.8671875,-0.9765625
342.28515625,999.51171875,999.51171875,-37.109375
-332.03125,206.0546875,-34.1796875,-166.9921875
-673.828125,-1000.0,-1000.0,-217.28515625
-162.109375,-650.87890625,-430.17578125,-125.0
499.0234375,747.55859375,890.625,19.53125
406.25,999.51171875,999.51171875,51.7578125
-263.671875,150.390625,57.6171875,-22.4609375
-658.69140625,-1000.0,-1000.0,-44.43359375
-223.6328125,-815.91796875,-652.34375,39.55078125
458.0078125,530.76171875,696.77734375,144.04296875
479.4921875,999.51171875,999.51171875,157.2265625
-173.828125,186.5234375,153.80859375,33.203125
-670.8984375,-1000.0,-1000.0,-72.75390625
-322.265625,-697.265625,-812.98828125,-42.96875
398.4375,680.17578125,516.6015625,41.9921875
485.83984375,999.51171875,999.51171875,19.04296875
-136.23046875,199.70703125,154.296875,-142.578125
-666.50390625,-1000.0,-1000.0,-234.375
-430.6640625,-1000.0,-1000.0,-189.453125
293.9453125,105.46875,149.90234375,-113.76953125
533.203125,999.51171875,999.51171875,-118.1640625
-32.71484375,254.8828125,204.1015625,-223.14453125
-629.8828125,-963.37890625,-998.53515625,-308.59375
-489.74609375,-1000.0,-1000.0,-271.97265625
225.09765625,-244.140625,-125.0,-165.0390625
560.546875,999.51171875,999.51171875,-125.0
90.33203125,732.91015625,416.9921875,-202.1484375
-560.546875,-638.671875,-906.73828125,-295.8984375
-549.8046875,-1000.0,-1000.0,-271.97265625
159.1796875,-211.42578125,-214.35546875,-151.85546875
571.77734375,999.51171875,999.51171875,-86.42578125
174.31640625,790.0390625,582.51953125,-149.4140625
-500.9765625,-561.5234375,-782.2265625,-250.9765625
-600.09765625,-1000.0,-1000.0,-242.1875
87.890625,-154.78515625,-201.171875,-129.39453125
558.59375,963.37890625,999.51171875,-53.22265625
238.28125,999.51171875,882.8125,-104.98046875
-412.109375,223.14453125,-387.6953125,-204.58984375
-645.5078125,-1000.0,-1000.0,-213.8671875
-39.0625,-457.51953125,-254.39453125,-106.4453125
546.875,913.57421875,993.1640625,0.9765625
321.2890625,999.51171875,998.046875,-19.53125
-361.81640625,58.10546875,-182.6171875,-119.62890625
-665.52734375,-1000.0,-1000.0,-134.27734375
-107.91015625,-492.67578125,-357.421875,-25.390625
520.01953125,851.07421875,915.0390625,75.1953125
383.30078125,999.51171875,999.51171875,67.87109375
-284.1796875,208.984375,62.01171875,-39.55078125
-680.6640625,-1000.0,-1000.0,-101.5625
-211.9140625,-537.109375,-528.80859375,-35.64453125
464.35546875,848.6328125,818.359375,59.08203125
430.6640625,999.51171875,999.51171875,61.03515625
-222.65625,152.83203125,125.0,-71.2890625
-669.43359375,-1000.0,-1000.0,-179.6875
-303.22265625,-1000.0,-839.35546875,-133.7890625
393.06640625,56.15234375,475.09765625,-32.71484375
498.046875,999.51171875,999.51171875,-31.25
-128.90625,149.4140625,151.3671875,-133.30078125
-641.11328125,-1000.0,-1000.0,-205.56640625
-362.79296875,-1000.0,-982.91015625,-161.1328125
349.609375,3.41796875,239.74609375,-51.26953125
554.6875,999.51171875,999.51171875,-28.80859375
-10.7421875,502.9296875,236.81640625,-143.06640625
-604.4921875,-839.84375,-996.58203125,-233.3984375
-448.73046875,-1000.0,-1000.0,-205.078125
265.13671875,-202.63671875,-5.37109375,-110.83984375
550.29296875,999.51171875,999.51171875,-62.98828125
56.640625,509.765625,328.61328125,-123.046875
-566.89453125,-869.140625,-946.77734375,-194.82421875
-522.94921875,-1000.0,-1000.0,-201.171875
178.7109375,-183.59375,-178.22265625,-138.18359375
564.453125,988.28125,999.51171875,-45.8984375
157.2265625,999.51171875,566.40625,-66.89453125
-490.234375,-53.22265625,-786.62109375,-152.83203125
-582.03125,-1000.0,-1000.0,-131.34765625
103.515625,-194.82421875,-206.54296875,5.859375
572.75390625,999.51171875,999.51171875,103.515625
223.14453125,999.51171875,800.29296875,67.3828125
-443.359375,-119.140625,-520.01953125,-30.2734375
-626.46484375,-1000.0,-1000.0,-59.08203125
14.16015625,-314.94140625,-208.49609375,9.765625
552.24609375,934.08203125,999.51171875,39.0625
295.41015625,999.51171875,979.00390625,-12.6953125
-373.53515625,94.7265625,-214.35546875,-140.13671875
-667.96875,-1000.0,-1000.0,-249.0234375
-70.80078125,-219.23828125,-255.37109375,-156.73828125
557.12890625,983.88671875,966.30859375,14.16015625
372.55859375,999.51171875,999.51171875,46.38671875
-313.4765625,199.70703125,22.4609375,-38.57421875
-675.78125,-1000.0,-1000.0,-49.31640625
-181.640625,-783.69140625,-488.76953125,47.36328125
473.14453125,580.56640625,842.28515625,150.390625
424.8046875,999.51171875,999.51171875,216.30859375
-220.21484375,163.57421875,129.39453125,206.54296875
-659.1796875,-1000.0,-1000.0,153.3203125
-273.92578125,-937.5,-700.1953125,219.7265625
422.36328125,341.30859375,651.3671875,382.32421875
493.1640625,999.51171875,999.51171875,471.6796875
-133.7890625,265.625,166.015625,407.2265625
-651.85546875,-981.4453125,-1000.0,316.89453125
-363.76953125,-1000.0,-938.4765625,393.5546875
350.5859375,13.671875,329.1015625,555.17578125
520.5078125,999.51171875,999.51171875,602.5390625
-60.05859375,435.546875,205.56640625,527.34375
-627.44140625,-912.59765625,-1000.0,445.3125
-437.5,-1000.0,-1000.0,466.796875
282.71484375,-19.53125,129.8828125,580.56640625
539.0625,999.51171875,999.51171875,627.9296875
22.4609375,642.578125,334.9609375,539.55078125
-599.609375,-734.375,-951.171875,397.4609375
-519.04296875,-1000.0,-1000.0,364.74609375
203.61328125,0.0,-41.9921875,465.8203125
539.0625,999.51171875,999.51171875,505.37109375
103.02734375,769.53125,522.94921875,402.34375
-533.203125,-535.15625,-811.03515625,285.15625
-564.453125,-1000.0,-1000.0,309.5703125
135.25390625,-185.546875,-183.10546875,438.4765625
563.4765625,999.51171875,999.51171875,541.50390625
197.75390625,990.72265625,759.27734375,512.20703125
-465.33203125,-229.4921875,-575.68359375,418.9453125
-619.62890625,-1000.0,-1000.0,386.71875
64.453125,-186.03515625,-187.5,546.38671875
560.05859375,999.51171875,999.51171875,362.3046875
219.23828125,990.234375,940.4296875,-129.8828125
-458.0078125,-188.4765625,-284.1796875,-555.6640625
-711.9140625,-1000.0,-1000.0,-990.234375
-113.28125,-746.58203125,-257.32421875,-1000.0
491.69921875,615.234375,980.95703125,-987.79296875
319.3359375,999.51171875,999.51171875,-1000.0
-340.33203125,-165.0390625,-95.703125,-1000.0
-658.203125,-1000.0,-1000.0,-1000.0
-153.80859375,-820.80078125,-403.3203125,-1000.0
487.79296875,454.1015625,883.7890625,-995.60546875
415.0390625,999.51171875,999.51171875,-986.81640625
-254.8828125,186.03515625,162.109375,-1000.0
-652.34375,-1000.0,-1000.0,-604.98046875
-170.8984375,-693.359375,-585.9375,31.25
524.4140625,666.015625,777.34375,491.2109375
528.80859375,999.51171875,999.51171875,874.51171875
-113.76953125,485.83984375,181.15234375,967.7734375
-615.72265625,-973.14453125,-1000.0,958.0078125
-292.96875,-877.9296875,-781.25,966.30859375
411.62109375,529.296875,564.453125,966.796875
513.18359375,999.51171875,999.51171875,966.30859375
-68.359375,562.01171875,186.5234375,965.8203125
-598.6328125,-781.73828125,-1000.0,966.30859375
-388.18359375,-1000.0,-1000.0,966.30859375
307.12890625,18.06640625,207.03125,965.8203125
525.87890625,999.51171875,999.51171875,965.8203125
-0.9765625,479.00390625,268.5546875,965.8203125
-590.33203125,-858.3984375,-980.95703125,965.8203125
-476.5625,-1000.0,-1000.0,966.30859375
236.81640625,-196.77734375,-27.34375,966.30859375
559.08203125,999.51171875,999.51171875,965.8203125
106.93359375,871.09375,498.53515625,965.8203125
-534.66796875,-453.61328125,-844.23828125,965.8203125
-548.33984375,-1000.0,-1000.0,965.8203125
168.9453125,-126.953125,-124.51171875,966.30859375
548.828125,999.51171875,999.51171875,966.30859375
145.01953125,873.046875,661.62109375,965.8203125
-496.58203125,-419.43359375,-682.12890625,965.8203125
-594.23828125,-1000.0,-1000.0,966.796875
92.7734375,-177.24609375,-190.91796875,963.37890625
562.5,994.62890625,999.51171875,965.8203125
237.3046875,999.51171875,897.4609375,963.37890625
-429.19921875,-57.6171875,-370.1171875,845.703125
-647.4609375,-1000.0,-1000.0,751.953125
-17.578125,-377.44140625,-197.75390625,817.3828125
538.57421875,896.97265625,986.81640625,869.62890625
307.12890625,999.51171875,999.51171875,790.0390625
-349.609375,208.0078125,-20.99609375,644.04296875
-667.48046875,-1000.0,-1000.0,575.68359375
-133.30078125,-713.8671875,-332.03125,632.8125
489.2578125,673.828125,937.98828125,697.265625
361.81640625,999.51171875,999.51171875,646.484375
-289.0625,149.4140625,83.984375,513.671875
-669.43359375,-1000.0,-1000.0,437.5
-219.23828125,-899.4140625,-529.78515625,487.3046875
446.2890625,413.57421875,814.94140625,562.5
433.10546875,999.51171875,999.51171875,541.015625
-214.35546875,152.34375,168.9453125,414.0625
-678.7109375,-1000.0,-1000.0,319.3359375
-302.24609375,-1000.0,-740.234375,366.2109375
405.2734375,211.42578125,612.79296875,463.8671875
489.2578125,999.51171875,999.51171875,461.42578125
-140.625,228.515625,170.41015625,332.51953125
-665.0390625,-992.67578125,-1000.0,234.375
-388.671875,-1000.0,-958.49609375,273.92578125
330.56640625,-48.33984375,292.96875,376.953125
524.4140625,999.51171875,999.51171875,399.4140625
-45.8984375,357.91015625,218.26171875,289.55078125
-623.046875,-967.28515625,-1000.0,186.5234375
-443.359375,-1000.0,-1000.0,212.890625
281.73828125,9.27734375,66.89453125,312.5
554.6875,999.51171875,999.51171875,345.703125
49.31640625,578.61328125,359.375,245.1171875
-581.0546875,-761.71875,-930.17578125,125.9765625
-534.66796875,-1000.0,-1000.0,130.37109375
182.12890625,-221.19140625,-132.8125,233.88671875
550.78125,999.51171875,999.51171875,280.76171875
115.234375,738.28125,569.82421875,193.84765625
-538.57421875,-628.90625,-779.78515625,75.68359375
-593.26171875,-1000.0,-1000.0,76.171875
101.5625,-189.94140625,-188.96484375,180.17578125
555.17578125,967.7734375,999.51171875,242.67578125
217.28515625,999.51171875,875.9765625,171.38671875
-447.75390625,67.87109375,-407.71484375,52.734375
-647.4609375,-1000.0,-1000.0,34.66796875
4.8828125,-406.73828125,-201.66015625,133.30078125
559.5703125,918.45703125,999.51171875,215.33203125
290.52734375,999.51171875,985.83984375,162.109375
-386.71875,50.29296875,-200.68359375,33.69140625
-663.57421875,-1000.0,-1000.0,-6.8359375
-81.0546875,-462.40234375,-269.53125,83.0078125
533.203125,868.1640625,957.03125,171.875
358.3984375,999.51171875,999.51171875,143.5546875
-306.15234375,190.4296875,43.9453125,32.71484375
-658.69140625,-1000.0,-1000.0,-16.6015625
-165.52734375,-771.484375,-446.77734375,70.3125
503.41796875,598.14453125,873.046875,179.19921875
438.96484375,999.51171875,999.51171875,153.80859375
-230.46875,169.43359375,150.87890625,22.4609375
-667.48046875,-1000.0,-1000.0,-39.0625
-251.46484375,-897.4609375,-640.625,39.0625
456.54296875,422.8515625,721.19140625,150.87890625
488.28125,999.51171875,999.51171875,149.4140625
-152.83203125,147.94921875,168.45703125,41.9921875
-638.671875,-1000.0,-1000.0,-23.4375
-322.265625,-1000.0,-881.34765625,30.76171875
401.85546875,149.90234375,421.38671875,143.06640625
547.36328125,999.51171875,999.51171875,167.48046875
-60.546875,336.42578125,197.265625,57.12890625
-618.65234375,-933.59375,-1000.0,-32.2265625
-413.0859375,-1000.0,-1000.0,1.46484375
308.59375,-151.3671875,125.0,111.328125
564.94140625,999.51171875,999.51171875,153.80859375
52.24609375,666.50390625,327.63671875,61.03515625
-546.875,-698.2421875,-949.70703125,-30.2734375
-455.56640625,-1000.0,-1000.0,-3.41796875
249.0234375,-172.8515625,-73.73046875,99.12109375
570.3125,999.51171875,999.51171875,142.578125
136.71875,975.5859375,565.91796875,68.359375
-513.18359375,-252.44140625,-779.78515625,-37.109375
-560.05859375,-1000.0,-1000.0,-31.73828125
166.50390625,-188.96484375,-177.734375,84.9609375
587.890625,999.51171875,999.51171875,146.484375
203.61328125,981.93359375,732.421875,73.73046875
-453.125,-229.98046875,-609.86328125,-41.50390625
-599.609375,-1000.0,-1000.0,-61.5234375
66.40625,-284.66796875,-195.80078125,45.41015625
571.77734375,946.77734375,999.51171875,128.41796875
273.4375,999.51171875,925.78125,73.2421875
-391.6015625,29.296875,-324.70703125,-36.1328125
-628.90625,-1000.0,-1000.0,-65.4296875
-2.9296875,-186.03515625,-201.66015625,29.78515625
558.10546875,997.55859375,995.1171875,121.58203125
332.51953125,999.51171875,999.51171875,94.23828125
-320.80078125,127.44140625,-67.87109375,-18.06640625
-666.9921875,-1000.0,-1000.0,-80.078125
-125.0,-431.640625,-340.8203125,-0.9765625
524.4140625,893.06640625,925.29296875,97.65625
390.13671875,999.51171875,999.51171875,80.56640625
-267.578125,198.2421875,108.88671875,-30.76171875
-668.9453125,-1000.0,-1000.0,-93.75
-232.91015625,-794.43359375,-595.21484375,-18.5546875
467.7734375,572.75390625,763.18359375,96.19140625
466.796875,999.51171875,999.51171875,98.6328125
-196.2890625,152.83203125,154.296875,-14.16015625
-665.52734375,-1000.0,-1000.0,-87.890625
-319.3359375,-1000.0,-804.6875,-25.390625
392.578125,208.49609375,528.80859375,50.78125
515.625,999.51171875,999.51171875,124.0234375
-95.703125,253.90625,170.41015625,-147.94921875
-673.828125,-958.0078125,-1000.0,-860.83984375
-438.4765625,-1000.0,-1000.0,-1000.0
284.1796875,-241.2109375,184.08203125,-972.16796875
506.34765625,999.51171875,999.51171875,-1000.0
-10.7421875,601.07421875,275.390625,-1000.0
-595.21484375,-787.109375,-976.5625,-1000.0
-471.19140625,-1000.0,-1000.0,-1000.0
237.79296875,-230.95703125,-44.921875,-1000.0
542.96875,999.51171875,999.51171875,-1000.0
75.68359375,610.83984375,406.25,-1000.0
-547.8515625,-780.76171875,-910.15625,-1000.0
-525.87890625,-1000.0,-1000.0,-1000.0
189.94140625,-198.2421875,-155.2734375,-1000.0
584.47265625,999.51171875,999.51171875,-1000.0
182.12890625,944.3359375,656.73828125,-1000.0
-476.5625,-321.2890625,-695.80078125,-969.23828125
-587.890625,-1000.0,-1000.0,-1000.0
113.76953125,-154.78515625,-183.10546875,-761.23046875
621.58203125,968.75,999.51171875,210.44921875
313.96484375,999.51171875,875.48828125,754.39453125
-350.09765625,222.16796875,-402.83203125,895.5078125
-600.5859375,-1000.0,-1000.0,886.71875
18.5546875,-214.84375,-202.63671875,838.37890625
579.58984375,999.51171875,999.51171875,999.51171875
301.7578125,999.51171875,999.51171875,712.40234375
-423.33984375,52.24609375,-152.34375,-232.91015625
-749.0234375,-1000.0,-1000.0,-895.99609375
-181.15234375,-717.7734375,-321.77734375,-990.72265625
467.7734375,625.9765625,932.6171875,-988.76953125
350.09765625,999.51171875,999.51171875,-1000.0
-308.10546875,151.3671875,72.75390625,-1000.0
-686.03515625,-1000.0,-1000.0,-1000.0
-226.5625,-971.6796875,-533.203125,-1000.0
446.2890625,295.8984375,814.94140625,-1000.0
422.8515625,999.51171875,999.51171875,-1000.0
-220.703125,154.78515625,142.578125,-1000.0
-655.76171875,-1000.0,-1000.0,-1000.0
-282.2265625,-995.60546875,-734.375,-1000.0
410.15625,221.19140625,614.74609375,-1000.0
480.46875,999.51171875,999.51171875,-1000.0
-118.65234375,482.91015625,177.734375,-965.33203125
-638.671875,-904.78515625,-1000.0,-1000.0
-367.67578125,-1000.0,-932.6171875,-764.16015625
421.875,190.91796875,339.84375,138.18359375
596.19140625,999.51171875,999.51171875,193.84765625
-40.0390625,389.16015625,220.703125,-320.3125
-599.609375,-902.34375,-1000.0,-113.28125
-402.83203125,-1000.0,-1000.0,194.3359375
277.83203125,-178.7109375,66.40625,-212.890625
517.578125,999.51171875,999.51171875,-625.9765625
18.5546875,507.8125,363.76953125,-705.56640625
-585.44921875,-902.34375,-940.91796875,-718.75
-496.09375,-1000.0,-1000.0,-666.9921875
221.19140625,21.97265625,-46.38671875,-584.47265625
550.78125,999.51171875,999.51171875,-541.015625
127.44140625,799.31640625,581.54296875,-605.46875
-515.625,-488.28125,-758.7890625,-812.5
-581.0546875,-1000.0,-1000.0,-956.54296875
116.2109375,-158.203125,-175.78125,-940.91796875
552.734375,969.7265625,999.51171875,-894.04296875
212.890625,999.51171875,837.40234375,-862.3046875
-432.6171875,161.1328125,-463.8671875,-825.68359375
-623.046875,-1000.0,-1000.0,-770.5078125
26.3671875,-336.9140625,-188.96484375,-683.59375
563.4765625,950.68359375,999.51171875,-639.16015625
289.55078125,999.51171875,982.91015625,-696.77734375
-367.67578125,155.2734375,-199.70703125,-643.06640625
-633.7890625,-1000.0,-1000.0,-518.5546875
-46.38671875,-387.20703125,-252.9296875,-459.9609375
544.921875,920.8984375,966.796875,-419.43359375
350.5859375,999.51171875,999.51171875,-411.1328125
-299.31640625,217.28515625,29.296875,-410.15625
-662.109375,-1000.0,-1000.0,-385.7421875
-156.73828125,-567.87109375,-397.4609375,-338.8671875
498.53515625,805.17578125,898.92578125,-308.10546875
398.92578125,999.51171875,999.51171875,-312.98828125
-230.95703125,324.21875,168.45703125,-315.91796875
-655.76171875,-998.53515625,-1000.0,-324.21875
-271.484375,-1000.0,-647.4609375,-347.65625
417.96875,270.99609375,717.7734375,-330.078125
454.58984375,999.51171875,999.51171875,-314.94140625
-162.59765625,148.92578125,168.9453125,-316.89453125
-645.01953125,-1000.0,-1000.0,-292.48046875
-342.28515625,-1000.0,-851.5625,-264.6484375
369.62890625,107.91015625,462.890625,-237.3046875
515.13671875,999.51171875,999.51171875,-224.12109375
-70.3125,401.3671875,195.3125,-227.5390625
-620.60546875,-965.33203125,-1000.0,-221.19140625
-403.80859375,-1000.0,-991.2109375,-146.484375
312.5,253.90625,225.5859375,-187.5
541.50390625,999.51171875,999.51171875,32.71484375
92.28515625,981.93359375,345.703125,780.2734375
-499.0234375,-145.01953125,-940.4296875,999.51171875
-467.28515625,-1000.0,-1000.0,937.01171875
241.69921875,-48.33984375,-36.62109375,970.21484375
558.59375,999.51171875,999.51171875,966.30859375
123.046875,999.51171875,538.0859375,966.30859375
-502.9296875,-118.1640625,-803.22265625,966.30859375
-548.828125,-1000.0,-1000.0,966.30859375
156.73828125,-158.69140625,-147.4609375,965.8203125
564.453125,999.51171875,999.51171875,965.8203125
184.5703125,999.51171875,733.3984375,966.30859375
-465.8203125,-117.1875,-603.02734375,965.8203125
-609.86328125,-1000.0,-1000.0,965.8203125
57.12890625,-179.6875,-188.4765625,966.30859375
553.7109375,993.1640625,999.51171875,965.8203125
261.71875,999.51171875,944.3359375,965.8203125
-400.390625,56.15234375,-288.57421875,965.8203125
-647.4609375,-1000.0,-1000.0,965.8203125
-36.62109375,-444.3359375,-229.00390625,965.8203125
543.9453125,876.46484375,976.07421875,966.30859375
317.87109375,999.51171875,999.51171875,966.30859375
-362.79296875,206.54296875,-5.37109375,965.8203125
-685.546875,-1000.0,-1000.0,965.8203125
-148.4375,-669.921875,-351.07421875,968.75
483.3984375,720.21484375,925.78125,957.51953125
372.55859375,999.51171875,999.51171875,955.078125
-288.57421875,127.9296875,123.046875,943.84765625
-712.890625,-997.55859375,-1000.0,491.69921875
-333.0078125,-1000.0,-565.4296875,-482.91015625
327.1484375,-201.66015625,789.0625,-1000.0
386.23046875,999.51171875,999.51171875,-981.4453125
-243.1640625,170.8984375,171.875,-991.69921875
-695.80078125,-1000.0,-1000.0,-1000.0
-318.84765625,-964.84375,-725.5859375,-1000.0
392.08984375,291.9921875,631.34765625,-1000.0
483.3984375,999.51171875,999.51171875,-1000.0
-145.01953125,122.0703125,155.76171875,-1000.0
-660.15625,-1000.0,-1000.0,-1000.0
-399.90234375,-1000.0,-1000.0,-1000.0
304.6875,-240.234375,195.3125,-1000.0
530.2734375,999.51171875,999.51171875,-1000.0
-20.99609375,376.46484375,231.4453125,-1000.0
-606.93359375,-953.61328125,-1000.0,-1000.0
-458.0078125,-1000.0,-1000.0,-1000.0
255.37109375,-179.19921875,9.27734375,-1000.0
562.01171875,999.51171875,999.51171875,-1000.0
96.19140625,915.0390625,468.26171875,-1000.0
-540.0390625,-360.83984375,-857.421875,-1000.0
-533.69140625,-1000.0,-1000.0,-1000.0
176.7578125,-216.796875,-170.41015625,-1000.0
569.82421875,999.51171875,999.51171875,-1000.0
149.4140625,718.75,566.89453125,-1000.0
-507.32421875,-648.92578125,-789.0625,-1000.0
-578.125,-1000.0,-1000.0,-1000.0
103.02734375,-218.26171875,-201.171875,-1000.0
570.80078125,949.70703125,999.51171875,-997.0703125
245.1171875,999.51171875,871.09375,-1000.0
-409.66796875,133.7890625,-416.50390625,-962.40234375
-617.1875,-1000.0,-1000.0,-907.71484375
1.46484375,-327.63671875,-199.21875,-971.19140625
557.12890625,970.21484375,999.51171875,-1000.0
312.01171875,999.51171875,989.74609375,-924.8046875
-357.91015625,11.71875,-183.59375,-868.1640625
-646.97265625,-1000.0,-1000.0,-841.796875
-85.9375,-551.7578125,-315.91796875,-791.015625
549.31640625,796.875,934.08203125,-694.82421875
393.5546875,999.51171875,999.51171875,-774.4140625
-291.015625,201.66015625,65.91796875,-896.97265625
-659.1796875,-1000.0,-1000.0,-823.2421875
-158.203125,-384.765625,-411.1328125,-806.640625
506.34765625,930.6640625,896.484375,-816.40625
440.91796875,999.51171875,999.51171875,-782.71484375
-204.58984375,191.89453125,166.9921875,-782.2265625
-650.87890625,-1000.0,-1000.0,-758.30078125
-265.13671875,-900.87890625,-710.44921875,-670.41015625
433.59375,407.2265625,647.4609375,-591.30859375
492.67578125,999.51171875,999.51171875,-575.68359375
-134.27734375,220.703125,164.55078125,-537.59765625
-640.625,-999.0234375,-1000.0,-545.8984375
-359.86328125,-1000.0,-932.12890625,-574.70703125
353.515625,21.484375,334.47265625,-529.78515625
539.0625,999.51171875,999.51171875,-507.8125
-41.50390625,448.2421875,217.7734375,-514.6484375
-616.69921875,-882.32421875,-1000.0,-465.33203125
-432.6171875,-1000.0,-1000.0,-383.7890625
270.01953125,-153.80859375,63.96484375,-304.6875
543.9453125,999.51171875,999.51171875,-234.86328125
52.734375,856.93359375,369.62890625,-257.8125
-576.171875,-476.5625,-933.10546875,-298.828125
-519.53125,-1000.0,-1000.0,-273.4375
205.56640625,-23.4375,-78.61328125,-245.1171875
565.91796875,999.51171875,999.51171875,-153.3203125
137.6953125,999.51171875,551.7578125,-128.41796875
-520.01953125,-140.13671875,-790.52734375,-305.17578125
-574.70703125,-1000.0,-1000.0,-165.0390625
168.9453125,-149.90234375,-178.22265625,591.796875
610.3515625,995.1171875,999.51171875,999.51171875
237.79296875,999.51171875,784.66796875,942.87109375
-418.45703125,79.58984375,-537.59765625,963.37890625
-631.8359375,-1000.0,-1000.0,967.28515625
-0.48828125,-188.4765625,-187.98828125,965.8203125
523.4375,996.58203125,999.51171875,965.8203125
230.46875,999.51171875,971.6796875,965.8203125
-444.82421875,158.69140625,-231.4453125,965.8203125
-710.9375,-1000.0,-1000.0,966.30859375
-96.6796875,-194.82421875,-221.6796875,966.30859375
506.8359375,997.0703125,980.46875,965.8203125
305.17578125,999.51171875,999.51171875,965.8203125
-361.81640625,233.88671875,8.30078125,965.8203125
-704.58984375,-1000.0,-1000.0,966.30859375
-187.98828125,-552.24609375,-413.0859375,966.30859375
467.28515625,836.9140625,894.04296875,966.30859375
386.23046875,999.51171875,999.51171875,965.8203125
-267.08984375,171.875,122.55859375,966.30859375
-679.19921875,-1000.0,-1000.0,966.30859375
-270.5078125,-953.125,-668.45703125,966.30859375
408.69140625,315.91796875,687.98828125,965.8203125
446.77734375,999.51171875,999.51171875,966.30859375
-192.3828125,254.8828125,169.43359375,966.30859375
-675.29296875,-986.328125,-1000.0,965.8203125
-350.5859375,-1000.0,-870.60546875,965.8203125
349.609375,16.11328125,437.98828125,966.30859375
493.1640625,999.51171875,999.51171875,965.8203125
-100.5859375,271.97265625,174.31640625,965.8203125
-651.85546875,-992.67578125,-1000.0,966.30859375
-428.7109375,-1000.0,-1000.0,966.30859375
294.43359375,-39.55078125,184.08203125,966.30859375
541.015625,999.51171875,999.51171875,964.35546875
2.44140625,465.8203125,281.73828125,971.19140625
-612.3046875,-876.46484375,-977.05078125,945.3125
-495.60546875,-1000.0,-1000.0,930.6640625
229.98046875,-195.80078125,-25.87890625,961.42578125
556.640625,999.51171875,999.51171875,972.65625
88.37890625,647.4609375,458.984375,873.046875
-565.4296875,-731.93359375,-866.2109375,716.30859375
-565.91796875,-1000.0,-1000.0,700.1953125
140.13671875,-192.3828125,-167.48046875,780.2734375
552.734375,999.51171875,999.51171875,791.015625
176.26953125,975.09765625,732.421875,674.31640625
-493.65234375,-267.08984375,-608.88671875,554.6875
-632.32421875,-1000.0,-1000.0,523.92578125
54.6875,-188.4765625,-195.3125,599.12109375
551.7578125,999.51171875,999.51171875,650.390625
227.05078125,969.7265625,881.8359375,572.75390625
-438.96484375,-236.328125,-394.53125,443.359375
-654.78515625,-1000.0,-1000.0,404.78515625
-41.50390625,-479.4921875,-236.81640625,471.19140625
544.43359375,841.796875,984.375,530.2734375
331.54296875,999.51171875,999.51171875,485.83984375
-358.3984375,69.3359375,-99.609375,327.63671875
-680.17578125,-1000.0,-1000.0,213.8671875
-142.08984375,-684.08203125,-363.28125,285.64453125
504.39453125,672.8515625,912.109375,388.671875
398.92578125,999.51171875,999.51171875,360.83984375
-279.78515625,165.52734375,105.46875,134.27734375
-691.89453125,-1000.0,-1000.0,-115.72265625
-248.53515625,-950.68359375,-571.2890625,-157.2265625
446.2890625,335.9375,785.15625,-67.87109375
456.0546875,999.51171875,999.51171875,-4.8828125
-201.171875,168.9453125,155.76171875,-10.25390625
-663.57421875,-1000.0,-1000.0,14.6484375
-295.41015625,-883.7890625,-748.046875,145.5078125
415.0390625,414.0625,601.07421875,307.12890625
509.27734375,999.51171875,999.51171875,353.02734375
-106.93359375,404.296875,176.26953125,262.6953125
-649.90234375,-909.1796875,-1000.0,197.75390625
-405.2734375,-1000.0,-967.28515625,265.13671875
313.96484375,9.765625,277.83203125,387.20703125
532.2265625,999.51171875,999.51171875,428.22265625
-37.59765625,276.3671875,212.890625,327.1484375
-638.18359375,-968.26171875,-1000.0,217.28515625
-468.26171875,-1000.0,-1000.0,250.0
266.6015625,-226.5625,-4.39453125,359.375
573.2421875,999.51171875,999.51171875,399.90234375
71.2890625,662.109375,385.25390625,304.6875
-577.1484375,-723.14453125,-921.875,193.84765625
-542.96875,-1000.0,-1000.0,203.61328125
181.15234375,-168.9453125,-139.16015625,308.59375
562.01171875,999.51171875,999.51171875,364.2578125
141.6015625,886.23046875,612.79296875,280.76171875
-518.06640625,-407.71484375,-740.234375,156.25
-611.81640625,-1000.0,-1000.0,141.6015625
87.40234375,-190.4296875,-199.70703125,247.55859375
575.68359375,999.51171875,999.51171875,323.2421875
228.515625,999.51171875,837.40234375,248.046875
-457.03125,-133.7890625,-469.7265625,124.51171875
-649.4140625,-1000.0,-1000.0,104.00390625
3.41796875,-282.2265625,-196.77734375,200.1953125
554.19921875,933.10546875,999.51171875,272.94921875
300.29296875,999.51171875,999.51171875,222.16796875
-370.60546875,216.796875,-113.76953125,104.4921875
-668.9453125,-1000.0,-1000.0,67.3828125
-107.421875,-623.53515625,-331.0546875,155.76171875
507.32421875,768.06640625,941.40625,240.234375
352.05078125,999.51171875,999.51171875,207.03125
-314.453125,184.5703125,9.765625,84.9609375
-688.96484375,-1000.0,-1000.0,26.85546875
-206.0546875,-770.5078125,-484.375,108.88671875
479.98046875,599.609375,843.26171875,213.37890625
426.26953125,999.51171875,999.51171875,201.171875
-241.69921875,159.66796875,141.11328125,85.44921875
-663.57421875,-1000.0,-1000.0,20.5078125
-270.5078125,-975.5859375,-683.59375,85.9375
423.828125,285.64453125,673.828125,192.3828125
487.3046875,999.51171875,999.51171875,191.89453125
-158.203125,183.59375,169.921875,73.2421875
-665.0390625,-1000.0,-1000.0,-6.34765625
-367.1875,-1000.0,-909.1796875,41.9921875
344.7265625,6.8359375,374.51171875,144.04296875
517.08984375,999.51171875,999.51171875,166.9921875
-54.6875,473.6328125,224.609375,75.1953125
-632.32421875,-896.97265625,-1000.0,-15.625
-447.75390625,-1000.0,-1000.0,16.11328125
297.8515625,23.92578125,129.8828125,130.859375
567.87109375,999.51171875,999.51171875,175.29296875
38.0859375,566.40625,330.078125,77.63671875
-592.7734375,-773.4375,-942.87109375,-30.76171875
-515.13671875,-1000.0,-1000.0,-6.8359375
220.21484375,-221.19140625,-110.83984375,110.83984375
581.54296875,999.51171875,999.51171875,165.0390625
128.41796875,741.69921875,527.83203125,83.49609375
-537.109375,-627.9296875,-819.82421875,-33.203125
-583.0078125,-1000.0,-1000.0,-40.52734375
133.30078125,-166.50390625,-175.29296875,70.80078125
570.3125,978.02734375,999.51171875,135.7421875
208.0078125,999.51171875,834.47265625,70.80078125
-454.1015625,50.78125,-471.19140625,-32.71484375
-630.37109375,-1000.0,-1000.0,-46.875
35.15625,-329.58984375,-193.359375,56.640625
573.73046875,967.28515625,999.51171875,143.06640625
282.2265625,999.51171875,937.5,86.9140625
-399.90234375,-47.36328125,-297.36328125,-31.25
-652.83203125,-1000.0,-1000.0,-54.19921875
-58.59375,-399.4140625,-245.60546875,34.66796875
533.69140625,890.625,970.21484375,119.62890625
339.35546875,999.51171875,999.51171875,86.9140625
-331.0546875,197.75390625,-11.71875,-30.76171875
-675.29296875,-1000.0,-1000.0,-77.1484375
-145.5078125,-539.55078125,-365.234375,16.11328125
503.90625,841.796875,913.0859375,120.60546875
401.3671875,999.51171875,999.51171875,98.14453125
-250.48828125,169.921875,148.4375,-15.625
-672.36328125,-1000.0,-1000.0,-84.9609375
-261.23046875,-980.95703125,-636.23046875,-14.16015625
