TP9,AF7,AF8,TP10
-319.82421875,-59.08203125,-41.50390625,-57.6171875
-98.14453125,-44.43359375,-34.1796875,-3.41796875
-117.1875,-38.57421875,-28.80859375,27.83203125
-339.35546875,-50.78125,-46.875,16.6015625
-532.2265625,-62.5,-60.546875,-58.59375
-414.55078125,-54.19921875,-54.19921875,-73.73046875
-165.0390625,-36.1328125,-37.59765625,14.16015625
-190.91796875,-42.96875,-44.43359375,18.5546875
-387.20703125,-41.9921875,-49.8046875,-39.55078125
-519.04296875,-42.48046875,-43.45703125,-77.1484375
-484.86328125,-48.33984375,-46.38671875,-87.40234375
-283.203125,-43.9453125,-48.33984375,-28.80859375
-213.8671875,-36.62109375,-44.921875,47.8515625
-389.6484375,-28.80859375,-52.734375,-9.765625
-546.38671875,-34.66796875,-61.03515625,-103.515625
-511.71875,-47.36328125,-55.17578125,-117.67578125
-264.16015625,-57.6171875,-36.62109375,-26.85546875
-132.32421875,-55.17578125,-31.73828125,79.1015625
-352.05078125,-44.921875,-45.8984375,31.25
-579.1015625,-36.62109375,-54.6875,-77.63671875
-488.76953125,-35.15625,-52.734375,-54.6875
-198.73046875,-43.45703125,-43.9453125,15.13671875
-107.421875,-39.0625,-34.1796875,26.3671875
-292.48046875,-36.62109375,-31.25,-30.76171875
-517.578125,-38.0859375,-38.0859375,-107.421875
-544.921875,-49.31640625,-49.8046875,-116.69921875
-325.1953125,-62.5,-49.8046875,-101.07421875
-175.78125,-61.5234375,-46.875,-103.515625
-311.5234375,-56.640625,-39.0625,-98.6328125
-588.8671875,-65.4296875,-35.64453125,-164.0625
-640.13671875,-79.1015625,-61.5234375,-260.7421875
-390.13671875,-74.70703125,-56.15234375,-190.91796875
-228.515625,-75.1953125,-37.59765625,-100.5859375
-320.80078125,-77.63671875,-35.15625,-107.421875
-489.74609375,-77.1484375,-36.1328125,-152.83203125
-531.25,-78.61328125,-31.25,-140.13671875
-332.03125,-68.359375,-25.390625,-32.2265625
-123.53515625,-60.05859375,-18.5546875,76.171875
-190.91796875,-56.640625,-13.671875,97.16796875
-397.4609375,-56.15234375,-24.4140625,38.0859375
-482.91015625,-59.08203125,-28.3203125,-21.484375
-307.6171875,-62.98828125,-15.625,48.33984375
-101.5625,-65.91796875,-16.6015625,149.4140625
-139.6484375,-60.546875,-23.4375,156.25
-317.3828125,-52.734375,-26.85546875,99.12109375
-466.796875,-63.96484375,-44.43359375,21.484375
-359.86328125,-59.08203125,-42.48046875,25.390625
-96.6796875,-31.73828125,-24.4140625,100.09765625
-83.49609375,-37.109375,-26.3671875,121.58203125
-245.60546875,-40.52734375,-31.73828125,105.46875
-381.8359375,-35.15625,-33.69140625,66.89453125
-303.22265625,-32.71484375,-35.15625,31.73828125
-57.12890625,-38.0859375,-31.25,73.2421875
-10.25390625,-47.8515625,-27.34375,98.14453125
-191.89453125,-47.36328125,-29.78515625,51.26953125
-350.09765625,-38.57421875,-34.66796875,4.8828125
-290.0390625,-39.0625,-40.0390625,10.7421875
-45.41015625,-46.875,-41.9921875,69.3359375
50.29296875,-50.29296875,-41.9921875,121.58203125
-113.76953125,-48.828125,-38.57421875,90.8203125
-287.59765625,-37.109375,-41.015625,-9.765625
-235.83984375,-31.25,-40.52734375,-1.46484375
-20.5078125,-27.34375,-29.78515625,67.87109375
41.9921875,-25.87890625,-29.78515625,47.36328125
-104.98046875,-31.73828125,-37.59765625,-24.90234375
-250.48828125,-36.1328125,-39.55078125,-75.68359375
-273.4375,-43.45703125,-37.109375,-75.1953125
-81.54296875,-45.41015625,-32.2265625,-19.04296875
55.6640625,-49.8046875,-33.203125,50.78125
-68.359375,-57.6171875,-38.57421875,72.265625
-254.8828125,-51.7578125,-32.71484375,-28.80859375
-247.55859375,-48.33984375,-37.109375,-104.00390625
-16.6015625,-43.9453125,-41.50390625,-58.59375
141.6015625,-36.1328125,-34.1796875,19.53125
63.96484375,-31.25,-33.69140625,42.48046875
-137.20703125,-30.76171875,-37.109375,-22.94921875
-214.35546875,-39.55078125,-40.0390625,-67.87109375
-38.57421875,-43.9453125,-43.45703125,-36.1328125
144.04296875,-35.15625,-31.25,54.19921875
54.6875,-36.1328125,-28.80859375,53.7109375
-164.55078125,-40.0390625,-40.52734375,-31.73828125
-222.65625,-37.109375,-38.57421875,-68.84765625
-50.29296875,-45.41015625,-35.15625,-76.171875
135.25390625,-45.41015625,-34.1796875,-35.64453125
114.2578125,-36.62109375,-34.1796875,17.578125
-106.93359375,-36.1328125,-51.7578125,-42.96875
-235.3515625,-35.15625,-61.5234375,-152.83203125
-110.3515625,-27.34375,-49.8046875,-131.34765625
86.42578125,-21.97265625,-44.43359375,-34.1796875
110.83984375,-25.87890625,-34.1796875,7.32421875
-92.28515625,-34.1796875,-30.2734375,-24.90234375
-223.14453125,-39.55078125,-41.015625,-55.6640625
-113.76953125,-35.64453125,-45.41015625,-50.78125
101.07421875,-28.80859375,-35.64453125,-0.48828125
136.71875,-32.2265625,-22.4609375,53.7109375
-57.12890625,-32.71484375,-24.90234375,-5.859375
-241.69921875,-37.109375,-40.0390625,-76.171875
-183.10546875,-40.52734375,-42.48046875,-72.265625
48.33984375,-37.59765625,-40.52734375,-60.546875
94.23828125,-41.015625,-46.38671875,-42.48046875
-93.75,-40.0390625,-46.875,-69.82421875
-240.72265625,-37.109375,-48.828125,-124.0234375
-197.75390625,-42.48046875,-59.5703125,-126.953125
5.859375,-45.41015625,-58.59375,-76.66015625
128.90625,-35.64453125,-44.43359375,-8.7890625
4.39453125,-37.109375,-43.9453125,-13.18359375
-189.94140625,-48.33984375,-42.48046875,-109.86328125
-193.84765625,-51.26953125,-37.59765625,-134.765625
27.83203125,-47.8515625,-35.15625,-66.40625
168.45703125,-39.55078125,-26.85546875,-14.16015625
59.5703125,-37.109375,-20.01953125,7.8125
-142.08984375,-42.48046875,-21.484375,-46.38671875
-130.37109375,-48.828125,-22.94921875,-97.65625
83.984375,-48.33984375,-11.23046875,-51.26953125
198.2421875,-51.7578125,-12.20703125,4.8828125
117.1875,-56.15234375,-20.5078125,-4.39453125
-24.90234375,-46.875,-12.6953125,-26.3671875
-41.9921875,-42.48046875,-2.44140625,-36.1328125
112.79296875,-42.48046875,0.0,-6.8359375
268.5546875,-44.43359375,8.30078125,70.3125
261.71875,-37.109375,14.6484375,126.46484375
73.73046875,-35.15625,6.8359375,86.42578125
-37.109375,-45.41015625,1.46484375,31.25
183.59375,-40.0390625,2.9296875,47.8515625
421.875,-32.71484375,13.671875,145.01953125
352.5390625,-38.0859375,15.13671875,189.94140625
145.99609375,-38.0859375,3.41796875,114.74609375
93.26171875,-32.71484375,8.30078125,56.15234375
245.1171875,-28.3203125,18.5546875,59.5703125
451.66015625,-33.69140625,13.671875,156.73828125
440.91796875,-38.0859375,14.16015625,248.046875
254.39453125,-28.80859375,18.5546875,242.67578125
121.58203125,-27.34375,18.06640625,202.63671875
222.16796875,-24.90234375,15.625,208.984375
423.828125,-24.4140625,15.625,271.97265625
383.7890625,-26.3671875,22.94921875,312.98828125
217.7734375,-20.99609375,20.5078125,280.2734375
124.0234375,-18.5546875,12.6953125,212.40234375
144.04296875,-19.04296875,13.18359375,243.65234375
310.546875,-20.99609375,16.6015625,305.17578125
375.48828125,-20.99609375,11.71875,342.28515625
206.54296875,-23.4375,5.37109375,345.703125
50.29296875,-38.0859375,8.30078125,277.83203125
82.51953125,-28.3203125,8.30078125,222.16796875
269.04296875,-12.20703125,8.7890625,265.625
322.265625,-7.8125,8.30078125,315.4296875
167.96875,-3.41796875,9.765625,289.0625
-31.25,-11.71875,11.23046875,246.09375
-30.2734375,-15.13671875,9.27734375,234.86328125
206.0546875,-10.25390625,12.20703125,245.60546875
289.55078125,-5.37109375,14.6484375,305.6640625
160.15625,-0.9765625,10.25390625,309.08203125
-3.90625,-6.8359375,0.48828125,250.48828125
-26.3671875,-15.625,-0.9765625,214.35546875
180.17578125,-3.90625,3.90625,254.8828125
300.78125,5.859375,2.9296875,332.51953125
132.8125,5.37109375,0.9765625,305.6640625
-83.0078125,2.9296875,0.48828125,199.70703125
-77.1484375,1.953125,-1.953125,172.36328125
149.4140625,4.39453125,-3.41796875,225.5859375
296.38671875,-2.9296875,-1.953125,268.06640625
202.63671875,-8.30078125,-6.8359375,286.62109375
30.2734375,-11.71875,-13.18359375,199.21875
38.0859375,-9.27734375,-9.765625,104.4921875
195.80078125,-3.90625,-3.41796875,168.9453125
319.3359375,-12.20703125,2.44140625,278.80859375
244.140625,-17.08984375,6.34765625,275.390625
59.5703125,-9.27734375,-5.859375,224.12109375
23.92578125,-4.8828125,-11.71875,151.3671875
166.9921875,-7.8125,-10.25390625,157.71484375
336.9140625,-3.41796875,-7.8125,246.09375
295.41015625,-6.34765625,-7.8125,229.98046875
89.84375,-9.27734375,-1.953125,159.1796875
9.765625,-12.20703125,14.16015625,133.7890625
124.0234375,-25.87890625,17.578125,122.0703125
260.7421875,-19.53125,11.23046875,140.13671875
212.40234375,-8.7890625,7.32421875,167.96875
26.85546875,-14.6484375,7.8125,138.671875
-55.6640625,-18.5546875,5.859375,76.171875
69.82421875,-13.18359375,3.41796875,73.73046875
260.7421875,-11.71875,11.71875,127.44140625
252.9296875,-21.97265625,19.04296875,156.73828125
82.03125,-28.80859375,12.6953125,136.71875
10.25390625,-26.3671875,12.20703125,120.60546875
132.8125,-25.390625,16.6015625,176.26953125
320.80078125,-24.90234375,20.99609375,258.30078125
294.43359375,-21.97265625,24.4140625,279.78515625
130.859375,-31.73828125,18.5546875,253.90625
46.38671875,-36.62109375,19.04296875,231.93359375
77.1484375,-32.2265625,22.94921875,229.4921875
238.76953125,-34.1796875,26.85546875,274.90234375
299.8046875,-36.62109375,24.4140625,365.72265625
153.3203125,-41.015625,17.578125,344.23828125
29.78515625,-36.1328125,12.6953125,185.546875
89.84375,-21.97265625,2.9296875,110.83984375
257.32421875,-17.08984375,-2.44140625,185.05859375
316.40625,-19.04296875,-1.953125,233.3984375
211.9140625,-26.85546875,-1.953125,226.5625
70.80078125,-34.1796875,-16.11328125,159.66796875
62.98828125,-28.80859375,-24.90234375,101.07421875
230.46875,-12.6953125,-19.53125,138.18359375
311.03515625,-7.8125,-16.6015625,205.56640625
209.9609375,-8.30078125,-13.18359375,224.12109375
72.265625,-5.37109375,-15.13671875,147.4609375
55.6640625,-9.27734375,-17.578125,44.43359375
200.68359375,-22.4609375,-17.08984375,44.921875
292.48046875,-27.83203125,-22.4609375,116.69921875
202.1484375,-25.87890625,-24.90234375,138.671875
45.8984375,-40.52734375,-20.01953125,78.125
65.4296875,-49.8046875,-18.5546875,25.87890625
177.24609375,-45.8984375,-27.83203125,2.9296875
229.98046875,-37.109375,-36.1328125,32.2265625
167.48046875,-23.92578125,-32.2265625,94.7265625
9.27734375,-20.99609375,-34.66796875,62.98828125
-5.37109375,-20.01953125,-43.9453125,-41.9921875
134.765625,-23.4375,-42.48046875,-69.82421875
232.421875,-24.90234375,-41.9921875,-61.03515625
151.85546875,-27.34375,-46.875,-89.35546875
17.578125,-27.34375,-51.7578125,-172.36328125
-33.203125,-29.296875,-48.828125,-281.25
85.9375,-37.109375,-36.1328125,-263.18359375
229.4921875,-40.52734375,-34.66796875,-150.390625
127.44140625,-52.24609375,-38.0859375,-116.2109375
-37.109375,-58.59375,-42.96875,-172.8515625
-74.70703125,-52.734375,-45.41015625,-230.46875
26.3671875,-50.78125,-35.64453125,-245.1171875
149.4140625,-52.734375,-36.1328125,-180.17578125
130.37109375,-48.828125,-39.0625,-112.3046875
-32.71484375,-52.734375,-38.57421875,-159.1796875
-126.953125,-61.5234375,-45.8984375,-239.74609375
-12.6953125,-55.6640625,-49.8046875,-232.421875
145.01953125,-48.33984375,-47.36328125,-142.08984375
139.16015625,-44.921875,-41.50390625,-26.3671875
-6.34765625,-47.36328125,-38.0859375,-14.6484375
-69.82421875,-43.9453125,-42.96875,-120.1171875
20.01953125,-38.0859375,-50.29296875,-215.8203125
170.8984375,-41.015625,-55.6640625,-216.796875
174.31640625,-48.828125,-57.6171875,-166.9921875
21.97265625,-48.828125,-55.17578125,-165.0390625
-75.68359375,-47.36328125,-53.22265625,-226.5625
-8.7890625,-48.33984375,-56.15234375,-270.99609375
138.18359375,-48.33984375,-58.59375,-200.1953125
155.2734375,-49.8046875,-55.17578125,-106.4453125
31.73828125,-50.29296875,-46.38671875,-118.1640625
-55.6640625,-49.8046875,-45.41015625,-205.078125
3.90625,-43.9453125,-52.24609375,-239.2578125
143.06640625,-42.48046875,-51.7578125,-185.05859375
171.875,-42.48046875,-49.31640625,-118.1640625
40.0390625,-43.9453125,-53.7109375,-117.67578125
-83.49609375,-53.7109375,-61.5234375,-192.3828125
-32.71484375,-50.78125,-56.640625,-235.3515625
106.4453125,-45.41015625,-48.33984375,-182.6171875
143.06640625,-49.8046875,-51.26953125,-128.90625
30.2734375,-47.36328125,-53.7109375,-113.28125
-73.73046875,-39.55078125,-51.26953125,-149.4140625
-53.7109375,-40.0390625,-49.31640625,-246.09375
83.0078125,-36.62109375,-50.29296875,-245.60546875
149.90234375,-31.73828125,-47.8515625,-138.671875
22.94921875,-40.0390625,-49.31640625,-157.2265625
-125.9765625,-45.8984375,-50.78125,-207.03125
-104.00390625,-43.45703125,-54.19921875,-216.796875
42.96875,-40.0390625,-54.19921875,-245.1171875
125.0,-37.59765625,-52.24609375,-203.125
3.41796875,-40.0390625,-57.6171875,-153.80859375
-173.33984375,-48.33984375,-65.91796875,-188.96484375
-138.18359375,-47.8515625,-70.3125,-255.859375
1.953125,-42.48046875,-60.05859375,-233.3984375
71.2890625,-40.0390625,-62.01171875,-165.52734375
-29.296875,-45.8984375,-63.96484375,-129.8828125
-201.66015625,-45.41015625,-59.08203125,-153.80859375
-202.1484375,-39.55078125,-64.94140625,-238.76953125
-66.89453125,-44.43359375,-65.91796875,-269.53125
62.01171875,-47.36328125,-61.03515625,-170.8984375
35.64453125,-46.38671875,-57.12890625,-89.35546875
-116.2109375,-48.828125,-51.26953125,-128.41796875
-156.73828125,-48.33984375,-45.8984375,-195.3125
-56.15234375,-46.875,-49.31640625,-261.23046875
60.05859375,-38.57421875,-54.19921875,-215.33203125
5.37109375,-26.3671875,-63.96484375,-136.23046875
-149.4140625,-37.59765625,-66.40625,-151.85546875
-202.1484375,-53.7109375,-70.3125,-224.609375
-96.19140625,-43.9453125,-76.66015625,-269.04296875
47.36328125,-38.57421875,-69.82421875,-252.44140625
13.18359375,-46.38671875,-65.4296875,-160.15625
-137.6953125,-43.9453125,-66.89453125,-122.0703125
-187.01171875,-45.41015625,-69.82421875,-248.046875
-95.703125,-46.875,-71.77734375,-325.1953125
24.4140625,-39.55078125,-74.21875,-246.09375
29.78515625,-41.015625,-72.75390625,-125.48828125
-114.74609375,-41.50390625,-66.40625,-111.328125
-186.5234375,-41.50390625,-69.82421875,-189.453125
-96.19140625,-44.43359375,-72.265625,-272.94921875
42.48046875,-41.015625,-69.82421875,-245.60546875
40.0390625,-40.0390625,-67.3828125,-169.43359375
-162.59765625,-46.38671875,-67.87109375,-149.90234375
-246.58203125,-45.8984375,-66.40625,-164.0625
-126.953125,-40.52734375,-61.03515625,-202.1484375
3.90625,-41.50390625,-65.91796875,-202.1484375
29.78515625,-41.015625,-71.2890625,-135.25390625
-112.79296875,-47.36328125,-71.2890625,-82.03125
-222.16796875,-53.22265625,-69.82421875,-111.81640625
-143.06640625,-48.33984375,-68.84765625,-165.52734375
0.48828125,-43.9453125,-67.3828125,-150.87890625
25.390625,-42.48046875,-68.84765625,-83.0078125
-110.3515625,-42.96875,-64.453125,-44.43359375
-219.23828125,-41.50390625,-63.96484375,-126.953125
-188.4765625,-36.62109375,-74.21875,-269.04296875
-26.3671875,-34.1796875,-70.80078125,-261.23046875
45.41015625,-36.1328125,-59.5703125,-158.69140625
-103.02734375,-44.921875,-54.19921875,-71.77734375
-227.5390625,-50.29296875,-59.5703125,-80.56640625
-157.2265625,-51.26953125,-71.77734375,-166.015625
15.13671875,-46.875,-64.453125,-175.78125
97.16796875,-41.50390625,-46.38671875,-96.6796875
-21.484375,-46.38671875,-50.29296875,-62.01171875
-210.44921875,-50.29296875,-59.08203125,-107.421875
-232.91015625,-46.875,-55.17578125,-155.2734375
-71.77734375,-37.109375,-55.17578125,-159.66796875
35.15625,-35.64453125,-63.4765625,-96.6796875
-37.109375,-41.015625,-62.01171875,-67.87109375
-169.43359375,-41.015625,-63.96484375,-127.44140625
-194.3359375,-44.921875,-66.40625,-200.1953125
-77.63671875,-42.48046875,-70.3125,-226.5625
32.2265625,-35.15625,-75.1953125,-146.484375
-34.1796875,-39.0625,-71.77734375,-64.453125
-202.63671875,-40.52734375,-73.2421875,-84.9609375
-231.93359375,-36.62109375,-76.66015625,-170.8984375
-64.453125,-32.2265625,-72.265625,-210.9375
63.4765625,-37.59765625,-68.84765625,-162.59765625
-1.953125,-48.828125,-67.3828125,-130.37109375
-191.89453125,-53.22265625,-63.4765625,-153.3203125
-269.04296875,-49.31640625,-63.96484375,-197.75390625
-101.5625,-38.57421875,-62.01171875,-220.21484375
49.8046875,-32.2265625,-61.5234375,-190.91796875
-9.765625,-35.64453125,-60.546875,-116.2109375
-181.640625,-34.66796875,-73.2421875,-51.7578125
-266.6015625,-35.15625,-109.375,-121.09375
-150.390625,-39.55078125,-120.1171875,-201.66015625
25.390625,-40.52734375,-116.69921875,-170.8984375
19.04296875,-40.0390625,-114.74609375,-95.703125
-149.90234375,-43.45703125,-107.421875,-98.6328125
-242.67578125,-47.8515625,-108.3984375,-206.54296875
-173.828125,-49.8046875,-110.83984375,-251.46484375
-42.96875,-50.78125,-101.5625,-232.91015625
-17.08984375,-53.7109375,-92.7734375,-162.109375
-159.66796875,-58.59375,-99.12109375,-113.76953125
-274.90234375,-54.19921875,-100.09765625,-141.6015625
-214.35546875,-47.8515625,-99.609375,-222.16796875
-62.01171875,-48.828125,-98.6328125,-241.2109375
-35.64453125,-52.734375,-91.796875,-138.671875
-175.29296875,-52.734375,-89.84375,-93.26171875
-328.125,-44.921875,-87.40234375,-161.1328125
-321.2890625,-40.0390625,-86.9140625,-240.234375
-152.83203125,-40.0390625,-83.49609375,-231.4453125
-99.12109375,-36.1328125,-77.63671875,-135.7421875
-214.84375,-36.62109375,-74.70703125,-100.5859375
-373.046875,-53.22265625,-86.42578125,-146.97265625
-388.18359375,-60.05859375,-81.54296875,-177.734375
-229.4921875,-44.921875,-69.82421875,-157.2265625
-139.6484375,-34.1796875,-77.63671875,-124.51171875
-227.5390625,-27.34375,-73.73046875,-82.03125
-387.20703125,-25.390625,-69.82421875,-109.375
-395.01953125,-28.80859375,-70.80078125,-165.0390625
-244.140625,-28.3203125,-74.21875,-156.25
-121.09375,-23.92578125,-74.70703125,-160.64453125
-148.92578125,-21.484375,-75.1953125,-141.6015625
-317.3828125,-27.34375,-70.3125,-134.765625
-397.4609375,-27.34375,-74.21875,-209.47265625
-264.16015625,-34.1796875,-83.49609375,-240.72265625
-138.18359375,-44.921875,-76.171875,-145.5078125
-190.4296875,-38.57421875,-79.1015625,-98.14453125
-325.1953125,-33.203125,-78.61328125,-141.11328125
-416.015625,-23.92578125,-75.1953125,-186.03515625
-319.3359375,-20.99609375,-75.1953125,-191.40625
-175.78125,-24.90234375,-73.2421875,-127.44140625
-191.40625,-25.87890625,-67.3828125,-65.91796875
-342.7734375,-27.83203125,-62.5,-50.78125
-434.5703125,-27.34375,-61.5234375,-91.796875
-378.90625,-32.2265625,-61.5234375,-151.3671875
-274.90234375,-40.0390625,-63.96484375,-166.50390625
-270.99609375,-43.45703125,-62.01171875,-124.0234375
-427.24609375,-42.48046875,-65.4296875,-98.14453125
-560.05859375,-47.8515625,-70.80078125,-132.8125
-467.7734375,-48.828125,-67.3828125,-163.0859375
-307.6171875,-33.69140625,-63.4765625,-161.62109375
-329.1015625,-28.3203125,-59.5703125,-126.953125
-463.37890625,-30.2734375,-67.87109375,-107.91015625
-580.078125,-32.71484375,-69.3359375,-153.3203125
-513.671875,-38.57421875,-51.26953125,-196.2890625
-380.859375,-35.15625,-51.7578125,-184.08203125
-371.58203125,-34.66796875,-60.546875,-160.64453125
-463.37890625,-39.0625,-58.10546875,-173.33984375
-615.234375,-39.0625,-54.19921875,-243.1640625
-567.3828125,-41.9921875,-51.7578125,-296.875
-431.15234375,-49.8046875,-41.9921875,-261.23046875
-419.921875,-61.03515625,-29.296875,-161.62109375
-494.140625,-53.22265625,-32.71484375,-104.00390625
-652.34375,-48.33984375,-32.71484375,-84.9609375
-679.6875,-53.7109375,-42.96875,-169.43359375
-555.6640625,-48.828125,-62.01171875,-387.6953125
-492.1875,-43.45703125,-57.12890625,-411.62109375
-549.31640625,-41.9921875,-55.6640625,-321.2890625
-674.8046875,-43.9453125,-55.17578125,-311.5234375
-705.56640625,-47.8515625,-52.24609375,-340.33203125
-553.22265625,-52.24609375,-53.22265625,-360.3515625
-385.7421875,-49.31640625,-45.41015625,-248.53515625
-406.25,-47.8515625,-43.9453125,-148.92578125
-583.49609375,-52.734375,-44.43359375,-210.9375
-640.13671875,-52.24609375,-44.43359375,-327.63671875
-468.75,-39.0625,-50.78125,-337.890625
-334.9609375,-33.69140625,-59.5703125,-227.5390625
-398.4375,-42.96875,-61.03515625,-133.7890625
-553.22265625,-45.41015625,-56.640625,-127.44140625
-583.0078125,-41.015625,-59.08203125,-248.046875
-458.49609375,-46.38671875,-80.56640625,-394.53125
-301.26953125,-42.96875,-80.56640625,-348.14453125
-290.0390625,-41.015625,-61.03515625,-233.3984375
-437.98828125,-40.52734375,-63.4765625,-224.609375
-501.953125,-41.9921875,-62.98828125,-285.64453125
-403.80859375,-50.29296875,-57.6171875,-330.56640625
-250.9765625,-43.9453125,-66.89453125,-296.875
-212.40234375,-37.59765625,-62.01171875,-201.66015625
-379.39453125,-41.9921875,-56.15234375,-142.08984375
-473.14453125,-44.43359375,-62.5,-221.6796875
-387.6953125,-41.015625,-68.84765625,-312.5
-240.234375,-38.57421875,-66.40625,-274.90234375
-179.6875,-47.36328125,-62.5,-173.828125
-331.54296875,-59.08203125,-62.98828125,-146.484375
-451.66015625,-52.734375,-65.4296875,-205.56640625
-351.5625,-55.17578125,-60.546875,-231.4453125
-187.01171875,-60.546875,-61.03515625,-186.03515625
-130.859375,-51.7578125,-66.89453125,-105.95703125
-249.0234375,-49.8046875,-54.6875,-64.453125
-402.83203125,-51.7578125,-45.8984375,-146.97265625
-391.6015625,-56.15234375,-59.08203125,-272.4609375
-202.63671875,-62.98828125,-62.98828125,-292.96875
-69.3359375,-61.03515625,-53.7109375,-203.125
-133.7890625,-55.6640625,-41.50390625,-80.56640625
-298.33984375,-60.546875,-46.38671875,-117.67578125
-322.75390625,-70.80078125,-58.59375,-202.1484375
-163.57421875,-69.82421875,-56.640625,-199.21875
-41.015625,-59.5703125,-60.546875,-125.0
-70.80078125,-50.78125,-62.5,-86.9140625
-205.56640625,-50.29296875,-59.08203125,-122.0703125
-276.85546875,-56.640625,-61.03515625,-156.73828125
-136.71875,-51.7578125,-49.31640625,-156.73828125
1.953125,-49.8046875,-37.59765625,-92.28515625
-63.96484375,-54.6875,-45.41015625,-20.01953125
-236.81640625,-58.59375,-48.828125,18.5546875
-282.2265625,-62.5,-42.96875,-28.80859375
-110.3515625,-58.59375,-45.41015625,-125.48828125
48.33984375,-60.05859375,-45.41015625,-133.7890625
31.25,-59.5703125,-40.52734375,-57.6171875
-128.41796875,-57.6171875,-49.8046875,-93.75
-238.28125,-65.91796875,-50.29296875,-166.9921875
-104.4921875,-68.84765625,-43.45703125,-170.8984375
69.3359375,-60.546875,-46.38671875,-128.90625
76.171875,-53.7109375,-42.96875,-50.78125
-85.44921875,-66.40625,-38.0859375,-3.90625
-235.83984375,-79.1015625,-47.36328125,-83.49609375
-196.2890625,-62.98828125,-56.15234375,-158.69140625
-41.9921875,-40.0390625,-52.24609375,-116.69921875
-18.06640625,-46.38671875,-48.33984375,-49.8046875
-162.109375,-54.19921875,-46.875,9.765625
-287.59765625,-53.22265625,-46.875,-20.99609375
-250.9765625,-63.96484375,-50.78125,-79.1015625
-96.19140625,-67.87109375,-54.19921875,-97.16796875
-42.48046875,-61.5234375,-48.33984375,-47.8515625
-144.04296875,-56.15234375,-43.45703125,27.83203125
-290.0390625,-60.546875,-43.9453125,-8.30078125
-281.25,-62.5,-46.38671875,-156.25
-93.26171875,-55.17578125,-45.8984375,-210.44921875
15.625,-49.31640625,-29.78515625,-61.03515625
-87.890625,-40.52734375,-27.34375,-7.32421875
-276.85546875,-37.59765625,-40.0390625,-103.515625
-262.20703125,-53.7109375,-53.22265625,-191.40625
-62.5,-58.59375,-57.12890625,-210.9375
42.96875,-34.1796875,-38.57421875,-148.4375
-68.359375,-16.6015625,-41.50390625,-85.9375
-242.67578125,-48.33984375,-55.17578125,-56.640625
-250.0,-70.3125,-49.31640625,-86.42578125
-108.88671875,-57.6171875,-42.96875,-124.51171875
38.57421875,-55.17578125,-40.0390625,-29.78515625
10.7421875,-51.26953125,-41.50390625,48.33984375
-189.453125,-34.66796875,-43.9453125,-80.56640625
-254.39453125,-40.52734375,-47.8515625,-174.31640625
-150.390625,-10.25390625,-58.10546875,-182.6171875
-17.578125,11.23046875,-48.33984375,-140.13671875
38.0859375,-65.4296875,-30.76171875,7.8125
-106.93359375,-76.66015625,-41.50390625,4.8828125
-206.54296875,-57.6171875,-53.7109375,-150.87890625
-75.1953125,-61.03515625,-56.640625,-188.96484375
96.19140625,-52.24609375,-45.41015625,-78.125
73.2421875,-50.29296875,-43.45703125,-11.71875
-119.140625,-50.29296875,-48.828125,-9.765625
-265.625,-48.828125,-47.36328125,-83.984375
-148.92578125,-42.48046875,-48.828125,-170.8984375
50.78125,-38.57421875,-54.19921875,-138.18359375
69.3359375,-41.9921875,-53.22265625,-28.80859375
-96.6796875,-43.45703125,-49.31640625,5.37109375
-261.71875,-60.05859375,-40.52734375,-88.37890625
-183.59375,-65.4296875,-39.0625,-143.06640625
7.32421875,-65.4296875,-52.24609375,-83.984375
74.70703125,-60.546875,-46.875,-19.53125
-70.3125,-43.45703125,-36.62109375,-59.5703125
-275.87890625,-45.41015625,-38.57421875,-128.90625
-242.1875,-49.8046875,-37.59765625,-164.0625
-15.13671875,-37.109375,-27.83203125,-143.5546875
102.05078125,-37.59765625,-26.85546875,-32.2265625
-23.4375,-54.19921875,-30.76171875,16.6015625
-219.23828125,-55.6640625,-31.25,-15.625
-241.69921875,-50.29296875,-35.64453125,-52.24609375
-75.68359375,-42.48046875,-36.1328125,-63.96484375
62.98828125,-34.66796875,-35.64453125,-37.109375
3.41796875,-32.71484375,-34.1796875,4.8828125
-193.84765625,-33.69140625,-29.78515625,-22.4609375
-248.53515625,-38.57421875,-32.2265625,-95.21484375
-61.5234375,-40.52734375,-23.4375,-41.015625
74.70703125,-35.15625,-6.34765625,66.40625
-21.484375,-39.0625,-16.6015625,92.7734375
-213.8671875,-36.1328125,-20.99609375,16.11328125
-228.02734375,-25.87890625,-9.27734375,-29.78515625
-84.9609375,-6.8359375,-6.34765625,-56.640625
80.56640625,4.8828125,3.41796875,-59.5703125
109.86328125,7.8125,19.04296875,38.57421875
-101.07421875,1.953125,11.71875,-36.62109375
-232.421875,-11.23046875,0.9765625,-191.40625
-66.40625,-2.9296875,-3.90625,-195.80078125
91.30859375,9.765625,-16.6015625,-111.81640625
49.8046875,2.44140625,-1.46484375,-22.94921875
-71.77734375,1.46484375,7.8125,-45.41015625
-181.640625,-5.859375,10.25390625,-98.6328125
-113.28125,-17.08984375,21.97265625,-90.8203125
96.6796875,-11.71875,22.4609375,46.38671875
113.28125,-17.08984375,13.671875,93.75
-29.296875,-22.94921875,11.71875,-82.03125
-159.1796875,-20.01953125,4.8828125,-238.76953125
-137.6953125,-23.4375,-11.71875,-263.18359375
29.296875,-20.99609375,-16.11328125,-187.5
70.3125,-17.08984375,-13.671875,-85.44921875
-104.00390625,-23.92578125,-17.578125,-84.47265625
-269.04296875,-37.59765625,-22.94921875,-159.66796875
-211.42578125,-47.8515625,-20.99609375,-185.546875
-60.546875,-53.22265625,-11.71875,-114.74609375
-4.8828125,-48.33984375,-8.7890625,-19.53125
-157.2265625,-45.8984375,-2.44140625,-28.80859375
-374.51171875,-44.921875,-9.27734375,-155.2734375
-366.69921875,-33.203125,-40.0390625,-251.46484375
-203.61328125,-34.66796875,-18.06640625,-208.984375
-121.58203125,-37.109375,43.9453125,-142.578125
-221.6796875,-51.7578125,23.4375,-47.8515625
-436.03515625,-66.40625,-37.59765625,-28.80859375
-471.19140625,-40.52734375,-21.97265625,-187.98828125
-288.57421875,-32.2265625,25.390625,-234.375
-102.05078125,-48.33984375,-33.203125,-221.6796875
-149.90234375,-43.45703125,-58.59375,-221.19140625
-393.06640625,-43.9453125,-12.20703125,-240.234375
-430.17578125,-25.390625,-33.69140625,-323.73046875
-246.58203125,-2.9296875,-64.453125,-294.921875
-74.21875,-58.59375,-53.22265625,-122.55859375
-108.88671875,-73.73046875,-47.36328125,-7.8125
-337.890625,-53.22265625,-54.19921875,-15.13671875
-427.24609375,-56.15234375,-45.41015625,-81.54296875
-375.48828125,9.765625,-57.6171875,-183.59375
-315.4296875,47.8515625,120.60546875,-270.01953125
-179.19921875,-82.03125,48.33984375,-146.97265625
-244.62890625,-125.9765625,-150.87890625,-66.89453125
-356.93359375,-62.5,-88.37890625,-149.90234375
-367.1875,16.6015625,-91.30859375,-195.3125
-226.5625,-7.32421875,-23.4375,-133.7890625
-138.671875,-57.6171875,28.3203125,-72.265625
-324.70703125,-35.64453125,-74.70703125,-100.09765625
-406.25,-62.98828125,-65.91796875,-207.51953125
-325.1953125,-75.68359375,72.265625,-279.78515625
-241.69921875,3.90625,-45.8984375,-92.7734375
-300.29296875,52.24609375,-98.14453125,29.78515625
-459.47265625,5.859375,68.84765625,-108.3984375
-429.19921875,-73.73046875,-11.71875,-220.21484375
-132.8125,-130.859375,-130.859375,-205.078125
68.84765625,-105.95703125,-62.01171875,-142.08984375
16.11328125,-56.15234375,-39.0625,-36.62109375
-243.65234375,-45.8984375,-39.0625,-37.59765625
-408.203125,-70.3125,-53.7109375,-122.0703125
-362.79296875,-78.125,-21.97265625,-224.609375
-141.11328125,-100.09765625,61.03515625,-244.62890625
-163.0859375,47.8515625,-58.10546875,-136.23046875
-413.0859375,100.09765625,-130.859375,-30.2734375
-406.25,-88.8671875,-54.19921875,62.01171875
-411.62109375,-10.7421875,-75.1953125,-38.0859375
-440.4296875,78.61328125,7.8125,-334.9609375
-172.8515625,-105.46875,94.7265625,-304.6875
-61.03515625,-134.765625,-80.078125,-6.8359375
-298.828125,-60.05859375,-112.79296875,-0.9765625
-257.8125,-90.8203125,-56.15234375,-22.4609375
-35.15625,-101.5625,-55.6640625,35.15625
33.203125,-87.890625,-34.1796875,83.984375
-190.91796875,-48.33984375,-16.6015625,27.83203125
-466.796875,-17.578125,-15.625,-206.0546875
-323.2421875,-57.6171875,-35.64453125,-312.5
-108.88671875,-40.0390625,11.23046875,-353.02734375
-352.05078125,82.51953125,154.78515625,-559.5703125
-460.44921875,97.16796875,56.15234375,-478.515625
-115.72265625,-116.2109375,-131.8359375,-93.26171875
-89.35546875,-152.34375,-68.359375,-73.73046875
-34.1796875,-121.09375,-38.0859375,-32.2265625
134.27734375,-86.9140625,-76.171875,99.12109375
-112.79296875,-17.08984375,-38.0859375,54.19921875
-331.0546875,-55.6640625,-35.64453125,-10.7421875
-237.3046875,-93.75,-63.96484375,-40.52734375
-293.9453125,-58.10546875,40.0390625,-133.30078125
-83.0078125,-88.37890625,2.9296875,19.04296875
94.7265625,-64.94140625,-122.0703125,389.6484375
-525.390625,48.33984375,121.58203125,63.96484375
-602.5390625,-56.15234375,137.6953125,-279.296875
-126.953125,-74.21875,-168.9453125,-202.1484375
38.0859375,-13.18359375,-159.66796875,-178.7109375
-75.1953125,44.921875,-55.17578125,-156.25
-270.99609375,-63.4765625,-46.875,-90.33203125
-454.58984375,-92.28515625,-33.203125,-98.6328125
-605.46875,-19.53125,126.953125,-388.18359375
-11.71875,-164.55078125,0.9765625,-68.359375
213.37890625,-127.9296875,-127.9296875,500.0
-360.3515625,-58.10546875,45.8984375,237.3046875
-564.453125,-81.0546875,45.41015625,-221.6796875
-48.828125,-154.296875,-145.5078125,-55.17578125
-56.640625,8.30078125,-69.3359375,-64.94140625
-321.77734375,35.15625,20.5078125,-179.6875
-259.27734375,-65.91796875,-125.0,-32.71484375
-395.99609375,-39.0625,-59.08203125,-3.41796875
-197.75390625,-82.03125,-11.71875,-100.09765625
149.90234375,-98.6328125,-116.69921875,-111.81640625
122.55859375,-108.3984375,-75.68359375,32.2265625
-236.81640625,-66.89453125,-72.265625,2.44140625
-278.80859375,-112.3046875,-74.70703125,106.4453125
-141.11328125,-106.93359375,-44.43359375,160.64453125
26.85546875,-74.21875,-60.05859375,58.59375
86.42578125,-63.4765625,-49.31640625,-61.03515625
-150.390625,-64.94140625,-42.96875,-22.4609375
-349.609375,-52.734375,-48.33984375,27.34375
-195.80078125,-54.19921875,-23.4375,-125.0
71.77734375,-67.87109375,-34.1796875,-84.47265625
104.4921875,-58.59375,-41.015625,3.41796875
-94.7265625,-59.08203125,-17.08984375,24.4140625
-317.3828125,-62.5,-3.41796875,29.78515625
-257.8125,-52.24609375,-15.13671875,-29.296875
-1.46484375,-34.66796875,-19.04296875,-71.77734375
94.23828125,-37.59765625,0.48828125,42.48046875
-68.84765625,-46.875,3.41796875,88.37890625
-273.92578125,-47.8515625,-8.30078125,-121.58203125
-245.60546875,-44.921875,-10.7421875,-216.796875
-1.46484375,-35.64453125,0.0,-192.3828125
143.06640625,-25.87890625,6.8359375,-110.3515625
-20.5078125,-32.2265625,9.27734375,51.7578125
-255.859375,-34.66796875,12.6953125,149.90234375
-227.5390625,-33.69140625,11.71875,121.09375
47.36328125,-31.25,-1.953125,-74.70703125
244.140625,-25.390625,-12.20703125,-206.54296875
109.86328125,-22.94921875,-8.7890625,-90.8203125
-141.11328125,-20.99609375,-0.9765625,13.18359375
-217.7734375,-29.296875,0.9765625,-7.8125
0.48828125,-33.69140625,3.41796875,4.8828125
196.77734375,-30.2734375,-3.90625,58.10546875
103.515625,-29.78515625,-19.04296875,86.9140625
-112.79296875,-25.390625,-16.11328125,77.1484375
-209.9609375,-21.484375,-9.27734375,34.1796875
10.7421875,-16.6015625,-13.18359375,-18.06640625
216.30859375,-21.97265625,-21.484375,-73.2421875
103.515625,-25.390625,-20.5078125,10.25390625
-155.2734375,-21.484375,-15.13671875,84.47265625
-245.60546875,-23.4375,-16.6015625,-45.41015625
-35.64453125,-20.5078125,-17.578125,-178.22265625
145.99609375,-19.04296875,-17.578125,-88.37890625
36.1328125,-32.2265625,-18.5546875,-12.20703125
-231.4453125,-40.0390625,-13.671875,6.34765625
-338.8671875,-39.0625,-11.71875,53.22265625
-170.41015625,-33.203125,-24.90234375,-45.41015625
42.48046875,-18.5546875,-30.2734375,-198.73046875
50.78125,-20.99609375,-18.06640625,-132.32421875
-210.9375,-42.96875,-9.765625,77.1484375
-482.91015625,-53.7109375,-11.23046875,83.0078125
-361.328125,-39.0625,-23.4375,-147.4609375
-78.125,-18.06640625,-29.296875,-249.51171875
-78.125,-19.53125,-29.78515625,-107.91015625
-317.87109375,-30.2734375,-11.23046875,55.17578125
-508.7890625,-28.80859375,-0.9765625,70.80078125
-442.3828125,-25.87890625,-19.04296875,-89.35546875
-223.14453125,-22.94921875,-29.296875,-161.62109375
-149.4140625,-29.296875,-19.53125,-98.14453125
-371.09375,-38.57421875,-15.13671875,-78.125
-576.171875,-41.50390625,-20.01953125,-46.875
-485.83984375,-51.26953125,-17.578125,0.0
-245.1171875,-52.24609375,-13.18359375,60.546875
-158.203125,-37.109375,-5.859375,211.9140625
-360.83984375,-34.1796875,-14.16015625,154.78515625
-541.50390625,-34.1796875,-40.52734375,-98.14453125
-468.26171875,-27.83203125,-45.41015625,-218.26171875
-222.65625,-28.3203125,-29.78515625,-209.47265625
-140.625,-33.203125,-26.3671875,-156.25
-298.828125,-35.64453125,-27.34375,-85.9375
-501.46484375,-20.5078125,-34.66796875,-63.4765625
-440.4296875,-3.41796875,-40.0390625,-118.1640625
-125.0,-7.8125,-26.3671875,-104.00390625
1.46484375,-46.875,-29.296875,-10.7421875
-163.57421875,-7.32421875,-29.78515625,93.26171875
-376.46484375,10.7421875,-18.5546875,55.17578125
-340.33203125,-58.10546875,-49.8046875,-161.62109375
-50.29296875,-65.4296875,-68.359375,-188.4765625
72.265625,-17.578125,-13.671875,5.37109375
-120.60546875,-21.97265625,-0.9765625,52.734375
-319.82421875,-75.68359375,-60.546875,-5.37109375
-410.64453125,-42.96875,-35.64453125,-23.4375
-262.6953125,-62.01171875,-5.37109375,8.7890625
-54.19921875,-83.49609375,-30.76171875,54.6875
-104.00390625,-57.6171875,-11.23046875,-26.85546875
-268.5546875,-55.17578125,-32.2265625,-231.93359375
-305.17578125,-40.52734375,-77.1484375,-368.65234375
-48.33984375,-20.01953125,-74.70703125,-236.81640625
263.671875,-64.453125,-102.5390625,-59.08203125
232.91015625,-79.58984375,-70.80078125,-40.52734375
-152.34375,-25.390625,-51.7578125,-76.171875
-371.09375,-41.015625,-42.96875,6.8359375
-242.67578125,67.3828125,-64.453125,56.15234375
30.2734375,15.13671875,-67.3828125,44.43359375
235.83984375,-231.93359375,-41.50390625,209.47265625
42.96875,-144.53125,-99.12109375,-13.671875
-336.9140625,87.890625,-60.546875,-403.80859375
-131.8359375,-66.40625,-35.64453125,-240.72265625
398.4375,-251.46484375,-46.38671875,18.5546875
124.51171875,1.46484375,-25.87890625,-35.15625
-212.890625,-33.69140625,27.83203125,-17.578125
-261.71875,-108.88671875,47.8515625,-66.40625
-4.39453125,-115.234375,-74.70703125,-154.78515625
470.21484375,-184.08203125,-109.375,-112.3046875
426.26953125,-80.078125,-44.43359375,-129.39453125
7.32421875,-58.59375,-38.0859375,-104.00390625
-145.01953125,-108.3984375,-10.25390625,-82.51953125
123.046875,-122.55859375,-97.16796875,-166.015625
100.5859375,24.90234375,-28.80859375,-373.046875
42.48046875,2.44140625,21.484375,-298.828125
291.015625,-193.84765625,-114.2578125,95.21484375
133.7890625,-162.59765625,-76.171875,116.69921875
-19.53125,-123.046875,-45.41015625,-35.15625
166.9921875,-99.12109375,-31.25,30.2734375
307.12890625,-115.72265625,-37.109375,21.484375
187.98828125,-99.609375,-68.84765625,-209.47265625
-109.86328125,-41.015625,-51.26953125,-388.18359375
-223.14453125,-29.78515625,-51.26953125,-383.30078125
-32.71484375,-96.6796875,-16.11328125,-304.19921875
-42.48046875,41.015625,46.38671875,-252.44140625
-182.12890625,71.2890625,70.3125,-128.90625
-238.28125,-38.0859375,-35.64453125,-89.35546875
46.38671875,-166.50390625,-155.76171875,-81.54296875
496.09375,-189.94140625,-121.58203125,-137.6953125
203.125,53.7109375,-63.96484375,-375.0
-175.78125,6.34765625,79.1015625,-382.8125
-82.51953125,-184.5703125,6.34765625,12.20703125
-98.14453125,-151.85546875,-65.4296875,121.09375
76.171875,-150.87890625,3.41796875,-90.8203125
379.39453125,-130.859375,-65.4296875,-141.11328125
-20.01953125,23.92578125,-116.2109375,-259.765625
-66.89453125,-88.8671875,-113.76953125,-233.3984375
69.3359375,-198.73046875,115.234375,-188.4765625
-14.6484375,-104.4921875,49.31640625,-324.21875
169.921875,-25.87890625,-231.93359375,-175.29296875
137.6953125,-61.5234375,-52.734375,-53.22265625
93.26171875,-189.453125,-36.1328125,118.65234375
143.5546875,-182.6171875,-110.83984375,79.1015625
265.13671875,-124.51171875,-97.16796875,-37.109375
151.3671875,-3.41796875,11.23046875,-153.3203125
114.2578125,-83.49609375,90.33203125,-164.0625
256.34765625,-123.046875,-81.54296875,210.9375
45.41015625,-72.75390625,-118.1640625,263.671875
94.7265625,-126.46484375,-92.28515625,176.26953125
303.7109375,-98.6328125,-65.91796875,101.5625
278.80859375,-71.77734375,-35.64453125,-66.40625
70.3125,-70.3125,-32.71484375,-50.78125
-112.79296875,-74.70703125,-19.53125,65.91796875
-75.68359375,-85.44921875,-6.34765625,90.8203125
147.94921875,-85.9375,-11.71875,12.20703125
251.46484375,-71.2890625,-14.6484375,-24.90234375
77.63671875,-76.171875,-7.8125,76.171875
-142.08984375,-74.70703125,-3.90625,86.42578125
-150.87890625,-54.19921875,-3.41796875,7.32421875
65.4296875,-38.0859375,-16.11328125,-81.54296875
194.3359375,-37.59765625,-19.04296875,-153.80859375
48.828125,-47.8515625,-5.37109375,-38.0859375
-175.78125,-64.94140625,-4.8828125,83.49609375
-223.6328125,-74.21875,-5.859375,87.890625
-45.41015625,-62.98828125,0.0,116.69921875
92.7734375,-52.24609375,0.0,47.8515625
5.37109375,-52.734375,-6.34765625,-141.6015625
-173.33984375,-55.17578125,-15.13671875,-110.3515625
-247.0703125,-52.734375,-10.7421875,-25.87890625
-114.2578125,-53.7109375,-8.7890625,-105.95703125
60.546875,-49.31640625,-9.27734375,-130.37109375
18.06640625,-51.26953125,2.44140625,20.01953125
-162.59765625,-52.734375,3.41796875,102.5390625
-201.171875,-48.33984375,-17.578125,-31.73828125
-52.734375,-48.33984375,-32.2265625,-216.796875
98.14453125,-41.015625,-18.06640625,-239.2578125
132.8125,-35.64453125,-4.8828125,-150.390625
-63.4765625,-36.1328125,-2.9296875,-89.35546875
-299.8046875,-49.8046875,3.90625,-46.875
-249.51171875,-60.05859375,-2.9296875,-72.265625
-110.83984375,-53.7109375,-10.25390625,-179.6875
-62.01171875,-40.52734375,-16.6015625,-240.234375
-251.46484375,-34.1796875,-21.484375,-205.56640625
-515.13671875,-34.66796875,0.9765625,-74.21875
-479.98046875,-37.59765625,15.13671875,34.66796875
-295.8984375,-22.4609375,-8.7890625,-310.546875
-185.546875,-16.6015625,-33.69140625,-483.88671875
-285.15625,-27.34375,-33.203125,-240.72265625
-551.7578125,-27.34375,-18.5546875,-156.25
-597.16796875,-30.2734375,-21.484375,-174.8046875
-378.41796875,-32.71484375,-28.80859375,-170.41015625
-267.578125,-39.55078125,-10.25390625,-105.95703125
-345.703125,-37.59765625,-1.953125,-25.87890625
-582.51953125,-33.203125,-9.765625,17.578125
-692.3828125,-40.52734375,-11.71875,22.4609375
-543.45703125,-47.36328125,-16.6015625,-37.109375
-359.86328125,-52.24609375,-14.6484375,4.8828125
-351.07421875,-40.52734375,-17.578125,-13.18359375
-570.80078125,-34.1796875,-31.73828125,-114.2578125
-673.828125,-50.78125,-30.2734375,-69.3359375
-441.40625,-50.78125,-24.4140625,-11.71875
-227.5390625,-47.8515625,-22.94921875,125.48828125
-287.59765625,-48.33984375,-24.4140625,205.56640625
-449.21875,-42.96875,-23.4375,120.60546875
-541.9921875,-43.9453125,-31.25,-40.0390625
-429.6875,-47.36328125,-34.66796875,-86.9140625
-217.28515625,-60.05859375,-13.18359375,28.3203125
-176.7578125,-66.40625,1.46484375,148.4375
-329.1015625,-62.01171875,-6.34765625,156.25
-497.55859375,-67.3828125,-12.6953125,130.37109375
-385.25390625,-65.91796875,-20.99609375,116.69921875
-124.51171875,-54.19921875,-33.203125,-46.875
-50.78125,-60.546875,-41.50390625,-141.11328125
-242.1875,-80.56640625,-34.66796875,-68.359375
-402.83203125,-81.0546875,-29.78515625,-107.91015625
-285.64453125,-70.80078125,-41.015625,-208.49609375
-46.875,-76.66015625,-42.96875,-179.19921875
73.73046875,-82.51953125,-33.203125,-16.11328125
-71.2890625,-85.9375,-17.08984375,96.6796875
-296.875,-94.23828125,-15.625,-62.5
-281.25,-89.84375,-26.85546875,-244.62890625
-22.4609375,-86.9140625,-22.94921875,-171.38671875
165.0390625,-95.703125,-19.04296875,-71.2890625
58.10546875,-95.703125,-24.90234375,-55.6640625
-170.41015625,-85.44921875,-33.203125,-53.22265625
-219.23828125,-79.1015625,-32.71484375,-130.37109375
-17.578125,-83.49609375,-45.41015625,-209.9609375
163.0859375,-74.70703125,-57.6171875,-188.4765625
128.90625,-87.40234375,-54.19921875,-101.07421875
-87.40234375,-90.33203125,-51.26953125,-93.26171875
-143.5546875,-78.125,-51.26953125,-147.94921875
109.375,-97.16796875,-68.84765625,-214.84375
298.33984375,-60.05859375,-83.49609375,-209.9609375
245.1171875,-54.6875,-67.3828125,-81.54296875
34.66796875,-76.171875,-60.546875,-12.6953125
-90.8203125,-86.9140625,-61.03515625,-66.40625
26.3671875,-106.93359375,-62.01171875,-199.70703125
210.44921875,-96.6796875,-60.05859375,-156.73828125
182.12890625,-73.2421875,-44.921875,6.34765625
36.62109375,-49.8046875,-34.1796875,-1.953125
-54.6875,-51.26953125,-38.57421875,-155.2734375
52.734375,-61.5234375,-52.734375,-320.80078125
249.0234375,-44.43359375,-55.17578125,-248.046875
204.58984375,-19.53125,-33.203125,-63.4765625
-20.5078125,-42.48046875,-35.15625,-95.21484375
-125.0,-97.65625,-59.5703125,-211.42578125
46.38671875,-77.1484375,-44.921875,-252.9296875
174.8046875,4.39453125,-43.9453125,-233.3984375
106.4453125,-27.83203125,-45.41015625,-169.43359375
153.3203125,-153.80859375,-49.31640625,-8.7890625
-21.484375,-91.30859375,-69.3359375,-2.44140625
-131.8359375,-30.2734375,-44.43359375,-123.046875
245.60546875,-121.58203125,-51.7578125,69.3359375
345.703125,-104.98046875,-107.421875,290.0390625
-54.19921875,-9.27734375,-23.4375,-10.25390625
-316.40625,68.359375,-21.97265625,-429.19921875
-37.59765625,0.9765625,-56.640625,-411.62109375
448.2421875,-194.3359375,-67.87109375,-118.1640625
430.17578125,-24.90234375,-156.73828125,87.40234375
105.95703125,27.83203125,-99.12109375,26.85546875
-243.65234375,-5.859375,31.25,-308.59375
-168.9453125,32.71484375,45.8984375,-297.36328125
421.38671875,-190.91796875,-137.6953125,186.5234375
491.2109375,-175.29296875,-126.46484375,111.328125
237.79296875,-72.265625,-93.26171875,-69.82421875
10.7421875,-79.1015625,-86.9140625,-23.92578125
-122.0703125,-22.94921875,-65.91796875,-141.6015625
-83.49609375,44.921875,-4.8828125,-250.9765625
183.10546875,-70.3125,5.37109375,-77.1484375
125.9765625,-2.9296875,-64.94140625,-121.58203125
49.8046875,-78.125,-58.59375,-255.37109375
0.9765625,-110.3515625,-41.9921875,-278.80859375
188.96484375,-83.984375,-31.25,-167.96875
495.60546875,-182.12890625,-84.47265625,94.23828125
187.01171875,-129.39453125,-87.40234375,37.59765625
-242.67578125,-47.36328125,-24.4140625,-206.0546875
-349.12109375,18.5546875,-28.3203125,-354.00390625
-69.3359375,46.38671875,-61.5234375,-333.0078125
164.0625,-2.44140625,68.359375,-309.5703125
34.1796875,-47.8515625,87.40234375,-153.3203125
-2.9296875,-159.1796875,-79.58984375,143.06640625
13.671875,-133.7890625,-118.1640625,22.4609375
163.57421875,-82.03125,-83.984375,-235.3515625
147.94921875,-89.84375,-14.16015625,-315.4296875
-208.49609375,3.41796875,96.19140625,-423.828125
-389.6484375,37.109375,20.99609375,-396.484375
-13.18359375,-128.41796875,-118.1640625,-193.359375
364.2578125,-182.6171875,-133.30078125,-101.07421875
302.24609375,-75.1953125,-91.30859375,-146.484375
-5.859375,-70.3125,58.59375,-294.43359375
-398.4375,-25.390625,43.9453125,-430.6640625
-393.06640625,-102.05078125,-43.9453125,-271.484375
-151.85546875,26.3671875,-135.25390625,-141.11328125
61.5234375,-32.71484375,-50.78125,-188.96484375
376.953125,-322.265625,-24.90234375,24.4140625
374.0234375,-176.26953125,-227.05078125,289.0625
74.70703125,-99.609375,-54.6875,28.3203125
-111.328125,-20.5078125,30.2734375,-555.17578125
217.28515625,-8.30078125,-177.24609375,-443.84765625
462.40234375,-99.12109375,-167.48046875,93.75
222.65625,-153.3203125,-61.5234375,349.12109375
-132.32421875,-71.2890625,-36.62109375,-3.41796875
-112.3046875,16.6015625,-93.75,-488.76953125
259.27734375,-84.47265625,-78.125,-181.640625
321.2890625,-133.7890625,-9.27734375,270.99609375
97.65625,-96.19140625,-6.34765625,279.78515625
-67.87109375,-91.30859375,-9.27734375,166.9921875
-15.625,-88.8671875,-18.06640625,94.7265625
169.43359375,-81.54296875,-16.6015625,66.89453125
198.2421875,-72.265625,-11.23046875,100.09765625
28.80859375,-70.80078125,-9.27734375,162.109375
-70.3125,-66.40625,-9.27734375,161.1328125
35.64453125,-55.17578125,-15.13671875,106.93359375
225.09765625,-48.33984375,-25.87890625,7.32421875
301.26953125,-50.78125,-14.6484375,80.078125
181.15234375,-51.26953125,-8.7890625,135.7421875
2.44140625,-51.7578125,-13.18359375,117.67578125
4.39453125,-50.78125,-6.8359375,124.51171875
146.484375,-39.55078125,-5.859375,63.4765625
164.55078125,-36.62109375,-10.25390625,34.66796875
33.203125,-36.62109375,-14.16015625,86.42578125
-97.65625,-35.15625,-15.13671875,200.68359375
-112.79296875,-41.015625,-7.8125,216.796875
16.11328125,-46.875,-3.41796875,99.12109375
76.171875,-49.31640625,-5.37109375,17.08984375
-80.078125,-48.828125,-8.30078125,5.37109375
-250.0,-46.875,-5.859375,29.78515625
-248.046875,-42.48046875,-7.32421875,-61.03515625
-85.44921875,-41.50390625,-7.32421875,-72.265625
22.94921875,-31.73828125,-3.90625,54.19921875
-27.83203125,-16.6015625,-10.25390625,127.9296875
-152.34375,-25.87890625,-22.4609375,-35.64453125
-186.03515625,-32.2265625,-31.73828125,-139.6484375
-45.41015625,-22.94921875,-21.484375,-15.13671875
16.6015625,-27.83203125,-14.16015625,-23.92578125
-108.88671875,-30.76171875,-16.11328125,-78.125
-249.0234375,-27.83203125,-11.23046875,-43.45703125
-329.1015625,-16.6015625,-14.6484375,-79.58984375
-289.0625,-19.53125,-18.06640625,-219.7265625
-188.96484375,-23.4375,-11.71875,-185.05859375
-206.54296875,-13.671875,-7.32421875,-24.4140625
-394.53125,-18.06640625,-8.7890625,-62.01171875
-559.08203125,-24.90234375,-26.85546875,-232.421875
-497.55859375,-36.1328125,-34.66796875,-233.3984375
-414.55078125,-31.25,-29.296875,-139.16015625
-422.8515625,-22.4609375,-21.97265625,-73.73046875
-526.3671875,-35.64453125,-27.83203125,-101.07421875
-717.28515625,-31.73828125,-50.29296875,-262.20703125
-759.765625,-39.0625,-55.17578125,-336.9140625
-601.5625,-48.33984375,-66.89453125,-316.89453125
-576.171875,-51.7578125,-76.171875,-288.0859375
-716.30859375,-52.734375,-53.22265625,-238.76953125
-836.42578125,-37.109375,-45.41015625,-240.72265625
-856.4453125,-62.5,-62.98828125,-312.98828125
-661.1328125,-87.40234375,-73.73046875,-347.65625
-538.57421875,-65.91796875,-85.9375,-316.40625
-655.76171875,-39.0625,-93.26171875,-244.140625
-781.25,-52.24609375,-85.9375,-264.16015625
-806.640625,-65.91796875,-99.12109375,-459.47265625
-662.109375,-46.875,-117.1875,-505.859375
-518.5546875,-36.1328125,-118.1640625,-343.26171875
-589.84375,-31.73828125,-121.58203125,-355.95703125
-771.484375,-42.48046875,-119.62890625,-512.20703125
-823.73046875,-47.36328125,-115.72265625,-538.0859375
-645.5078125,-39.0625,-114.74609375,-488.76953125
-424.31640625,-39.55078125,-118.65234375,-427.734375
-469.7265625,-52.24609375,-134.27734375,-397.4609375
-669.43359375,-65.91796875,-127.9296875,-369.140625
-697.75390625,-49.31640625,-119.140625,-368.1640625
-505.37109375,-16.6015625,-116.69921875,-402.34375
-287.109375,-6.8359375,-107.91015625,-380.859375
-224.609375,5.37109375,-102.05078125,-284.66796875
-369.62890625,5.859375,-98.14453125,-202.63671875
-534.1796875,-17.578125,-105.46875,-271.484375
-454.1015625,4.39453125,-105.95703125,-287.59765625
-197.75390625,26.3671875,-107.91015625,-160.15625
-91.30859375,-12.20703125,-111.328125,-117.67578125
-270.5078125,6.8359375,-123.53515625,-306.15234375
-442.3828125,13.671875,-122.0703125,-399.4140625
-365.72265625,-11.23046875,-118.1640625,-347.65625
-132.32421875,-0.48828125,-113.28125,-298.828125
-42.96875,28.80859375,-105.46875,-190.91796875
-146.97265625,13.671875,-111.328125,-160.15625
-204.1015625,-58.10546875,-95.21484375,-164.0625
-166.9921875,-52.24609375,-73.2421875,-195.3125
21.484375,-17.578125,-86.9140625,-205.078125
258.7890625,-33.69140625,-102.5390625,-109.375
163.0859375,-27.83203125,-13.18359375,-125.0
-38.0859375,3.90625,-24.4140625,-149.4140625
7.8125,-8.30078125,-193.84765625,-36.62109375
89.35546875,2.9296875,-140.625,-84.9609375
247.55859375,-35.15625,-54.19921875,-24.90234375
225.09765625,-38.0859375,-180.17578125,152.34375
9.27734375,-31.25,-173.828125,-18.5546875
57.6171875,-55.17578125,-97.16796875,-94.7265625
139.6484375,58.10546875,-139.6484375,-28.3203125
272.4609375,75.68359375,-170.41015625,-9.27734375
144.53125,53.7109375,-53.22265625,-108.3984375
-72.75390625,69.82421875,-8.30078125,-195.80078125
168.45703125,-131.8359375,-82.51953125,17.08984375
265.625,-38.0859375,-91.796875,-12.6953125
445.80078125,36.62109375,-146.97265625,1.46484375
623.53515625,-70.80078125,-172.36328125,221.19140625
332.03125,-20.01953125,-129.39453125,140.625
281.73828125,-81.54296875,-117.67578125,81.54296875
337.40234375,-105.46875,-87.40234375,41.015625
446.2890625,-59.5703125,-80.56640625,73.2421875
661.1328125,-73.73046875,-84.47265625,180.6640625
477.5390625,-59.08203125,-65.91796875,109.86328125
294.43359375,-65.91796875,-67.87109375,66.40625
410.15625,-40.52734375,-95.703125,55.6640625
417.96875,86.42578125,-95.703125,-25.87890625
482.421875,0.9765625,-67.3828125,26.3671875
467.28515625,-54.6875,-25.87890625,72.75390625
-253.90625,143.06640625,112.3046875,-343.75
-152.34375,84.47265625,-6.34765625,-333.0078125
527.83203125,39.55078125,-152.83203125,61.03515625
782.2265625,-163.0859375,-102.5390625,216.30859375
728.515625,-232.421875,-46.875,135.25390625
366.2109375,-148.92578125,-5.37109375,21.97265625
-108.3984375,-42.48046875,58.10546875,-222.16796875
-5.37109375,31.25,-79.1015625,-177.24609375
229.00390625,58.10546875,-23.92578125,-185.546875
98.14453125,-113.76953125,9.765625,-177.734375
233.88671875,-290.0390625,-124.51171875,168.45703125
146.97265625,-145.01953125,-48.33984375,58.10546875
102.5390625,-65.4296875,-47.36328125,6.8359375
408.203125,-149.4140625,-146.97265625,99.609375
494.62890625,-173.828125,-113.76953125,141.11328125
204.58984375,-138.18359375,-122.55859375,-102.05078125
66.89453125,-148.92578125,-225.09765625,-298.828125
227.5390625,-195.3125,-126.953125,31.73828125
335.44921875,-177.734375,4.39453125,127.44140625
245.60546875,-194.3359375,19.04296875,-18.06640625
-124.51171875,-98.6328125,24.4140625,-24.90234375
-482.421875,15.625,20.5078125,-137.6953125
-54.19921875,-161.62109375,-108.3984375,86.42578125
355.95703125,-228.02734375,-146.484375,347.65625
358.3984375,-215.33203125,-125.0,381.34765625
202.1484375,-243.1640625,-61.5234375,279.78515625
-18.5546875,-214.84375,-38.0859375,115.234375
26.3671875,-196.2890625,-27.83203125,109.375
236.328125,-173.828125,-24.4140625,144.04296875
223.14453125,-165.52734375,-31.73828125,190.4296875
-46.875,-164.55078125,-32.2265625,192.3828125
-198.73046875,-158.69140625,-30.2734375,131.8359375
-100.09765625,-160.15625,-34.66796875,109.375
110.83984375,-160.64453125,-34.66796875,207.03125
205.56640625,-160.15625,-27.83203125,264.6484375
26.85546875,-160.15625,-28.3203125,204.1015625
-139.6484375,-160.64453125,-31.25,142.08984375
-62.98828125,-162.59765625,-33.69140625,128.41796875
132.32421875,-161.62109375,-34.1796875,165.0390625
270.99609375,-164.0625,-22.94921875,198.2421875
159.1796875,-165.52734375,-20.01953125,157.2265625
-70.80078125,-163.57421875,-28.3203125,86.9140625
-55.6640625,-155.76171875,-37.109375,73.73046875
205.56640625,-142.578125,-35.15625,145.5078125
375.48828125,-137.20703125,-29.296875,199.21875
250.9765625,-128.41796875,-37.59765625,148.4375
-3.90625,-118.1640625,-45.41015625,72.265625
-34.66796875,-114.74609375,-50.78125,31.25
192.87109375,-120.1171875,-52.734375,115.72265625
319.82421875,-105.95703125,-45.41015625,159.1796875
187.01171875,-53.7109375,-47.8515625,109.86328125
-62.5,-14.16015625,-57.6171875,39.55078125
-158.203125,0.0,-50.29296875,-7.8125
17.578125,18.06640625,-45.8984375,6.8359375
210.44921875,28.3203125,-43.9453125,58.59375
90.8203125,27.83203125,-31.25,74.70703125
-188.4765625,20.5078125,-27.34375,44.43359375
-319.3359375,5.37109375,-32.2265625,-38.0859375
-229.00390625,13.18359375,-30.76171875,-68.84765625
-34.1796875,24.4140625,-35.15625,-27.83203125
-80.56640625,16.11328125,-41.9921875,27.83203125
-369.62890625,2.9296875,-33.69140625,-59.5703125
-507.8125,6.8359375,-31.73828125,-127.44140625
-391.11328125,7.32421875,-42.96875,-83.49609375
-187.5,-1.46484375,-44.43359375,-91.796875
-209.9609375,-0.9765625,-42.48046875,-106.93359375
-502.9296875,-3.41796875,-48.33984375,-133.30078125
-672.8515625,-12.6953125,-41.9921875,-156.73828125
-527.83203125,-18.06640625,-41.9921875,-178.7109375
-310.546875,-12.6953125,-42.48046875,-128.90625
-312.01171875,-15.625,-32.71484375,-68.359375
-529.296875,-21.97265625,-41.50390625,-77.1484375
-749.0234375,-36.1328125,-55.17578125,-200.68359375
-632.32421875,-38.0859375,-53.7109375,-235.83984375
-321.77734375,-28.80859375,-40.52734375,-58.59375
-247.0703125,-18.5546875,-40.52734375,64.453125
-494.62890625,-6.34765625,-46.875,0.0
-731.93359375,17.578125,-51.7578125,-99.609375
-651.3671875,50.78125,-55.6640625,-126.953125
-301.26953125,72.265625,-68.84765625,-73.73046875
-79.1015625,81.0546875,-74.21875,-5.859375
-290.0390625,78.125,-77.1484375,-41.9921875
-567.3828125,70.3125,-87.40234375,-125.48828125
-563.4765625,66.40625,-92.28515625,-127.44140625
-258.30078125,69.82421875,-87.40234375,-47.36328125
-35.64453125,66.89453125,-77.63671875,46.38671875
-225.09765625,52.24609375,-93.26171875,-3.90625
-546.875,33.69140625,-106.4453125,-99.609375
-525.87890625,30.76171875,-104.00390625,-123.53515625
-163.57421875,67.87109375,-110.3515625,-49.8046875
76.66015625,52.24609375,-97.65625,30.2734375
-75.1953125,0.0,-85.44921875,-5.859375
-385.7421875,-5.37109375,-112.3046875,-62.5
-417.96875,-9.27734375,-126.46484375,-93.26171875
-156.73828125,27.83203125,-115.234375,-88.8671875
81.0546875,32.71484375,-111.81640625,41.50390625
8.7890625,-6.8359375,-115.234375,178.7109375
-254.39453125,-15.13671875,-125.9765625,166.9921875
-339.84375,-32.2265625,-143.5546875,111.81640625
-86.42578125,-38.57421875,-108.3984375,113.28125
226.07421875,-22.94921875,-104.98046875,187.01171875
199.21875,-20.5078125,-144.04296875,212.40234375
-114.2578125,-37.59765625,-109.375,112.79296875
-264.6484375,-24.90234375,-88.37890625,6.8359375
-22.94921875,-21.484375,-62.5,-46.875
318.359375,-54.19921875,-125.0,66.40625
374.51171875,-92.7734375,-164.55078125,161.1328125
10.25390625,-39.55078125,-128.41796875,22.94921875
-226.5625,-16.11328125,-183.59375,-91.796875
49.8046875,-58.10546875,-199.70703125,-44.921875
313.4765625,-40.0390625,-153.80859375,-14.16015625
314.94140625,-63.96484375,-167.48046875,10.25390625
-109.86328125,7.8125,-111.81640625,-170.8984375
-322.75390625,-7.32421875,-57.12890625,-348.6328125
16.11328125,-87.40234375,-143.06640625,-206.0546875
245.60546875,-45.8984375,-127.44140625,-143.06640625
323.73046875,-95.21484375,-107.421875,-128.41796875
261.71875,-153.3203125,-152.83203125,-79.1015625
113.28125,-157.71484375,-144.53125,-117.1875
129.8828125,-171.38671875,-96.6796875,-109.86328125
320.80078125,-143.5546875,-54.6875,-19.53125
418.9453125,-89.84375,-121.09375,-5.859375
148.92578125,-43.45703125,-156.25,-95.703125
-131.34765625,-106.93359375,-87.890625,-177.24609375
-317.87109375,-82.03125,119.140625,-389.16015625
77.63671875,-54.6875,-39.0625,-218.26171875
647.94921875,-153.80859375,-243.65234375,237.3046875
500.9765625,-187.01171875,-173.33984375,219.23828125
34.66796875,-131.8359375,-98.6328125,-67.87109375
-379.8828125,-32.71484375,15.13671875,-301.26953125
185.05859375,-171.38671875,-130.859375,-0.48828125
484.375,-59.08203125,-173.828125,170.8984375
-366.2109375,48.828125,31.73828125,-277.83203125
-184.5703125,-263.18359375,-90.8203125,-44.921875
72.75390625,-164.55078125,-248.53515625,265.13671875
-215.8203125,3.41796875,-68.359375,-148.92578125
285.15625,-117.1875,-75.1953125,-87.40234375
369.62890625,-174.8046875,-192.87109375,217.28515625
-204.58984375,-163.0859375,-160.15625,119.140625
-517.578125,-97.16796875,-101.5625,-211.9140625
-567.87109375,-53.22265625,-56.640625,-556.15234375
231.93359375,-214.84375,-191.40625,-57.12890625
272.4609375,-146.97265625,-229.00390625,96.6796875
-413.57421875,-125.0,-133.7890625,-349.609375
-433.59375,-173.828125,-162.109375,-252.9296875
26.3671875,-166.9921875,-177.734375,12.6953125
381.8359375,-193.84765625,-78.125,-22.94921875
152.34375,-117.1875,-97.65625,-116.69921875
-351.07421875,-88.37890625,-128.90625,-256.34765625
-461.9140625,-135.25390625,-152.83203125,-361.81640625
-164.55078125,-140.625,-163.0859375,-221.6796875
101.07421875,-136.71875,-119.62890625,-93.75
58.59375,-121.09375,-103.515625,-99.12109375
-272.94921875,-115.72265625,-101.5625,-186.03515625
-492.67578125,-122.55859375,-103.02734375,-277.83203125
-310.05859375,-117.1875,-107.421875,-277.83203125
88.8671875,-99.12109375,-101.07421875,-148.92578125
135.25390625,-88.8671875,-97.65625,-95.703125
-140.13671875,-92.28515625,-100.5859375,-127.9296875
-320.80078125,-100.5859375,-114.2578125,-187.5
-221.6796875,-99.12109375,-118.1640625,-232.421875
143.5546875,-79.58984375,-106.4453125,-135.7421875
288.0859375,-71.77734375,-104.98046875,-18.06640625
50.78125,-74.70703125,-99.12109375,-64.94140625
-161.1328125,-86.42578125,-90.8203125,-227.05078125
-22.4609375,-93.75,-86.42578125,-233.88671875
289.0625,-96.19140625,-84.47265625,-168.9453125
416.50390625,-89.84375,-73.2421875,-111.328125
197.265625,-78.125,-71.77734375,-178.22265625
-43.9453125,-83.49609375,-75.1953125,-266.11328125
-1.46484375,-78.125,-72.75390625,-236.328125
270.99609375,-78.61328125,-74.21875,-161.62109375
441.40625,-84.47265625,-75.68359375,-82.03125
287.109375,-72.75390625,-77.1484375,-109.86328125
31.25,-71.77734375,-72.75390625,-208.0078125
38.0859375,-71.77734375,-86.42578125,-244.62890625
317.87109375,-58.10546875,-95.703125,-212.40234375
492.1875,-49.8046875,-88.8671875,-153.3203125
331.54296875,-53.22265625,-80.56640625,-154.78515625
65.91796875,-55.17578125,-83.984375,-227.05078125
25.390625,-58.10546875,-97.16796875,-271.484375
292.48046875,-67.3828125,-90.8203125,-251.46484375
546.875,-71.77734375,-80.56640625,-121.09375
317.3828125,-62.5,-88.37890625,-186.5234375
-13.18359375,-58.59375,-94.7265625,-296.875
-23.4375,-55.17578125,-95.703125,-272.94921875
161.1328125,-40.52734375,-92.28515625,-311.03515625
395.5078125,-22.94921875,-93.75,-243.65234375
307.12890625,-22.4609375,-87.40234375,-166.9921875
-13.671875,-28.3203125,-83.49609375,-198.73046875
-117.67578125,-27.34375,-103.515625,-284.1796875
45.8984375,-31.73828125,-106.93359375,-337.890625
255.37109375,-36.62109375,-98.14453125,-342.7734375
257.8125,-27.83203125,-104.00390625,-369.140625
-34.1796875,-31.25,-117.67578125,-444.82421875
-249.0234375,-46.875,-123.046875,-500.48828125
-83.49609375,-45.41015625,-121.09375,-482.421875
246.09375,-38.57421875,-119.62890625,-373.046875
256.8359375,-36.1328125,-122.55859375,-305.6640625
-60.05859375,-36.62109375,-127.9296875,-367.1875
-236.328125,-51.7578125,-128.41796875,-424.31640625
-111.328125,-68.359375,-137.20703125,-412.109375
162.109375,-74.70703125,-138.671875,-322.265625
244.140625,-77.63671875,-133.7890625,-261.23046875
-20.5078125,-74.70703125,-141.11328125,-315.4296875
-253.41796875,-82.51953125,-151.85546875,-382.32421875
-120.60546875,-84.47265625,-149.90234375,-396.97265625
199.70703125,-80.56640625,-132.32421875,-291.015625
301.7578125,-86.9140625,-124.0234375,-219.7265625
48.828125,-88.8671875,-128.90625,-251.953125
-214.84375,-82.51953125,-139.16015625,-249.51171875
-148.4375,-65.91796875,-137.6953125,-249.51171875
160.15625,-63.4765625,-135.7421875,-252.44140625
324.70703125,-76.171875,-127.44140625,-133.7890625
139.16015625,-84.47265625,-121.09375,-96.6796875
-146.97265625,-78.61328125,-129.39453125,-215.8203125
-126.953125,-69.82421875,-126.46484375,-242.67578125
155.2734375,-80.56640625,-117.67578125,-164.0625
308.10546875,-78.61328125,-105.46875,-51.26953125
133.30078125,-82.51953125,-99.609375,-79.1015625
-209.47265625,-55.17578125,-110.83984375,-206.0546875
-264.6484375,-47.36328125,-107.91015625,-259.27734375
115.234375,-86.42578125,-107.421875,-185.05859375
369.62890625,-103.02734375,-75.1953125,-117.1875
162.109375,-56.640625,-55.6640625,-105.46875
-98.6328125,-53.7109375,-81.54296875,-151.3671875
-138.671875,-115.72265625,-56.15234375,-198.73046875
116.2109375,-79.1015625,-56.15234375,-151.85546875
405.2734375,-73.73046875,-142.08984375,-69.82421875
284.66796875,-85.9375,-165.0390625,-28.3203125
-44.43359375,-80.078125,-166.015625,-128.41796875
-0.48828125,-110.83984375,-191.89453125,-116.69921875
174.8046875,-95.703125,-170.8984375,-38.0859375
292.96875,-79.58984375,-141.11328125,-14.16015625
318.359375,-83.49609375,-102.05078125,-21.97265625
-103.02734375,13.18359375,-106.93359375,-232.421875
-306.640625,40.0390625,-180.17578125,-262.6953125
-79.58984375,-114.74609375,-36.1328125,-195.3125
363.76953125,-171.38671875,-82.03125,-117.67578125
611.81640625,-123.046875,-215.8203125,21.484375
444.3359375,-145.99609375,-199.21875,80.078125
199.70703125,-137.20703125,-187.5,45.41015625
175.29296875,-58.59375,-132.8125,-10.25390625
479.98046875,-120.1171875,-104.00390625,21.97265625
243.1640625,-33.69140625,-67.87109375,-115.234375
-172.8515625,25.87890625,-1.46484375,-133.30078125
-182.12890625,-100.5859375,104.4921875,-138.18359375
-112.79296875,-92.28515625,-54.19921875,-135.25390625
508.7890625,-192.3828125,-286.1328125,328.125
773.92578125,-222.16796875,-190.91796875,505.37109375
372.55859375,-104.98046875,-151.85546875,299.8046875
23.4375,-118.65234375,-78.125,89.35546875
-148.4375,-94.23828125,-26.3671875,-40.0390625
-32.2265625,37.109375,-3.41796875,-67.87109375
160.64453125,-79.1015625,83.984375,-184.5703125
133.7890625,-154.78515625,-101.07421875,-193.359375
253.90625,-132.32421875,-279.296875,88.8671875
87.890625,-135.7421875,-103.515625,-54.19921875
1.46484375,-63.96484375,-46.38671875,-207.51953125
137.20703125,-68.84765625,-7.8125,-217.7734375
325.68359375,-224.609375,-119.140625,-87.890625
217.28515625,-204.1015625,-161.62109375,10.7421875
64.94140625,-175.29296875,-74.70703125,-20.01953125
375.9765625,-208.0078125,-162.109375,135.7421875
458.0078125,-204.58984375,-141.6015625,60.05859375
203.61328125,-187.5,-82.51953125,-141.11328125
-231.93359375,-156.73828125,10.25390625,-398.4375
-517.08984375,-17.08984375,-25.87890625,-536.1328125
-537.109375,130.859375,-127.44140625,-595.21484375
184.08203125,-174.8046875,-81.0546875,-207.03125
485.3515625,-323.73046875,-77.1484375,365.72265625
-157.71484375,-203.61328125,-56.640625,175.78125
-290.0390625,-181.15234375,-66.40625,-17.578125
-4.39453125,-117.67578125,-148.92578125,106.4453125
437.01171875,-169.43359375,-140.13671875,304.6875
474.12109375,-211.9140625,-76.171875,355.95703125
82.03125,-163.57421875,-54.19921875,255.37109375
-118.65234375,-146.97265625,-46.38671875,177.734375
7.8125,-143.5546875,-45.41015625,169.43359375
224.12109375,-134.765625,-45.41015625,217.7734375
195.80078125,-131.8359375,-39.55078125,316.89453125
-16.11328125,-139.6484375,-38.0859375,334.9609375
-157.71484375,-138.671875,-41.015625,246.09375
-88.37890625,-130.859375,-36.1328125,228.02734375
176.26953125,-125.0,-31.73828125,282.2265625
233.88671875,-125.0,-27.83203125,320.3125
5.859375,-114.2578125,-30.2734375,258.7890625
-114.74609375,-99.12109375,-34.66796875,171.38671875
-19.04296875,-94.7265625,-32.71484375,193.84765625
244.140625,-88.8671875,-31.25,282.2265625
360.83984375,-85.9375,-34.1796875,309.08203125
159.66796875,-92.28515625,-30.76171875,267.08984375
-43.45703125,-89.84375,-23.92578125,210.9375
-0.48828125,-82.51953125,-26.3671875,168.9453125
232.91015625,-81.54296875,-32.2265625,233.3984375
313.96484375,-77.63671875,-34.66796875,322.75390625
127.9296875,-72.75390625,-32.71484375,292.48046875
-54.19921875,-73.73046875,-34.1796875,237.3046875
-28.80859375,-73.2421875,-32.2265625,212.890625
224.12109375,-63.96484375,-32.71484375,280.2734375
414.0625,-71.2890625,-33.69140625,368.1640625
228.515625,-85.44921875,-36.1328125,325.68359375
4.39453125,-83.984375,-47.36328125,229.4921875
20.01953125,-69.82421875,-54.6875,216.796875
191.40625,-45.8984375,-42.48046875,288.0859375
299.31640625,-39.55078125,-26.3671875,280.2734375
167.48046875,-37.59765625,-24.4140625,263.18359375
-77.1484375,-33.203125,-28.80859375,239.2578125
-150.87890625,-49.31640625,-28.80859375,173.33984375
22.94921875,-51.26953125,-32.2265625,145.99609375
232.421875,-38.57421875,-38.0859375,210.44921875
127.44140625,-39.0625,-34.66796875,256.34765625
-171.38671875,-47.36328125,-34.66796875,178.22265625
-212.890625,-48.33984375,-39.0625,104.4921875
-9.27734375,-26.3671875,-46.875,120.1171875
143.5546875,-18.5546875,-51.7578125,189.94140625
43.9453125,-23.4375,-46.38671875,223.14453125
-217.7734375,-20.5078125,-58.59375,95.703125
-260.25390625,-22.94921875,-68.359375,49.8046875
-81.54296875,-27.34375,-49.31640625,43.45703125
117.67578125,-27.34375,-41.9921875,57.12890625
103.515625,-16.11328125,-56.640625,99.12109375
-177.24609375,-11.23046875,-56.640625,62.98828125
-294.921875,-4.8828125,-59.08203125,0.48828125
-83.0078125,8.30078125,-66.40625,31.73828125
187.5,2.44140625,-49.31640625,204.1015625
167.96875,0.0,-45.8984375,337.890625
-89.84375,-3.41796875,-48.828125,386.71875
-238.76953125,-11.71875,-47.36328125,349.12109375
-126.953125,-9.765625,-48.33984375,237.79296875
128.41796875,-14.16015625,-39.0625,233.88671875
216.30859375,-11.23046875,-40.52734375,256.8359375
3.41796875,-4.39453125,-41.50390625,207.03125
-216.796875,-3.41796875,-45.8984375,147.4609375
-103.515625,-0.9765625,-58.10546875,82.51953125
203.61328125,-1.953125,-55.17578125,122.0703125
275.390625,-4.8828125,-46.38671875,172.36328125
28.80859375,1.46484375,-45.41015625,117.1875
-169.43359375,-4.8828125,-46.38671875,38.57421875
-63.96484375,-15.625,-50.29296875,6.8359375
196.77734375,-12.20703125,-46.38671875,52.734375
269.53125,29.296875,-41.50390625,78.125
104.98046875,40.0390625,-44.43359375,33.203125
-42.48046875,-29.78515625,-31.25,20.99609375
-44.921875,-66.40625,0.0,-21.484375
185.546875,-14.16015625,-14.6484375,-30.2734375
324.70703125,35.15625,-76.66015625,34.1796875
126.46484375,-22.94921875,-35.64453125,42.48046875
-91.796875,-62.01171875,15.625,9.27734375
-73.2421875,-62.5,-47.36328125,-69.82421875
152.83203125,-34.1796875,-46.875,-94.23828125
330.078125,-19.04296875,-50.78125,41.015625
299.31640625,-41.9921875,-123.046875,118.1640625
-29.78515625,-27.34375,-52.734375,5.37109375
-246.58203125,28.80859375,15.13671875,-143.5546875
67.3828125,7.32421875,-73.2421875,-1.953125
288.57421875,-7.32421875,-95.21484375,133.30078125
126.953125,44.921875,-48.33984375,29.296875
-66.89453125,-27.83203125,-64.94140625,15.13671875
-154.78515625,-29.296875,-53.22265625,-65.91796875
36.1328125,-43.9453125,5.859375,-100.09765625
443.359375,-125.0,-74.21875,134.27734375
260.7421875,-40.52734375,-124.51171875,116.69921875
47.36328125,-141.11328125,-63.96484375,-7.32421875
61.5234375,-138.18359375,-28.3203125,20.99609375
-342.7734375,89.84375,157.71484375,-297.8515625
-178.22265625,91.796875,49.8046875,-345.21484375
227.5390625,-40.52734375,-118.65234375,17.578125
173.828125,-99.609375,-91.796875,159.66796875
-114.74609375,-62.98828125,6.34765625,-57.12890625
-15.13671875,-185.05859375,25.390625,-137.20703125
627.44140625,-173.828125,-196.2890625,202.1484375
30.2734375,85.44921875,-82.03125,-208.49609375
-638.671875,50.29296875,126.953125,-552.24609375
-358.88671875,-57.12890625,6.34765625,-211.42578125
125.9765625,-214.84375,-135.7421875,77.63671875
480.46875,-245.1171875,-26.85546875,116.69921875
9.27734375,-84.47265625,-10.7421875,-348.6328125
-211.42578125,-62.01171875,-296.875,-194.82421875
29.296875,-153.3203125,-249.51171875,103.515625
-62.01171875,-194.3359375,6.8359375,-59.5703125
-244.62890625,-73.2421875,-7.8125,-156.73828125
-55.17578125,-106.4453125,-107.421875,56.640625
35.64453125,-166.9921875,-94.23828125,376.46484375
-484.375,-130.859375,48.33984375,-47.8515625
-550.29296875,-115.234375,26.3671875,-459.47265625
46.875,-82.51953125,-180.17578125,-76.66015625
28.3203125,19.53125,-82.03125,62.98828125
-178.22265625,-5.37109375,-38.0859375,-0.9765625
-188.96484375,-106.4453125,-113.76953125,135.25390625
-173.33984375,-127.44140625,-94.7265625,136.71875
6.34765625,-111.81640625,-48.33984375,132.32421875
126.953125,-87.40234375,-41.9921875,134.765625
56.640625,-86.9140625,-36.1328125,63.4765625
-141.6015625,-73.2421875,-23.92578125,22.94921875
-141.6015625,-60.05859375,-29.296875,2.9296875
75.1953125,-51.7578125,-34.66796875,1.46484375
200.68359375,-56.15234375,-39.0625,56.640625
89.84375,-58.59375,-35.15625,58.59375
-84.9609375,-49.31640625,-21.484375,41.9921875
-139.6484375,-45.41015625,-17.08984375,28.80859375
57.12890625,-40.52734375,-20.99609375,53.22265625
275.390625,-35.15625,-17.578125,120.60546875
189.453125,-40.0390625,-15.13671875,157.71484375
-41.50390625,-43.45703125,-16.11328125,116.2109375
-104.00390625,-28.3203125,-17.578125,120.1171875
50.29296875,-20.5078125,-17.08984375,222.16796875
219.7265625,-21.484375,-13.18359375,203.125
219.7265625,-16.11328125,-3.90625,193.84765625
57.12890625,-24.4140625,3.41796875,190.4296875
-70.80078125,-42.96875,-2.9296875,29.78515625
119.140625,-35.64453125,-15.625,40.0390625
411.62109375,-24.4140625,-22.4609375,196.2890625
437.01171875,-24.4140625,-22.4609375,224.609375
219.7265625,-26.3671875,-12.6953125,144.53125
38.0859375,-30.76171875,-3.41796875,106.93359375
144.04296875,-26.85546875,-5.859375,162.59765625
411.62109375,-25.87890625,-10.25390625,200.1953125
426.7578125,-30.76171875,-5.37109375,264.16015625
169.921875,-28.80859375,-3.90625,255.37109375
4.8828125,-27.83203125,-3.41796875,200.68359375
45.41015625,-17.578125,0.0,156.25
198.73046875,-6.34765625,-0.48828125,158.69140625
238.76953125,-15.13671875,-3.90625,227.05078125
60.05859375,-19.53125,-6.34765625,248.046875
-137.6953125,-10.25390625,-3.90625,183.59375
-126.953125,-2.9296875,-3.90625,165.0390625
59.5703125,1.46484375,-8.7890625,210.44921875
157.71484375,-4.39453125,-12.20703125,267.08984375
15.625,0.48828125,-20.01953125,324.21875
-211.42578125,7.32421875,-27.83203125,275.87890625
-231.4453125,5.37109375,-20.01953125,205.56640625
-17.578125,2.44140625,-15.625,242.1875
119.62890625,-4.39453125,-18.06640625,296.875
16.11328125,-5.37109375,-12.20703125,345.703125
-219.23828125,-6.8359375,-11.71875,301.7578125
-275.390625,-7.32421875,-25.87890625,238.76953125
-41.50390625,-4.39453125,-22.94921875,278.80859375
167.96875,-1.953125,-13.671875,413.57421875
4.39453125,-7.32421875,-13.671875,412.59765625
-259.765625,-12.6953125,-16.6015625,338.8671875
-325.1953125,-16.11328125,-21.484375,321.77734375
-150.390625,-3.90625,-31.73828125,327.63671875
97.65625,1.953125,-32.2265625,400.390625
-0.48828125,-8.7890625,-32.71484375,406.25
-270.01953125,-10.25390625,-34.66796875,340.8203125
-348.14453125,-3.41796875,-30.76171875,305.6640625
-171.38671875,0.48828125,-25.87890625,306.15234375
82.03125,0.9765625,-22.4609375,329.58984375
69.3359375,-7.8125,-21.97265625,340.33203125
-184.08203125,-8.30078125,-37.59765625,270.5078125
-343.75,-0.48828125,-48.33984375,199.70703125
-240.72265625,-8.7890625,-33.203125,185.546875
31.25,-10.25390625,-26.85546875,242.67578125
52.24609375,-9.765625,-29.296875,294.43359375
-151.85546875,-16.11328125,-20.99609375,310.546875
-296.38671875,-10.7421875,-28.80859375,227.5390625
-229.4921875,3.41796875,-41.9921875,121.09375
14.16015625,23.4375,-44.921875,163.0859375
90.33203125,4.39453125,-46.38671875,238.28125
-88.37890625,2.44140625,-35.64453125,187.98828125
-283.203125,-8.7890625,-17.08984375,72.265625
-200.1953125,-7.32421875,-19.04296875,61.5234375
67.87109375,17.578125,-20.5078125,135.7421875
105.46875,2.9296875,-9.27734375,145.01953125
-84.9609375,-21.97265625,0.9765625,85.44921875
-246.58203125,-26.85546875,43.45703125,23.92578125
-156.73828125,13.18359375,0.48828125,22.94921875
177.24609375,-27.34375,-32.71484375,70.3125
277.83203125,-23.92578125,-65.4296875,145.5078125
30.2734375,-20.01953125,-39.0625,135.25390625
-151.85546875,-44.921875,-38.57421875,80.078125
-3.90625,-33.203125,-80.56640625,73.2421875
278.80859375,-37.59765625,-21.484375,82.51953125
276.85546875,16.11328125,8.30078125,78.125
145.01953125,12.20703125,-37.109375,60.546875
4.39453125,-15.13671875,-26.85546875,40.0390625
-20.5078125,-28.3203125,-41.50390625,25.390625
299.31640625,-100.09765625,-67.87109375,89.84375
242.1875,108.3984375,-68.84765625,18.06640625
20.5078125,66.40625,-41.9921875,22.94921875
67.87109375,-107.91015625,-42.48046875,156.73828125
55.6640625,-27.83203125,-83.0078125,81.54296875
332.51953125,-89.35546875,-125.48828125,124.0234375
304.19921875,-6.34765625,34.1796875,64.94140625
46.875,-65.4296875,83.984375,-30.76171875
10.25390625,-64.453125,-123.046875,68.359375
-24.90234375,3.41796875,-114.74609375,55.6640625
-74.70703125,10.25390625,4.8828125,-112.3046875
-8.7890625,0.0,74.70703125,-218.26171875
222.16796875,-69.82421875,-111.328125,52.24609375
-82.51953125,-8.7890625,-139.6484375,100.5859375
-444.82421875,4.39453125,-127.44140625,2.9296875
-102.5390625,-150.87890625,-81.0546875,138.671875
170.41015625,-152.34375,16.11328125,55.6640625
-203.61328125,-45.41015625,44.43359375,-148.4375
-426.7578125,-93.26171875,11.23046875,-157.2265625
-431.15234375,-21.97265625,-202.63671875,-12.20703125
-723.6328125,23.92578125,-59.5703125,-433.10546875
-260.7421875,-136.71875,-127.9296875,-291.015625
189.94140625,-194.82421875,-180.6640625,243.1640625
-467.28515625,-83.984375,1.46484375,-7.8125
-729.98046875,-96.19140625,-46.38671875,-71.77734375
-311.5234375,-201.66015625,-43.9453125,185.05859375
-215.33203125,-127.9296875,-16.6015625,152.34375
-180.6640625,-59.5703125,-59.5703125,-15.625
-169.43359375,-71.77734375,-117.1875,280.2734375
-550.78125,-44.921875,44.43359375,31.73828125
-533.203125,-35.64453125,43.9453125,-306.15234375
39.55078125,-88.8671875,-115.234375,155.76171875
154.78515625,-71.2890625,-62.98828125,272.4609375
-74.21875,-73.73046875,-49.8046875,235.3515625
-160.15625,-62.01171875,-64.94140625,263.18359375
-102.5390625,-53.22265625,-13.18359375,192.3828125
74.21875,-52.734375,-13.18359375,211.9140625
165.52734375,-40.52734375,-12.20703125,261.23046875
-9.765625,-36.62109375,-8.30078125,216.796875
-151.85546875,-47.8515625,-6.8359375,131.34765625
-78.61328125,-38.57421875,-1.953125,110.83984375
119.62890625,-23.92578125,1.953125,146.97265625
224.12109375,-20.5078125,2.9296875,192.87109375
102.5390625,-19.53125,0.0,178.22265625
-63.96484375,-21.484375,0.0,108.88671875
-66.89453125,-21.484375,-2.9296875,64.453125
168.45703125,-13.671875,-3.41796875,92.7734375
376.46484375,-10.25390625,-1.953125,184.5703125
267.578125,-12.6953125,-5.859375,173.33984375
67.3828125,-11.23046875,-11.23046875,65.91796875
31.25,-12.6953125,-19.53125,15.13671875
184.08203125,-16.6015625,-12.6953125,69.3359375
357.421875,-14.6484375,-6.34765625,111.81640625
320.3125,-10.7421875,-15.13671875,113.28125
137.20703125,-18.06640625,-9.765625,97.16796875
42.48046875,-19.04296875,-4.8828125,13.18359375
124.0234375,-10.25390625,-9.27734375,-32.2265625
312.01171875,-1.953125,-5.37109375,32.71484375
289.0625,5.37109375,-3.41796875,89.35546875
60.05859375,10.25390625,-13.671875,20.99609375
-6.8359375,15.13671875,-16.6015625,-34.1796875
104.00390625,1.46484375,-13.18359375,-44.921875
211.42578125,-18.06640625,-4.8828125,-21.97265625
189.94140625,-7.32421875,0.48828125,39.0625
-14.16015625,-3.90625,-6.34765625,0.9765625
-145.01953125,-15.13671875,-3.41796875,-7.32421875
-29.296875,-14.16015625,0.48828125,-7.32421875
122.55859375,-10.25390625,-2.44140625,-32.2265625
90.8203125,-7.8125,-3.90625,-20.01953125
-72.75390625,-12.6953125,-2.44140625,-14.16015625
-166.9921875,-16.6015625,10.7421875,14.16015625
-107.91015625,-7.8125,4.8828125,12.6953125
25.87890625,-2.44140625,-3.90625,6.8359375
29.296875,7.8125,-1.953125,4.39453125
-119.62890625,-0.48828125,-5.859375,-35.64453125
-295.8984375,-5.37109375,-9.765625,-85.44921875
-234.86328125,2.44140625,-11.23046875,-93.75
-13.18359375,-9.27734375,-1.953125,-5.859375
10.25390625,-0.48828125,0.48828125,59.5703125
-189.453125,7.8125,-13.18359375,52.734375
-402.83203125,-12.20703125,-15.625,20.99609375
-364.2578125,-14.6484375,-9.765625,2.44140625
-206.0546875,-6.34765625,-8.7890625,31.73828125
-132.8125,-5.859375,-5.37109375,68.84765625
-232.91015625,-14.16015625,-4.39453125,106.4453125
-445.80078125,-15.13671875,-10.7421875,99.12109375
-489.2578125,-20.01953125,-12.6953125,29.296875
-300.78125,-36.62109375,-7.32421875,35.15625
-129.8828125,-41.015625,-7.8125,108.3984375
-212.40234375,-28.80859375,-12.20703125,132.32421875
-426.7578125,-11.23046875,-19.53125,41.015625
-471.6796875,-0.9765625,-23.92578125,-37.109375
-308.10546875,-12.20703125,-19.04296875,3.90625
-110.3515625,0.48828125,-25.87890625,51.7578125
-138.18359375,27.34375,-33.203125,58.10546875
-387.6953125,23.92578125,-31.25,17.08984375
-450.1953125,3.90625,-33.69140625,-40.52734375
-276.3671875,-10.25390625,-28.3203125,-63.4765625
-71.2890625,-7.8125,-15.625,2.44140625
-33.203125,-20.99609375,-22.94921875,87.40234375
-253.90625,-20.01953125,-24.90234375,16.6015625
-333.0078125,-39.55078125,-16.6015625,-62.98828125
-192.87109375,-38.57421875,-5.859375,-69.82421875
-13.671875,-10.25390625,-12.6953125,11.71875
89.84375,-8.7890625,-18.06640625,102.05078125
-51.7578125,-11.71875,0.9765625,-11.71875
-161.62109375,-17.578125,-33.203125,-97.65625
-9.27734375,-37.109375,-26.85546875,-26.85546875
337.890625,-38.0859375,-15.625,81.0546875
460.44921875,-30.76171875,6.8359375,137.6953125
195.80078125,-43.9453125,29.78515625,94.23828125
-100.5859375,-26.3671875,-25.390625,-21.484375
-138.18359375,28.80859375,-56.640625,-72.265625
102.5390625,-27.34375,-51.7578125,26.85546875
220.703125,-57.12890625,-46.875,98.14453125
57.6171875,58.10546875,-22.94921875,-2.44140625
-23.4375,1.953125,-31.73828125,-37.59765625
103.515625,-92.7734375,-52.24609375,-0.48828125
197.265625,29.78515625,-54.6875,-106.4453125
240.72265625,31.25,-19.04296875,-117.1875
225.5859375,-49.31640625,-36.62109375,64.94140625
54.19921875,-28.3203125,-24.90234375,-33.203125
-73.73046875,-62.5,83.984375,-187.5
32.2265625,-58.59375,16.11328125,-24.90234375
334.47265625,-69.82421875,-82.03125,82.51953125
423.828125,-56.640625,-79.58984375,9.27734375
153.3203125,-19.04296875,14.6484375,-72.265625
-118.1640625,31.25,32.71484375,-255.859375
59.5703125,-41.9921875,-16.6015625,-131.34765625
128.90625,-24.90234375,16.11328125,-72.75390625
-11.71875,-80.56640625,-55.6640625,-81.54296875
-50.78125,-61.03515625,-138.671875,37.59765625
-232.91015625,-41.015625,-15.13671875,-186.5234375
-80.078125,-136.71875,30.2734375,-187.01171875
16.6015625,-40.0390625,-6.8359375,-153.80859375
-182.6171875,17.08984375,31.73828125,-382.32421875
141.11328125,-168.45703125,-187.5,-125.48828125
344.23828125,-245.1171875,-258.7890625,279.296875
30.2734375,-115.234375,-50.29296875,-8.30078125
53.7109375,-96.19140625,-21.97265625,-265.13671875
-99.609375,-34.66796875,53.7109375,-242.67578125
-887.6953125,152.83203125,126.953125,-467.7734375
-737.3046875,94.23828125,-135.25390625,-107.421875
128.41796875,-182.6171875,-261.23046875,303.7109375
274.90234375,-238.28125,-61.03515625,230.95703125
37.59765625,-183.10546875,14.6484375,107.421875
-131.34765625,-120.60546875,-63.96484375,102.05078125
-306.15234375,-92.28515625,-46.875,38.0859375
-290.52734375,-83.49609375,-31.73828125,20.5078125
-135.7421875,-71.77734375,-41.015625,60.546875
-111.81640625,-68.84765625,-37.109375,63.4765625
-307.6171875,-68.359375,-29.78515625,1.46484375
-409.66796875,-68.359375,-26.3671875,-95.21484375
-330.078125,-62.98828125,-23.92578125,-98.6328125
-120.60546875,-59.5703125,-17.578125,-47.36328125
-30.76171875,-54.19921875,-14.16015625,-7.32421875
-252.44140625,-55.6640625,-17.08984375,-0.48828125
-390.625,-50.78125,-6.34765625,-44.921875
-288.57421875,-35.64453125,0.9765625,-99.609375
-67.3828125,-33.203125,-0.9765625,-20.01953125
53.22265625,-33.69140625,-1.46484375,33.203125
-55.6640625,-32.2265625,-10.7421875,-16.11328125
-213.8671875,-32.71484375,-13.18359375,-83.49609375
-143.06640625,-31.73828125,-3.90625,-127.9296875
111.328125,-28.80859375,-1.46484375,-75.68359375
215.33203125,-21.484375,1.953125,-20.01953125
108.3984375,-18.5546875,-5.37109375,-7.8125
-35.15625,-19.53125,-15.625,-28.80859375
-66.40625,-17.578125,-15.13671875,-63.4765625
93.75,-12.6953125,-20.01953125,-90.33203125
212.890625,-15.13671875,-22.94921875,-101.07421875
86.9140625,-18.5546875,-17.08984375,-81.54296875
-82.03125,-18.5546875,-21.484375,-125.9765625
-97.65625,-30.2734375,-24.90234375,-168.9453125
55.6640625,-36.62109375,-11.71875,-110.83984375
199.21875,-23.92578125,-14.6484375,-76.171875
134.765625,-14.16015625,-21.97265625,-98.6328125
-8.30078125,-16.6015625,-19.04296875,-149.4140625
-41.50390625,-14.6484375,-20.01953125,-208.49609375
96.6796875,-5.859375,-10.7421875,-205.56640625
293.9453125,-0.9765625,-8.7890625,-126.46484375
197.75390625,-5.37109375,-12.6953125,-113.76953125
-30.76171875,-13.671875,-14.16015625,-110.83984375
-119.140625,-10.7421875,-27.83203125,-197.265625
-52.24609375,-7.8125,-21.97265625,-248.53515625
129.8828125,-10.25390625,-11.23046875,-180.6640625
90.8203125,-5.37109375,-15.13671875,-145.99609375
-117.1875,2.9296875,-16.11328125,-178.22265625
-218.75,-2.9296875,-28.3203125,-215.33203125
-157.2265625,-8.7890625,-41.9921875,-253.90625
69.3359375,-5.37109375,-39.0625,-156.73828125
83.49609375,-9.765625,-26.85546875,-117.67578125
-142.578125,-18.06640625,-26.3671875,-236.81640625
-248.046875,-4.39453125,-34.1796875,-236.81640625
-171.875,0.9765625,-32.2265625,-198.2421875
18.5546875,-9.27734375,-34.1796875,-109.86328125
55.17578125,-13.18359375,-41.50390625,-125.9765625
-100.09765625,-14.16015625,-34.66796875,-196.2890625
-189.94140625,-9.27734375,-32.71484375,-184.5703125
-121.09375,-11.23046875,-38.57421875,-219.7265625
70.3125,-11.23046875,-30.76171875,-157.71484375
112.3046875,-17.578125,-24.90234375,-54.19921875
-65.4296875,-22.4609375,-30.76171875,-88.8671875
-216.796875,-21.97265625,-36.62109375,-174.8046875
-207.51953125,-21.97265625,-34.66796875,-194.82421875
-56.15234375,-17.578125,-26.3671875,-141.11328125
32.71484375,-17.578125,-24.4140625,-66.89453125
-85.9375,-25.87890625,-31.25,-89.35546875
-226.07421875,-38.0859375,-30.2734375,-146.97265625
-246.09375,-30.76171875,-20.99609375,-160.15625
-89.84375,-26.85546875,-20.01953125,-130.859375
49.31640625,-28.80859375,-20.99609375,-84.47265625
-67.87109375,-24.4140625,-21.484375,-75.68359375
-227.05078125,-19.53125,-26.3671875,-115.72265625
-248.53515625,-13.671875,-24.4140625,-158.69140625
-116.2109375,-5.37109375,-26.3671875,-153.80859375
25.390625,-2.9296875,-29.296875,-146.97265625
-43.45703125,-11.71875,-20.01953125,-102.5390625
-221.6796875,-17.08984375,-14.16015625,-171.38671875
-337.890625,6.8359375,-28.3203125,-324.21875
-221.6796875,11.23046875,-24.4140625,-328.125
-16.6015625,-13.671875,10.7421875,-265.13671875
-56.640625,-16.11328125,18.06640625,-224.12109375
-205.078125,-12.20703125,-38.57421875,-208.0078125
-297.36328125,-44.43359375,-6.34765625,-279.296875
-93.26171875,-61.5234375,-20.99609375,-282.2265625
172.8515625,14.6484375,-125.9765625,-151.3671875
32.71484375,-14.16015625,-19.53125,-159.66796875
-142.08984375,-27.34375,-17.08984375,-208.984375
-176.7578125,0.48828125,-14.16015625,-267.578125
-55.17578125,-53.22265625,-41.50390625,-260.25390625
128.41796875,-67.3828125,-41.015625,-133.30078125
12.6953125,18.5546875,-11.71875,-110.83984375
-190.4296875,53.7109375,-124.0234375,-106.93359375
-300.78125,-66.40625,-34.1796875,-174.31640625
-114.74609375,-106.93359375,-56.640625,-191.40625
268.5546875,-129.39453125,-110.83984375,-40.0390625
103.02734375,-51.26953125,-37.109375,-87.890625
-302.24609375,-1.953125,23.4375,-277.34375
-307.6171875,-96.19140625,4.8828125,-305.6640625
203.61328125,-177.24609375,-112.79296875,-71.2890625
357.421875,-67.3828125,-72.75390625,-31.25
35.64453125,-10.25390625,-24.90234375,-232.421875
-53.7109375,31.25,-50.78125,-275.87890625
-184.5703125,16.6015625,79.58984375,-351.07421875
-57.12890625,-152.83203125,51.7578125,-379.8828125
113.76953125,-110.83984375,-80.56640625,-251.953125
130.859375,-76.171875,-55.6640625,-133.30078125
79.58984375,-82.51953125,-5.37109375,-146.484375
-327.1484375,26.3671875,-42.96875,-337.890625
-431.15234375,3.41796875,-122.0703125,-378.41796875
-209.9609375,-41.9921875,-75.68359375,-320.80078125
156.25,-188.4765625,103.02734375,-259.27734375
291.9921875,-232.421875,26.3671875,-55.6640625
-484.375,70.80078125,-54.6875,-366.2109375
-312.01171875,-127.44140625,-201.66015625,-111.328125
154.78515625,-205.078125,-145.01953125,10.25390625
-178.22265625,-16.11328125,-20.99609375,-593.26171875
139.16015625,-181.640625,-156.73828125,-183.59375
253.41796875,-200.68359375,-168.9453125,274.90234375
-252.44140625,-116.2109375,89.84375,-289.0625
-211.9140625,-63.4765625,-19.53125,-296.38671875
-7.8125,-83.984375,-125.9765625,135.25390625
-219.23828125,-20.99609375,-21.484375,-108.88671875
-332.51953125,-32.71484375,-101.07421875,-104.4921875
-245.60546875,-126.953125,-79.1015625,115.234375
-117.1875,-114.74609375,-63.96484375,125.0
-76.171875,-92.28515625,-50.29296875,-29.296875
-132.32421875,-62.5,-38.0859375,-168.45703125
-220.21484375,-78.125,-51.26953125,-53.22265625
-214.35546875,-98.14453125,-74.70703125,98.14453125
-174.31640625,-82.51953125,-31.25,2.9296875
3.90625,-72.265625,-28.3203125,7.32421875
9.765625,-66.89453125,-28.80859375,58.59375
-197.75390625,-62.01171875,-25.390625,19.04296875
-262.20703125,-60.05859375,-17.578125,-52.24609375
-117.1875,-48.33984375,-21.484375,-83.984375
73.2421875,-38.0859375,-22.4609375,-57.6171875
112.3046875,-36.1328125,-15.13671875,3.41796875
-26.3671875,-44.43359375,-11.71875,32.71484375
-137.20703125,-58.10546875,-20.5078125,-95.21484375
-35.15625,-53.22265625,-23.92578125,-122.0703125
179.19921875,-39.0625,-17.08984375,-13.18359375
204.1015625,-37.59765625,-17.578125,6.8359375
35.64453125,-36.62109375,-20.01953125,-2.9296875
-35.64453125,-33.69140625,-20.5078125,11.23046875
26.85546875,-29.78515625,-28.3203125,-68.359375
201.171875,-25.390625,-16.11328125,-167.48046875
263.18359375,-31.25,1.46484375,-166.015625
138.18359375,-29.296875,-5.37109375,-51.7578125
-24.90234375,-20.99609375,-18.5546875,-57.6171875
-54.19921875,-22.4609375,-11.71875,-175.29296875
126.953125,-21.97265625,-7.32421875,-174.31640625
236.81640625,-20.99609375,-13.18359375,-57.6171875
143.06640625,-15.625,-18.5546875,-7.32421875
-8.7890625,-5.859375,-21.97265625,-97.65625
-24.4140625,-17.578125,-17.578125,-173.828125
167.96875,-27.83203125,-10.25390625,-117.67578125
297.36328125,-29.78515625,-9.765625,-64.94140625
195.80078125,-30.76171875,-6.34765625,-56.15234375
-2.9296875,-19.04296875,-15.13671875,-69.3359375
-72.75390625,-16.6015625,-17.08984375,-116.2109375
72.75390625,-8.7890625,-1.46484375,-165.0390625
261.71875,5.37109375,-0.9765625,-127.44140625
151.3671875,7.8125,-13.18359375,-101.5625
-85.44921875,8.7890625,-28.3203125,-116.69921875
-130.37109375,11.71875,-36.1328125,-117.1875
-14.16015625,16.6015625,-41.50390625,-184.5703125
128.90625,22.4609375,-39.55078125,-104.4921875
45.41015625,27.83203125,-34.1796875,-63.4765625
-115.72265625,27.34375,-44.43359375,-130.859375
-163.57421875,19.04296875,-50.78125,-137.6953125
-154.296875,12.6953125,-50.29296875,-163.0859375
-7.32421875,25.390625,-49.8046875,-128.90625
10.7421875,27.83203125,-50.78125,-66.40625
-170.8984375,23.92578125,-57.12890625,-69.3359375
-307.12890625,24.90234375,-50.29296875,-152.83203125
-246.09375,13.18359375,-49.31640625,-169.43359375
-18.06640625,8.30078125,-53.22265625,-76.66015625
-33.203125,16.11328125,-57.6171875,-112.3046875
-252.9296875,13.18359375,-52.734375,-192.3828125
-389.6484375,10.7421875,-50.29296875,-222.16796875
-365.234375,11.23046875,-54.19921875,-240.72265625
-185.05859375,9.765625,-49.31640625,-193.84765625
-112.3046875,13.671875,-48.828125,-134.765625
-300.29296875,14.6484375,-54.19921875,-146.484375
-443.84765625,23.4375,-51.7578125,-206.0546875
-358.3984375,26.85546875,-50.29296875,-198.2421875
-132.8125,19.53125,-56.640625,-158.203125
-22.94921875,14.6484375,-53.7109375,-119.140625
-179.19921875,4.39453125,-54.19921875,-137.20703125
-354.4921875,2.44140625,-54.6875,-198.73046875
-295.41015625,0.9765625,-48.828125,-213.37890625
-99.609375,-5.859375,-53.7109375,-208.0078125
-5.859375,1.953125,-56.15234375,-147.4609375
-173.828125,-2.9296875,-50.78125,-147.94921875
-316.89453125,-21.484375,-55.17578125,-222.65625
-274.90234375,-26.85546875,-53.7109375,-225.5859375
-126.46484375,-5.37109375,-46.38671875,-183.10546875
10.25390625,14.16015625,-56.640625,-184.08203125
-66.89453125,-5.37109375,-55.17578125,-184.5703125
-248.53515625,-21.484375,-41.015625,-227.05078125
-262.20703125,-30.76171875,-48.33984375,-270.5078125
-85.9375,-41.9921875,-41.9921875,-226.07421875
51.26953125,-12.6953125,-35.64453125,-173.828125
-10.25390625,3.41796875,-18.5546875,-210.44921875
-74.21875,-58.59375,-18.5546875,-229.4921875
-43.45703125,-54.19921875,-79.58984375,-215.8203125
43.45703125,-52.24609375,11.71875,-296.875
177.24609375,-9.27734375,10.25390625,-297.36328125
125.0,-1.953125,-66.89453125,-181.640625
-89.35546875,-31.25,-8.30078125,-255.859375
-49.8046875,-28.80859375,-108.88671875,-235.3515625
245.60546875,-87.890625,-103.02734375,-100.09765625
311.5234375,-65.4296875,35.15625,-187.98828125
171.875,-31.25,-4.39453125,-247.0703125
116.69921875,-20.01953125,-84.9609375,-178.22265625
84.9609375,9.27734375,-74.70703125,-195.80078125
166.50390625,-35.15625,-12.6953125,-281.25
323.73046875,-40.52734375,-43.45703125,-225.09765625
314.94140625,12.6953125,-124.51171875,-73.2421875
158.203125,-30.2734375,-114.2578125,-110.3515625
-11.71875,-87.890625,-37.59765625,-240.234375
39.55078125,-37.59765625,-49.8046875,-230.95703125
48.828125,57.6171875,12.20703125,-303.7109375
110.83984375,11.71875,-74.21875,-171.875
2.9296875,-55.17578125,-101.07421875,-141.6015625
-141.6015625,-104.4921875,43.45703125,-353.515625
-2.44140625,-148.4375,-39.0625,-269.04296875
327.63671875,-161.62109375,-167.48046875,-32.2265625
360.3515625,-82.51953125,45.8984375,-127.9296875
-240.72265625,79.1015625,41.015625,-365.72265625
-624.51171875,135.7421875,-99.609375,-583.984375
-69.3359375,-62.98828125,-63.96484375,-302.734375
326.66015625,-198.2421875,-44.921875,5.859375
156.73828125,-156.73828125,31.73828125,-166.015625
124.0234375,-84.47265625,-151.3671875,-40.52734375
-279.78515625,-89.35546875,-122.0703125,-180.17578125
-127.9296875,-232.91015625,42.48046875,-354.00390625
125.0,-139.16015625,46.38671875,-366.69921875
100.09765625,-89.35546875,-28.3203125,-340.33203125
78.61328125,-70.80078125,-102.5390625,-303.7109375
-50.78125,-121.58203125,-92.28515625,-118.1640625
125.9765625,-219.23828125,-21.484375,110.83984375
265.13671875,-164.0625,-7.8125,125.9765625
243.1640625,-151.3671875,-14.16015625,83.49609375
50.29296875,-126.953125,49.31640625,-195.3125
-71.77734375,-105.46875,-2.9296875,-91.796875
-78.61328125,-118.65234375,-9.765625,38.0859375
97.16796875,-118.1640625,0.48828125,26.3671875
233.3984375,-102.05078125,0.48828125,33.69140625
241.69921875,-110.3515625,15.13671875,108.88671875
56.640625,-112.79296875,30.2734375,89.35546875
-164.0625,-87.890625,12.20703125,-92.7734375
-105.46875,-73.2421875,0.48828125,-101.07421875
75.68359375,-63.96484375,8.7890625,-10.7421875
103.02734375,-63.4765625,9.765625,14.16015625
-35.15625,-74.70703125,7.32421875,-30.2734375
-126.953125,-72.75390625,4.39453125,-86.9140625
-19.53125,-63.4765625,-0.9765625,-76.171875
221.6796875,-60.05859375,3.41796875,9.765625
231.93359375,-61.03515625,4.8828125,19.04296875
34.66796875,-67.87109375,3.90625,-41.9921875
-57.12890625,-63.96484375,1.46484375,-79.1015625
40.0390625,-56.15234375,1.953125,-48.33984375
211.9140625,-46.875,6.34765625,0.48828125
241.2109375,-41.015625,-0.9765625,1.953125
107.421875,-33.69140625,-9.27734375,-29.296875
-27.34375,-34.66796875,-12.20703125,-70.3125
26.3671875,-35.64453125,-12.6953125,-65.91796875
166.50390625,-33.69140625,-15.13671875,-29.78515625
191.40625,-41.9921875,-17.08984375,-14.16015625
76.66015625,-36.1328125,-14.16015625,-16.6015625
-92.28515625,-35.15625,-21.97265625,-84.9609375
-42.96875,-31.73828125,-30.2734375,-101.07421875
128.41796875,-20.5078125,-30.76171875,-60.05859375
166.015625,-9.27734375,-29.296875,-28.80859375
10.25390625,-8.30078125,-28.80859375,-39.0625
-171.38671875,-20.5078125,-29.296875,-104.00390625
-154.296875,-23.92578125,-28.80859375,-145.99609375
43.45703125,-18.5546875,-22.94921875,-126.953125
129.39453125,-15.625,-19.53125,-74.70703125
20.01953125,-19.04296875,-34.66796875,-86.9140625
-160.64453125,-14.16015625,-41.015625,-186.03515625
-220.703125,-12.6953125,-37.59765625,-253.41796875
-30.2734375,-12.20703125,-30.76171875,-185.05859375
87.890625,-7.32421875,-27.34375,-109.86328125
-118.1640625,-11.71875,-34.1796875,-133.7890625
-329.1015625,-19.53125,-35.15625,-200.68359375
-319.82421875,-20.99609375,-42.96875,-273.4375
-174.8046875,-17.578125,-41.50390625,-266.6015625
-33.69140625,-14.6484375,-41.9921875,-187.5
-114.74609375,-17.08984375,-42.96875,-92.7734375
-428.22265625,-22.4609375,-28.3203125,-121.58203125
-565.4296875,-31.25,-20.5078125,-237.79296875
-409.1796875,-23.4375,-27.34375,-249.0234375
-223.6328125,-5.37109375,-30.2734375,-166.50390625
-249.0234375,-7.8125,-24.4140625,-109.375
-488.28125,-22.4609375,-17.578125,-177.24609375
-575.68359375,-26.85546875,-19.53125,-225.09765625
-416.9921875,-20.5078125,-26.85546875,-163.57421875
-276.3671875,-19.04296875,-29.296875,-126.953125
-289.55078125,-5.859375,-35.15625,-111.328125
-472.16796875,-11.71875,-39.0625,-118.1640625
-616.2109375,-27.83203125,-32.71484375,-182.12890625
-490.234375,-26.85546875,-31.25,-192.87109375
-205.56640625,-25.390625,-27.83203125,-94.7265625
-137.6953125,-13.18359375,-19.53125,14.16015625
-359.375,-16.6015625,-20.01953125,-30.76171875
-539.0625,-29.78515625,-17.578125,-146.484375
-425.78125,-39.55078125,-6.34765625,-140.625
-158.203125,-27.34375,-9.765625,-75.68359375
-62.01171875,-31.25,-16.6015625,-7.32421875
-220.21484375,-11.23046875,-22.94921875,-20.01953125
-390.13671875,-6.8359375,-30.76171875,-87.40234375
-325.68359375,-44.921875,-21.484375,-99.609375
-55.17578125,-45.8984375,-3.90625,-62.98828125
61.5234375,-30.2734375,-14.16015625,-14.6484375
-181.640625,-4.8828125,-30.76171875,-7.8125
-376.46484375,-35.15625,-33.203125,-96.19140625
-267.578125,-61.03515625,-24.90234375,-164.0625
68.84765625,-75.68359375,-10.7421875,-106.4453125
234.375,-62.98828125,-38.57421875,-47.8515625
30.2734375,-26.3671875,-32.2265625,-89.35546875
-114.74609375,-48.33984375,-14.16015625,-130.37109375
-78.61328125,-64.453125,-20.99609375,-171.38671875
110.3515625,-64.94140625,-12.20703125,-190.4296875
326.66015625,-34.1796875,-5.859375,-124.0234375
274.4140625,-13.671875,-52.24609375,-98.6328125
118.1640625,-35.64453125,-78.61328125,-132.32421875
178.22265625,-49.31640625,-86.42578125,-136.71875
344.7265625,-55.6640625,-79.1015625,-137.6953125
448.73046875,-30.76171875,-76.66015625,-68.359375
272.94921875,4.39453125,-99.12109375,-53.7109375
99.609375,4.39453125,-47.8515625,-163.57421875
174.31640625,-37.59765625,-15.13671875,-195.3125
342.28515625,-73.73046875,-62.5,-179.19921875
419.43359375,-40.0390625,-70.80078125,-164.55078125
227.5390625,31.25,-75.68359375,-145.01953125
44.43359375,-45.8984375,7.8125,-184.08203125
153.3203125,-159.66796875,62.5,-204.1015625
44.43359375,-37.59765625,29.78515625,-321.77734375
348.14453125,-111.81640625,-62.01171875,-159.66796875
623.046875,-159.66796875,-97.16796875,33.69140625
198.2421875,-41.015625,-60.546875,-142.08984375
34.1796875,17.08984375,-137.6953125,-168.9453125
153.3203125,-49.8046875,-66.40625,-219.23828125
474.609375,-143.06640625,42.48046875,-287.59765625
314.453125,0.48828125,78.125,-299.8046875
-34.1796875,12.6953125,-57.6171875,-251.953125
483.3984375,-280.2734375,-191.89453125,47.36328125
245.60546875,-87.40234375,39.0625,-458.0078125
-179.19921875,85.9375,58.10546875,-628.41796875
388.18359375,-145.99609375,-109.86328125,-132.8125
481.4453125,-92.7734375,-249.0234375,-126.953125
213.37890625,-99.12109375,-214.35546875,-95.703125
386.71875,-218.75,-115.72265625,48.33984375
606.4453125,-185.546875,-107.421875,77.63671875
537.109375,-155.76171875,-119.62890625,20.01953125
219.23828125,-119.62890625,-72.75390625,-130.859375
52.734375,-110.3515625,-131.8359375,-117.1875
-139.6484375,-59.5703125,-69.3359375,-324.21875
-126.46484375,5.859375,-75.68359375,-561.03515625
326.66015625,-109.375,-118.65234375,-25.390625
315.91796875,-141.6015625,-123.53515625,105.46875
5.37109375,-82.51953125,-129.8828125,-68.359375
-77.63671875,-81.54296875,-95.703125,-80.078125
60.546875,-79.58984375,-90.33203125,-87.890625
288.57421875,-69.82421875,-85.9375,-33.69140625
252.44140625,-65.4296875,-71.2890625,-11.23046875
22.94921875,-66.40625,-71.77734375,-59.5703125
-67.87109375,-60.05859375,-75.1953125,-85.9375
82.51953125,-50.29296875,-69.3359375,-16.11328125
300.29296875,-37.59765625,-62.5,81.0546875
288.0859375,-30.76171875,-56.640625,138.18359375
87.40234375,-34.66796875,-58.59375,135.7421875
-38.0859375,-36.62109375,-64.453125,114.74609375
34.1796875,-35.15625,-60.05859375,182.12890625
245.1171875,-37.109375,-51.7578125,258.7890625
266.6015625,-46.875,-51.7578125,217.7734375
80.078125,-36.1328125,-51.7578125,111.328125
-81.0546875,-25.87890625,-40.52734375,-17.578125
18.5546875,-20.5078125,-32.71484375,-12.20703125
267.08984375,-15.13671875,-30.2734375,149.4140625
267.578125,-21.97265625,-31.73828125,188.96484375
84.47265625,-33.69140625,-30.76171875,106.4453125
-216.796875,-36.62109375,-40.52734375,24.90234375
-303.7109375,-35.15625,-54.19921875,19.04296875
36.1328125,-35.15625,-43.45703125,110.83984375
277.83203125,-22.4609375,-35.15625,139.16015625
160.15625,-20.99609375,-39.55078125,101.5625
-57.6171875,-21.97265625,-48.33984375,18.5546875
-80.078125,-15.13671875,-47.36328125,-91.30859375
88.37890625,-12.20703125,-30.2734375,-90.8203125
232.421875,-12.20703125,-23.92578125,-22.94921875
158.69140625,-20.01953125,-25.87890625,56.15234375
-70.80078125,-23.92578125,-33.203125,38.57421875
-230.46875,-17.578125,-26.85546875,-130.37109375
-40.0390625,-9.765625,-11.23046875,-123.53515625
193.84765625,-11.23046875,-25.390625,16.11328125
70.80078125,-9.27734375,-30.2734375,-1.46484375
-168.9453125,-12.6953125,-21.484375,-91.796875
-225.09765625,-23.4375,-33.203125,-145.5078125
-80.56640625,-23.92578125,-46.38671875,-186.03515625
34.66796875,-34.1796875,-40.0390625,-134.27734375
-49.8046875,-44.43359375,-31.73828125,-80.56640625
-251.46484375,-26.3671875,-37.59765625,-142.08984375
-369.140625,-15.13671875,-47.8515625,-210.9375
-290.0390625,-27.34375,-46.875,-242.1875
-158.69140625,-31.73828125,-41.50390625,-221.6796875
-257.8125,-38.0859375,-41.9921875,-169.921875
-428.7109375,-62.98828125,-26.85546875,-171.875
-525.390625,-67.87109375,-31.25,-224.609375
-512.6953125,-61.5234375,-38.57421875,-328.125
-292.48046875,-55.6640625,-29.296875,-331.54296875
-315.4296875,-47.8515625,-30.2734375,-197.265625
-625.0,-50.29296875,-25.390625,-274.4140625
-788.0859375,-59.5703125,-18.5546875,-407.71484375
-686.5234375,-76.66015625,-17.578125,-369.140625
-394.53125,-75.68359375,-21.484375,-283.69140625
-335.44921875,-68.359375,-20.5078125,-229.98046875
-566.89453125,-69.3359375,-12.6953125,-302.734375
-682.12890625,-66.89453125,-15.13671875,-331.54296875
-625.48828125,-69.82421875,-22.4609375,-306.15234375
-378.90625,-60.05859375,-24.4140625,-194.3359375
-288.0859375,-43.9453125,-24.4140625,-116.69921875
-514.16015625,-46.38671875,-29.296875,-209.47265625
-729.98046875,-62.98828125,-25.87890625,-265.625
-686.5234375,-67.3828125,-26.3671875,-262.20703125
-406.73828125,-62.5,-30.76171875,-213.8671875
-311.03515625,-58.59375,-25.390625,-127.44140625
-518.5546875,-59.08203125,-24.4140625,-157.71484375
-686.5234375,-58.10546875,-32.2265625,-214.84375
-671.38671875,-49.8046875,-44.43359375,-207.51953125
-470.703125,-57.6171875,-42.96875,-164.55078125
-346.6796875,-57.6171875,-32.2265625,-95.21484375
-495.1171875,-36.1328125,-35.64453125,-88.8671875
-691.89453125,-43.9453125,-38.57421875,-182.6171875
-675.29296875,-55.6640625,-37.59765625,-246.09375
-436.03515625,-20.99609375,-43.9453125,-219.7265625
-297.36328125,-11.23046875,-42.48046875,-159.66796875
-470.703125,-37.109375,-36.1328125,-171.38671875
-677.24609375,-27.34375,-41.9921875,-233.3984375
-660.15625,-38.57421875,-38.0859375,-250.0
-402.34375,-60.05859375,-28.3203125,-187.5
-168.45703125,-62.01171875,-32.2265625,-141.11328125
-194.82421875,-29.296875,-40.52734375,-182.6171875
-296.875,-10.7421875,-32.71484375,-255.37109375
-245.1171875,-23.92578125,-26.85546875,-261.23046875
83.984375,-20.5078125,-13.671875,-173.33984375
419.921875,-52.734375,-7.8125,-58.59375
292.96875,-62.98828125,-29.78515625,-48.828125
46.38671875,-35.64453125,-23.4375,-117.67578125
80.56640625,-57.6171875,9.765625,-161.62109375
314.94140625,-82.51953125,8.7890625,-141.11328125
483.3984375,-71.2890625,-11.71875,-89.35546875
384.27734375,-37.59765625,-43.45703125,-87.890625
248.046875,-29.78515625,-68.359375,-94.23828125
172.8515625,-41.50390625,-24.4140625,-124.51171875
260.7421875,-40.0390625,-16.11328125,-172.8515625
527.34375,-43.45703125,-108.88671875,-63.96484375
441.89453125,-8.7890625,-111.81640625,1.46484375
83.49609375,-3.41796875,-61.5234375,-126.953125
-3.90625,-74.21875,12.6953125,-218.75
157.2265625,-53.22265625,-30.76171875,-174.31640625
360.83984375,-37.109375,-105.46875,-38.57421875
296.38671875,-29.78515625,-49.31640625,-62.98828125
98.14453125,-27.34375,7.8125,-153.80859375
111.328125,-113.76953125,-26.85546875,-159.1796875
154.78515625,-66.40625,-76.66015625,-187.01171875
329.1015625,-0.9765625,-93.26171875,-107.421875
334.47265625,-34.1796875,-47.36328125,-103.515625
15.13671875,-43.45703125,20.01953125,-259.765625
0.48828125,-62.5,-57.12890625,-244.140625
378.41796875,-128.41796875,-127.44140625,-37.59765625
452.63671875,-126.953125,85.9375,-136.23046875
88.8671875,13.671875,128.41796875,-354.98046875
-88.37890625,87.890625,-103.02734375,-262.6953125
-137.20703125,-24.90234375,-82.03125,-296.38671875
221.19140625,-149.4140625,-147.4609375,-156.25
287.109375,-107.421875,-30.2734375,-157.2265625
278.3203125,-118.1640625,0.9765625,-231.93359375
261.71875,-23.92578125,-147.94921875,-104.98046875
-513.18359375,88.8671875,150.87890625,-538.0859375
-25.87890625,-155.2734375,-7.32421875,-363.28125
302.734375,-23.92578125,-183.10546875,-152.34375
-30.76171875,40.0390625,-85.44921875,-262.20703125
45.8984375,-155.2734375,-33.203125,-133.30078125
-394.53125,-3.41796875,57.6171875,-516.11328125
-515.13671875,-43.9453125,-54.19921875,-650.390625
53.7109375,-183.59375,-184.08203125,-395.01953125
270.5078125,-110.3515625,-177.734375,-282.71484375
135.25390625,-146.484375,-51.7578125,-39.0625
-61.5234375,-171.875,-41.50390625,1.46484375
-224.12109375,-115.72265625,-88.37890625,-145.99609375
-86.42578125,-57.12890625,-12.20703125,-81.0546875
214.84375,-68.84765625,22.94921875,-221.6796875
245.1171875,-118.65234375,-130.37109375,-89.84375
-59.5703125,-120.1171875,-125.0,133.30078125
-127.9296875,-110.3515625,-38.57421875,-83.49609375
-0.9765625,-95.703125,-37.59765625,-252.44140625
83.984375,-78.125,-59.5703125,-238.76953125
9.27734375,-67.3828125,-73.73046875,-111.81640625
-228.515625,-69.82421875,-63.96484375,-64.453125
-310.546875,-73.73046875,-41.015625,-115.234375
-226.5625,-73.2421875,-20.99609375,-195.3125
-40.52734375,-61.03515625,-17.08984375,-152.83203125
-42.96875,-62.5,-13.18359375,-96.6796875
-223.6328125,-67.3828125,-19.04296875,-135.25390625
-291.50390625,-58.59375,-21.484375,-175.78125
-147.4609375,-51.26953125,-23.4375,-190.4296875
49.8046875,-47.36328125,-10.7421875,-127.44140625
53.22265625,-48.33984375,1.46484375,-79.58984375
-154.78515625,-53.7109375,-6.34765625,-101.5625
-281.73828125,-51.7578125,-14.6484375,-152.34375
-140.13671875,-41.9921875,-18.06640625,-165.0390625
40.52734375,-32.2265625,-10.7421875,-86.9140625
13.671875,-36.1328125,-2.44140625,-52.24609375
-135.25390625,-38.57421875,-5.37109375,-68.359375
-272.4609375,-37.109375,-11.71875,-125.9765625
-161.62109375,-39.0625,-14.16015625,-139.16015625
28.80859375,-28.80859375,-13.18359375,-46.875
-3.90625,-39.55078125,-9.765625,-41.9921875
-83.0078125,-45.41015625,-18.06640625,-95.21484375
-183.59375,-29.296875,-32.2265625,-116.69921875
-245.1171875,-38.57421875,-29.296875,-145.01953125
-51.26953125,-43.45703125,-26.85546875,-122.0703125
121.09375,-30.2734375,-25.390625,-55.6640625
-61.03515625,-18.5546875,-17.578125,-107.91015625
-230.95703125,-24.90234375,-13.671875,-194.82421875
-196.77734375,-32.2265625,-14.16015625,-145.01953125
4.8828125,-26.3671875,-14.16015625,-80.56640625
122.55859375,-27.34375,-4.39453125,-105.46875
3.41796875,-27.34375,3.41796875,-125.0
-116.69921875,-21.484375,-8.7890625,-162.109375
-124.0234375,-26.85546875,-17.08984375,-214.84375
34.66796875,-30.2734375,-16.11328125,-208.0078125
207.51953125,-27.34375,-12.6953125,-121.09375
103.515625,-17.08984375,-13.18359375,-75.68359375
-79.1015625,-8.30078125,-13.18359375,-166.9921875
-61.03515625,-16.6015625,-6.8359375,-261.23046875
135.25390625,-16.11328125,-14.6484375,-239.2578125
299.8046875,2.9296875,-15.13671875,-139.16015625
194.82421875,0.9765625,-11.71875,-104.00390625
-42.96875,-9.27734375,-23.92578125,-147.4609375
-86.42578125,-2.9296875,-25.390625,-189.453125
53.7109375,2.9296875,-18.06640625,-168.9453125
174.8046875,3.90625,-20.5078125,-115.72265625
70.3125,-3.90625,-24.90234375,-111.328125
-124.0234375,-2.9296875,-21.97265625,-104.4921875
-210.44921875,-1.953125,-23.4375,-138.18359375
-128.41796875,-23.92578125,-23.4375,-221.19140625
70.80078125,-28.3203125,-20.99609375,-159.66796875
-32.71484375,-18.06640625,-32.71484375,-121.09375
-361.328125,-19.04296875,-40.52734375,-248.046875
-450.68359375,-18.06640625,-40.52734375,-338.8671875
-355.95703125,-15.625,-45.8984375,-321.77734375
-220.703125,-18.06640625,-45.8984375,-255.859375
-241.69921875,-17.578125,-48.33984375,-235.83984375
-422.36328125,-15.13671875,-46.875,-270.5078125
-546.875,-20.5078125,-41.015625,-302.24609375
-531.25,-15.625,-47.8515625,-315.4296875
-318.84765625,-6.8359375,-46.875,-271.484375
-269.04296875,-9.765625,-43.9453125,-252.44140625
-467.28515625,-17.578125,-42.96875,-290.52734375
-601.07421875,-11.71875,-40.0390625,-328.125
-571.77734375,-5.37109375,-41.50390625,-350.09765625
-402.83203125,-8.30078125,-40.0390625,-313.4765625
-350.09765625,-7.32421875,-48.828125,-259.765625
-598.14453125,-11.23046875,-51.7578125,-280.76171875
-725.5859375,-23.92578125,-50.29296875,-355.46875
-495.60546875,-23.4375,-44.43359375,-348.14453125
-273.4375,-4.39453125,-45.41015625,-298.828125
-189.94140625,-0.9765625,-49.8046875,-247.0703125
-329.1015625,-10.7421875,-44.921875,-265.625
-557.12890625,-12.6953125,-47.8515625,-329.58984375
-539.0625,-16.11328125,-51.7578125,-363.76953125
-348.14453125,-29.296875,-49.31640625,-304.19921875
-236.328125,-23.4375,-55.17578125,-245.60546875
-374.0234375,-19.04296875,-59.08203125,-233.3984375
-576.171875,-34.1796875,-48.33984375,-250.9765625
-524.90234375,-29.78515625,-52.734375,-350.5859375
-326.66015625,-24.4140625,-64.94140625,-320.80078125
-227.05078125,-27.34375,-61.5234375,-227.05078125
-318.359375,-29.78515625,-56.15234375,-244.62890625
-503.41796875,-35.64453125,-54.6875,-315.91796875
-503.41796875,-37.109375,-61.5234375,-323.2421875
-319.3359375,-44.921875,-60.546875,-311.5234375
-191.40625,-45.8984375,-63.4765625,-273.92578125
-258.7890625,-38.0859375,-66.40625,-190.91796875
-413.57421875,-38.0859375,-65.91796875,-274.4140625
-433.10546875,-42.48046875,-70.80078125,-395.99609375
-266.11328125,-51.7578125,-73.2421875,-377.44140625
-79.58984375,-53.22265625,-73.2421875,-304.6875
-105.95703125,-56.15234375,-62.98828125,-243.65234375
-277.34375,-57.6171875,-63.4765625,-246.58203125
-349.609375,-60.05859375,-68.84765625,-312.01171875
-195.80078125,-54.6875,-64.94140625,-335.9375
11.71875,-44.921875,-63.4765625,-257.8125
-1.46484375,-44.43359375,-62.01171875,-192.3828125
-197.265625,-44.921875,-64.94140625,-278.80859375
-305.17578125,-48.33984375,-72.75390625,-392.578125
-157.71484375,-47.36328125,-73.2421875,-344.23828125
71.2890625,-45.41015625,-73.73046875,-301.26953125
85.9375,-57.12890625,-71.77734375,-289.55078125
-81.0546875,-70.3125,-66.40625,-281.25
-182.6171875,-65.4296875,-84.9609375,-331.54296875
-70.3125,-57.6171875,-93.75,-333.0078125
136.23046875,-59.08203125,-85.9375,-291.015625
181.640625,-61.5234375,-88.8671875,-240.72265625
11.23046875,-54.6875,-89.35546875,-225.09765625
-114.2578125,-56.640625,-87.40234375,-266.6015625
-31.73828125,-55.6640625,-88.37890625,-310.05859375
181.640625,-49.31640625,-86.9140625,-264.16015625
291.50390625,-42.96875,-87.40234375,-183.59375
145.01953125,-44.43359375,-94.23828125,-194.82421875
-36.62109375,-55.17578125,-93.75,-254.8828125
-14.6484375,-55.17578125,-92.7734375,-283.203125
149.4140625,-49.8046875,-96.6796875,-243.1640625
220.21484375,-54.19921875,-89.84375,-172.36328125
62.01171875,-67.3828125,-84.9609375,-174.8046875
-102.05078125,-73.2421875,-95.21484375,-253.90625
-32.71484375,-56.15234375,-100.5859375,-310.546875
161.1328125,-63.4765625,-91.30859375,-296.875
223.14453125,-43.9453125,-68.84765625,-286.1328125
105.46875,-19.53125,-88.8671875,-279.78515625
-34.1796875,-86.9140625,-74.70703125,-316.40625
-94.7265625,-87.890625,-31.73828125,-392.08984375
55.17578125,-81.0546875,-81.54296875,-324.70703125
219.7265625,-89.84375,-136.71875,-187.98828125
123.53515625,-79.58984375,-112.79296875,-150.390625
-82.03125,-114.2578125,-106.93359375,-204.58984375
-187.98828125,-122.55859375,-93.26171875,-273.92578125
-52.734375,-93.75,-95.703125,-244.140625
144.04296875,-54.19921875,-192.87109375,-166.015625
108.88671875,-93.26171875,-152.34375,-140.13671875
-114.2578125,-139.16015625,-70.3125,-187.98828125
-203.125,-102.5390625,-55.6640625,-293.9453125
-115.72265625,-75.68359375,-89.35546875,-328.61328125
18.5546875,-66.89453125,-121.09375,-263.671875
58.59375,-107.91015625,-109.375,-173.33984375
-71.77734375,-140.625,-119.140625,-202.1484375
-228.515625,-101.07421875,-139.16015625,-285.64453125
-224.12109375,-19.53125,-134.27734375,-312.01171875
47.36328125,-77.63671875,-95.703125,-272.94921875
90.33203125,-168.45703125,-49.31640625,-257.8125
-45.8984375,-184.5703125,-106.93359375,-207.03125
-207.51953125,-113.76953125,-81.0546875,-334.9609375
-208.49609375,-113.76953125,0.9765625,-493.65234375
69.3359375,-92.28515625,-194.82421875,-281.73828125
120.60546875,-60.05859375,-195.80078125,-190.4296875
76.66015625,-121.09375,-143.06640625,-194.3359375
-555.17578125,48.828125,-14.16015625,-591.30859375
-398.4375,-27.83203125,41.015625,-707.03125
224.609375,-187.5,-146.484375,-331.0546875
136.23046875,-95.703125,-194.3359375,-224.12109375
211.9140625,-169.921875,-241.2109375,-52.734375
5.859375,-164.55078125,-177.734375,-171.875
-125.9765625,-119.140625,-122.55859375,-387.20703125
82.03125,-127.9296875,-120.1171875,-345.703125
1.953125,0.48828125,-144.53125,-387.6953125
-429.19921875,3.90625,9.765625,-616.69921875
-335.44921875,-184.5703125,15.13671875,-557.6171875
-344.23828125,-5.37109375,-135.7421875,-616.69921875
-500.9765625,27.34375,-30.2734375,-765.13671875
296.38671875,-246.09375,-160.15625,-303.22265625
0.48828125,-47.8515625,-75.1953125,-416.015625
-692.3828125,24.4140625,-86.9140625,-682.6171875
-244.140625,-76.171875,-401.3671875,-290.0390625
-53.7109375,-118.1640625,-242.1875,-299.31640625
272.94921875,-227.05078125,-125.48828125,-323.73046875
86.42578125,-118.1640625,-10.25390625,-499.0234375
-240.72265625,-118.1640625,-37.109375,-640.625
-163.57421875,-136.23046875,-270.99609375,-515.13671875
124.51171875,-172.36328125,-271.97265625,-363.28125
336.42578125,-218.26171875,-173.33984375,-214.84375
181.15234375,-153.3203125,-178.22265625,-296.875
-1.46484375,-173.828125,-147.4609375,-205.078125
-67.87109375,-176.26953125,-134.765625,-126.46484375
35.64453125,-142.08984375,-144.53125,-232.91015625
216.796875,-137.6953125,-114.2578125,-242.1875
215.8203125,-130.859375,-112.79296875,-268.06640625
39.0625,-132.8125,-117.1875,-274.90234375
-93.75,-130.37109375,-118.65234375,-305.6640625
26.85546875,-114.74609375,-121.58203125,-318.359375
262.6953125,-105.46875,-116.2109375,-259.27734375
265.13671875,-100.5859375,-106.4453125,-225.09765625
64.94140625,-102.05078125,-104.00390625,-247.0703125
-45.41015625,-109.86328125,-103.515625,-264.16015625
56.640625,-103.515625,-100.09765625,-261.23046875
244.62890625,-93.75,-102.5390625,-228.515625
271.97265625,-91.796875,-104.98046875,-187.98828125
91.796875,-87.40234375,-104.98046875,-213.37890625
-64.453125,-87.40234375,-110.3515625,-240.72265625
-16.6015625,-92.28515625,-106.93359375,-245.60546875
181.640625,-85.44921875,-101.07421875,-216.30859375
250.48828125,-71.77734375,-98.14453125,-194.3359375
59.5703125,-68.84765625,-99.609375,-271.484375
-105.46875,-73.73046875,-100.5859375,-276.85546875
-60.546875,-72.75390625,-96.6796875,-218.26171875
116.2109375,-66.40625,-96.19140625,-194.3359375
216.796875,-67.87109375,-95.21484375,-174.8046875
109.86328125,-76.171875,-88.8671875,-196.2890625
-63.96484375,-79.58984375,-82.51953125,-265.625
-53.7109375,-69.82421875,-87.890625,-284.1796875
139.16015625,-61.5234375,-94.7265625,-229.00390625
224.609375,-63.4765625,-87.890625,-168.45703125
76.171875,-61.03515625,-86.9140625,-199.70703125
-58.10546875,-68.359375,-85.9375,-270.01953125
-30.76171875,-72.265625,-82.51953125,-287.109375
113.28125,-56.15234375,-83.49609375,-241.69921875
257.32421875,-51.7578125,-79.58984375,-233.88671875
152.34375,-59.08203125,-73.2421875,-279.296875
-41.9921875,-51.7578125,-80.56640625,-266.11328125
-80.56640625,-62.5,-88.37890625,-302.734375
51.7578125,-72.265625,-87.890625,-274.4140625
181.15234375,-69.3359375,-87.40234375,-214.35546875
96.6796875,-74.70703125,-89.35546875,-281.73828125
-94.7265625,-69.3359375,-92.28515625,-320.3125
-183.59375,-67.87109375,-95.703125,-333.49609375
-102.5390625,-78.61328125,-94.7265625,-342.28515625
77.1484375,-79.1015625,-101.5625,-281.25
20.01953125,-73.73046875,-108.88671875,-256.34765625
-198.73046875,-70.3125,-106.93359375,-277.83203125
-287.59765625,-66.40625,-104.4921875,-292.48046875
-179.19921875,-58.59375,-98.14453125,-291.015625
-33.203125,-58.10546875,-101.5625,-262.6953125
-85.44921875,-65.4296875,-109.86328125,-227.05078125
-255.37109375,-70.80078125,-115.72265625,-227.5390625
-325.68359375,-69.82421875,-111.81640625,-262.6953125
-148.92578125,-65.91796875,-94.7265625,-280.76171875
44.43359375,-59.5703125,-92.7734375,-252.44140625
2.9296875,-59.08203125,-97.16796875,-215.8203125
-158.69140625,-63.96484375,-103.02734375,-211.9140625
-257.32421875,-67.87109375,-107.91015625,-239.2578125
-174.31640625,-70.80078125,-94.23828125,-262.20703125
-6.8359375,-64.453125,-97.16796875,-240.234375
24.90234375,-52.734375,-111.81640625,-212.890625
-117.1875,-51.26953125,-107.91015625,-219.23828125
-243.65234375,-60.546875,-110.83984375,-246.58203125
-179.19921875,-67.3828125,-112.79296875,-258.30078125
11.71875,-69.82421875,-100.5859375,-193.359375
42.96875,-59.5703125,-101.5625,-158.203125
-128.90625,-57.12890625,-109.86328125,-222.16796875
-245.60546875,-59.5703125,-114.2578125,-280.76171875
-177.24609375,-60.05859375,-118.65234375,-287.59765625
5.859375,-62.98828125,-109.375,-259.27734375
63.4765625,-31.73828125,-102.05078125,-222.65625
-58.59375,-41.015625,-100.09765625,-195.3125
-191.40625,-78.125,-116.69921875,-238.76953125
-180.6640625,-67.3828125,-110.3515625,-328.61328125
19.04296875,-96.6796875,-83.49609375,-318.84765625
140.625,-90.8203125,-104.00390625,-226.07421875
14.16015625,-67.3828125,-93.26171875,-222.16796875
-129.8828125,-78.125,-109.86328125,-331.54296875
-115.234375,-89.84375,-151.85546875,-385.7421875
60.05859375,-97.65625,-138.18359375,-331.0546875
149.90234375,-86.42578125,-97.16796875,-319.3359375
37.59765625,-85.9375,-84.47265625,-297.36328125
-97.65625,-66.40625,-128.90625,-295.8984375
-79.1015625,-40.52734375,-116.2109375,-354.4921875
96.6796875,-73.2421875,-92.7734375,-300.78125
240.234375,-127.44140625,-125.0,-221.19140625
98.6328125,-115.234375,-141.11328125,-228.515625
-147.4609375,-65.4296875,-107.91015625,-329.1015625
-215.33203125,-51.26953125,-99.609375,-379.39453125
-27.83203125,-75.68359375,-139.6484375,-324.21875
234.86328125,-110.83984375,-131.8359375,-197.75390625
184.5703125,-121.58203125,-123.53515625,-129.39453125
-39.0625,-99.609375,-89.84375,-269.04296875
-87.40234375,-74.21875,-96.19140625,-320.3125
-96.6796875,-63.96484375,-92.7734375,-321.2890625
180.6640625,-164.0625,-79.58984375,-179.6875
322.265625,-174.31640625,-112.79296875,-89.84375
-31.25,-70.80078125,-130.859375,-220.703125
-234.375,-27.83203125,-178.7109375,-271.97265625
54.6875,-135.7421875,-110.3515625,-208.49609375
211.9140625,-148.92578125,-85.9375,-174.8046875
-21.97265625,39.0625,-103.515625,-264.16015625
-70.80078125,-70.3125,3.41796875,-237.3046875
-174.31640625,-128.90625,-20.01953125,-263.671875
-601.5625,29.78515625,-1.953125,-535.15625
-249.51171875,-143.06640625,-8.7890625,-462.890625
188.96484375,-195.3125,-172.8515625,-44.43359375
-44.43359375,-141.11328125,-127.9296875,-11.23046875
-353.02734375,-52.24609375,15.13671875,-315.91796875
-608.3984375,123.046875,-90.33203125,-579.1015625
-326.171875,-80.56640625,-245.1171875,-328.61328125
123.046875,-322.75390625,-101.5625,45.8984375
128.41796875,-268.06640625,-68.359375,-56.640625
-42.48046875,-194.3359375,-180.17578125,-101.5625
-71.2890625,-155.76171875,-247.55859375,-66.89453125
22.94921875,-143.5546875,-191.89453125,-191.40625
100.5859375,-138.18359375,-122.55859375,-206.0546875
-105.46875,-149.90234375,-135.7421875,19.04296875
-243.65234375,-144.53125,-114.2578125,138.671875
-187.98828125,-119.62890625,-125.9765625,-66.89453125
-58.10546875,-107.421875,-115.72265625,-140.13671875
78.125,-103.02734375,-107.421875,-81.0546875
-28.3203125,-117.67578125,-71.77734375,-19.04296875
-219.7265625,-105.95703125,-96.6796875,-62.98828125
-180.6640625,-99.609375,-127.44140625,-74.70703125
-40.52734375,-95.703125,-91.796875,-22.4609375
63.96484375,-83.984375,-77.63671875,13.18359375
-12.6953125,-88.8671875,-70.80078125,73.73046875
-194.82421875,-90.8203125,-71.77734375,23.4375
-224.12109375,-88.37890625,-74.21875,-28.80859375
-41.9921875,-90.8203125,-69.3359375,-12.6953125
137.6953125,-86.42578125,-61.5234375,8.7890625
111.328125,-78.125,-61.5234375,71.77734375
-44.921875,-71.2890625,-65.91796875,57.6171875
-53.7109375,-62.5,-58.10546875,17.578125
114.2578125,-58.10546875,-56.15234375,68.359375
244.62890625,-59.5703125,-60.546875,64.94140625
214.84375,-61.03515625,-54.19921875,30.2734375
67.3828125,-62.01171875,-55.17578125,42.96875
-23.92578125,-53.7109375,-57.6171875,2.9296875
91.796875,-48.828125,-55.17578125,-24.4140625
234.86328125,-45.8984375,-49.31640625,60.05859375
227.05078125,-41.9921875,-44.921875,124.0234375
68.84765625,-42.96875,-45.41015625,87.890625
-4.8828125,-40.0390625,-46.875,63.96484375
105.46875,-40.0390625,-43.45703125,43.45703125
226.5625,-42.96875,-39.0625,53.7109375
