TP9,AF7,AF8,TP10
636.23046875,-1000.0,-1000.0,-49.8046875
872.0703125,-728.02734375,-340.8203125,-41.9921875
969.7265625,647.4609375,922.36328125,-44.921875
973.14453125,999.51171875,999.51171875,-54.6875
822.75390625,164.55078125,96.19140625,-57.6171875
649.90234375,-1000.0,-1000.0,-47.8515625
821.77734375,-950.1953125,-553.22265625,-38.57421875
975.09765625,333.0078125,792.48046875,-41.015625
956.0546875,999.51171875,999.51171875,-55.17578125
748.53515625,159.66796875,151.85546875,-62.5
545.8984375,-1000.0,-1000.0,-60.05859375
691.40625,-1000.0,-769.53125,-48.33984375
936.03515625,-14.6484375,566.40625,-45.41015625
905.76171875,999.51171875,999.51171875,-52.734375
615.234375,255.859375,162.109375,-60.05859375
426.7578125,-1000.0,-1000.0,-48.828125
539.55078125,-1000.0,-960.44921875,-47.8515625
813.4765625,61.03515625,280.2734375,-49.31640625
831.0546875,999.51171875,999.51171875,-45.41015625
547.8515625,576.171875,255.859375,-52.24609375
319.3359375,-754.8828125,-991.69921875,-48.33984375
385.7421875,-1000.0,-1000.0,-45.41015625
677.24609375,-212.890625,28.3203125,-49.8046875
741.2109375,999.51171875,999.51171875,-50.78125
499.0234375,817.3828125,416.9921875,-49.31640625
270.01953125,-520.99609375,-895.99609375,-47.8515625
289.0625,-1000.0,-1000.0,-36.62109375
579.1015625,-155.76171875,-91.796875,-32.71484375
680.17578125,965.33203125,999.51171875,-24.4140625
459.9609375,999.51171875,732.91015625,-7.8125
210.44921875,205.56640625,-586.9140625,-25.87890625
161.62109375,-1000.0,-1000.0,-30.2734375
457.51953125,-356.93359375,-185.05859375,0.48828125
586.42578125,999.51171875,999.51171875,-2.9296875
398.92578125,999.51171875,810.546875,-28.80859375
147.4609375,-200.1953125,-496.58203125,-27.34375
69.82421875,-1000.0,-1000.0,-27.83203125
356.93359375,-389.6484375,-201.66015625,-15.625
547.8515625,887.6953125,999.51171875,14.6484375
370.60546875,999.51171875,986.328125,-11.71875
99.12109375,102.5390625,-177.734375,-44.43359375
3.90625,-1000.0,-1000.0,-37.109375
220.21484375,-1000.0,-316.40625,-26.85546875
446.2890625,173.828125,944.3359375,-38.57421875
356.93359375,999.51171875,999.51171875,-53.7109375
80.56640625,163.57421875,4.8828125,-48.828125
-58.10546875,-1000.0,-1000.0,-48.33984375
173.33984375,-896.97265625,-473.14453125,-40.52734375
428.7109375,420.41015625,845.703125,-48.828125
315.91796875,999.51171875,999.51171875,-79.1015625
32.2265625,138.18359375,140.13671875,-76.171875
-125.48828125,-1000.0,-1000.0,-72.75390625
48.828125,-1000.0,-750.0,-62.98828125
355.95703125,19.53125,591.30859375,-40.52734375
327.1484375,999.51171875,999.51171875,-45.8984375
29.78515625,295.41015625,165.52734375,-59.5703125
-141.6015625,-963.37890625,-1000.0,-47.36328125
9.27734375,-1000.0,-916.9921875,-34.66796875
306.15234375,-169.43359375,352.5390625,-41.9921875
317.3828125,999.51171875,999.51171875,-42.48046875
36.62109375,454.1015625,217.7734375,-54.6875
-156.73828125,-905.76171875,-1000.0,-59.5703125
-43.45703125,-1000.0,-1000.0,-43.9453125
245.60546875,-125.48828125,134.27734375,-38.0859375
294.43359375,999.51171875,999.51171875,-40.52734375
71.77734375,999.51171875,383.7890625,-42.96875
-152.34375,-111.328125,-911.1328125,-46.38671875
-121.09375,-1000.0,-1000.0,-34.66796875
220.703125,-222.65625,-91.796875,-12.6953125
325.1953125,999.51171875,999.51171875,-10.25390625
79.58984375,717.7734375,482.91015625,-38.57421875
-172.8515625,-654.296875,-845.21484375,-44.921875
-158.203125,-1000.0,-1000.0,-23.92578125
180.6640625,-163.0859375,-184.5703125,44.43359375
319.3359375,971.19140625,999.51171875,89.84375
103.515625,999.51171875,814.453125,50.78125
-134.27734375,117.67578125,-491.2109375,13.671875
-182.12890625,-1000.0,-1000.0,28.80859375
113.28125,-457.03125,-192.3828125,83.49609375
314.94140625,898.4375,999.51171875,89.35546875
153.3203125,999.51171875,941.89453125,71.2890625
-128.41796875,38.57421875,-281.73828125,41.50390625
-233.88671875,-1000.0,-1000.0,11.71875
76.171875,-223.6328125,-223.6328125,62.5
306.640625,975.5859375,982.421875,88.37890625
145.99609375,999.51171875,999.51171875,54.19921875
-103.02734375,209.9609375,-17.08984375,4.39453125
-240.234375,-1000.0,-1000.0,-14.16015625
-20.5078125,-818.84765625,-446.77734375,26.85546875
267.578125,540.52734375,869.62890625,28.3203125
-421.38671875,999.51171875,999.51171875,-46.38671875
-1000.0,100.09765625,107.91015625,-91.796875
-976.07421875,-1000.0,-1000.0,-79.1015625
-992.1875,-1000.0,-671.38671875,-103.02734375
-1000.0,-208.984375,675.78125,-117.1875
-1000.0,999.51171875,999.51171875,-106.93359375
-1000.0,275.87890625,162.109375,-114.74609375
-1000.0,-1000.0,-1000.0,-111.81640625
-1000.0,-1000.0,-818.359375,-99.609375
-1000.0,-22.4609375,497.0703125,-100.09765625
-1000.0,999.51171875,999.51171875,-92.28515625
-1000.0,707.51953125,209.9609375,-98.6328125
-989.74609375,-632.8125,-1000.0,-102.5390625
-1000.0,-1000.0,-1000.0,-85.9375
-944.3359375,-116.2109375,184.5703125,-81.54296875
-576.66015625,999.51171875,999.51171875,-84.47265625
-337.40234375,770.99609375,281.73828125,-92.7734375
-495.60546875,-562.5,-968.26171875,-87.890625
-299.31640625,-1000.0,-1000.0,-81.54296875
117.1875,-179.6875,-76.66015625,-78.125
-138.671875,999.51171875,999.51171875,-81.0546875
-376.46484375,982.91015625,448.2421875,-91.796875
-129.39453125,-289.55078125,-879.8828125,-91.796875
302.734375,-1000.0,-1000.0,-98.6328125
790.52734375,59.08203125,-132.32421875,-95.703125
974.609375,999.51171875,999.51171875,-77.63671875
962.890625,999.51171875,713.8671875,-84.9609375
905.2734375,183.10546875,-610.83984375,-86.9140625
897.4609375,-1000.0,-1000.0,-67.3828125
974.12109375,-229.98046875,-188.96484375,-62.98828125
946.2890625,988.76953125,999.51171875,-62.01171875
999.51171875,999.51171875,919.921875,-68.84765625
785.15625,201.171875,-320.3125,-65.4296875
523.4375,-1000.0,-1000.0,-62.5
837.40234375,-433.10546875,-233.3984375,-60.05859375
983.3984375,905.76171875,991.2109375,-48.33984375
971.19140625,999.51171875,999.51171875,-54.6875
881.34765625,162.59765625,-104.98046875,-66.89453125
792.96875,-1000.0,-1000.0,-57.12890625
927.24609375,-941.89453125,-394.53125,-43.9453125
965.33203125,336.42578125,895.99609375,-45.8984375
981.93359375,999.51171875,999.51171875,-54.19921875
837.40234375,185.546875,95.703125,-58.59375
662.59765625,-1000.0,-1000.0,-48.828125
838.8671875,-994.62890625,-605.95703125,-48.33984375
973.14453125,266.6015625,741.2109375,-54.19921875
961.9140625,999.51171875,999.51171875,-49.31640625
775.87890625,846.19140625,166.9921875,-52.734375
547.36328125,-437.01171875,-1000.0,-54.19921875
687.01171875,-1000.0,-810.546875,-45.41015625
943.359375,72.75390625,516.6015625,-47.8515625
925.78125,999.51171875,999.51171875,-56.640625
646.97265625,326.171875,171.38671875,-54.6875
415.0390625,-950.68359375,-1000.0,-51.26953125
514.16015625,-1000.0,-984.375,-38.0859375
787.109375,-141.6015625,231.4453125,-36.62109375
784.66796875,999.51171875,999.51171875,-55.6640625
510.7421875,551.7578125,256.34765625,-76.171875
276.85546875,-820.3125,-996.58203125,-73.73046875
276.85546875,-1000.0,-1000.0,-55.17578125
472.65625,-199.21875,35.64453125,-51.26953125
393.06640625,999.51171875,999.51171875,-45.8984375
180.6640625,752.44140625,407.71484375,-45.8984375
89.84375,-605.95703125,-892.578125,-42.96875
148.4375,-1000.0,-1000.0,-42.96875
474.609375,-210.44921875,-171.38671875,-37.109375
629.8828125,999.51171875,999.51171875,-32.71484375
392.578125,839.35546875,576.171875,-41.015625
119.140625,-470.703125,-773.4375,-48.33984375
137.6953125,-1000.0,-1000.0,-40.52734375
-448.2421875,-688.4765625,-202.1484375,-41.015625
-1000.0,644.04296875,999.51171875,-53.7109375
-660.64453125,999.51171875,863.76953125,-45.41015625
-546.38671875,-43.9453125,-415.52734375,-41.50390625
-478.515625,-1000.0,-1000.0,-38.57421875
-38.57421875,-641.6015625,-244.62890625,-35.15625
282.71484375,701.171875,999.51171875,-35.15625
175.29296875,999.51171875,976.07421875,-33.69140625
0.48828125,184.08203125,-208.49609375,-49.31640625
-33.203125,-1000.0,-1000.0,-62.5
254.8828125,-588.8671875,-315.91796875,-40.0390625
532.71484375,776.3671875,927.24609375,-20.01953125
363.76953125,999.51171875,999.51171875,-32.71484375
122.55859375,415.52734375,116.69921875,-40.52734375
-302.734375,-882.32421875,-1000.0,-31.73828125
-925.78125,-1000.0,-518.5546875,-23.92578125
-1000.0,-101.07421875,826.66015625,-23.4375
-753.90625,999.51171875,999.51171875,-41.9921875
-593.26171875,189.94140625,141.11328125,-53.7109375
-517.08984375,-1000.0,-1000.0,-42.96875
-151.3671875,-1000.0,-745.60546875,-28.3203125
290.52734375,145.99609375,594.7265625,-26.85546875
368.1640625,999.51171875,999.51171875,-44.921875
203.61328125,690.91796875,190.4296875,-50.29296875
-347.16796875,-718.26171875,-1000.0,-49.31640625
-415.52734375,-1000.0,-890.625,-33.69140625
165.52734375,312.5,398.92578125,-25.87890625
322.75390625,999.51171875,999.51171875,-53.7109375
75.1953125,898.4375,239.2578125,-62.01171875
-265.13671875,-283.203125,-989.74609375,-54.19921875
-139.16015625,-1000.0,-1000.0,-36.62109375
280.76171875,-205.56640625,-1.953125,-29.296875
436.03515625,999.51171875,999.51171875,-36.1328125
180.6640625,846.19140625,358.3984375,-45.8984375
-208.0078125,-480.46875,-932.6171875,-41.015625
-131.8359375,-1000.0,-1000.0,-25.87890625
331.0546875,-173.828125,-150.390625,-27.34375
502.44140625,997.0703125,999.51171875,-36.1328125
271.97265625,999.51171875,625.0,-41.9921875
-33.69140625,-80.56640625,-722.65625,-35.15625
-53.22265625,-1000.0,-1000.0,-15.13671875
327.63671875,-222.65625,-182.12890625,-20.99609375
536.62109375,978.515625,999.51171875,-44.43359375
377.44140625,999.51171875,832.03125,-58.10546875
151.3671875,75.68359375,-464.84375,-56.15234375
106.4453125,-1000.0,-1000.0,-58.10546875
422.8515625,-356.93359375,-206.0546875,-45.41015625
597.65625,922.8515625,999.51171875,-57.12890625
403.80859375,999.51171875,965.8203125,-76.66015625
139.16015625,195.80078125,-215.8203125,-72.265625
16.6015625,-1000.0,-1000.0,-72.265625
309.5703125,-875.48828125,-323.73046875,-56.640625
439.94140625,454.58984375,939.94140625,-49.31640625
78.125,999.51171875,999.51171875,-54.6875
-264.16015625,154.296875,5.859375,-56.15234375
-319.82421875,-1000.0,-1000.0,-50.78125
-153.80859375,-1000.0,-490.72265625,-38.57421875
-43.45703125,238.76953125,836.42578125,-40.0390625
-139.16015625,999.51171875,999.51171875,-54.19921875
-265.13671875,214.35546875,139.6484375,-59.5703125
-269.04296875,-1000.0,-1000.0,-60.546875
36.62109375,-553.7109375,-591.30859375,-51.7578125
407.2265625,827.63671875,763.18359375,-41.015625
370.1171875,999.51171875,999.51171875,-44.921875
104.98046875,209.9609375,163.0859375,-47.36328125
-83.0078125,-986.328125,-1000.0,-45.8984375
-40.52734375,-1000.0,-898.4375,-35.64453125
202.63671875,-85.9375,381.8359375,-31.25
274.4140625,999.51171875,999.51171875,-47.8515625
-10.25390625,518.06640625,199.21875,-44.921875
-564.94140625,-834.9609375,-1000.0,-44.921875
-466.796875,-1000.0,-1000.0,-29.78515625
113.76953125,-175.78125,99.12109375,-27.83203125
270.5078125,999.51171875,999.51171875,-47.8515625
100.5859375,999.51171875,409.66796875,-57.12890625
-74.21875,-145.99609375,-897.4609375,-60.546875
0.48828125,-1000.0,-1000.0,-38.57421875
368.65234375,-184.08203125,-78.125,-37.59765625
487.79296875,999.51171875,999.51171875,-55.17578125
243.65234375,999.51171875,461.42578125,-61.03515625
27.34375,-109.86328125,-807.6171875,-56.640625
46.38671875,-1000.0,-1000.0,-42.48046875
358.88671875,-202.63671875,-183.59375,-34.66796875
500.0,967.28515625,999.51171875,-56.640625
288.57421875,999.51171875,756.8359375,-74.70703125
36.1328125,214.84375,-565.4296875,-67.3828125
-12.20703125,-1000.0,-1000.0,-47.8515625
303.22265625,-442.87109375,-198.2421875,-27.83203125
494.140625,915.52734375,999.51171875,-53.7109375
288.57421875,999.51171875,935.546875,-70.80078125
44.921875,95.21484375,-290.0390625,-54.6875
-31.73828125,-1000.0,-1000.0,-41.015625
223.14453125,-502.44140625,-244.140625,-44.43359375
444.82421875,850.5859375,972.65625,-62.98828125
303.7109375,999.51171875,999.51171875,-59.08203125
27.34375,207.51953125,-11.23046875,-56.640625
-107.91015625,-1000.0,-1000.0,-61.03515625
156.73828125,-445.3125,-349.12109375,-46.875
428.7109375,901.85546875,927.24609375,-42.48046875
299.8046875,999.51171875,999.51171875,-51.7578125
37.109375,163.0859375,108.88671875,-45.41015625
-113.28125,-1000.0,-1000.0,-41.015625
71.77734375,-1000.0,-643.5546875,-43.9453125
359.86328125,90.33203125,707.03125,-50.29296875
296.875,999.51171875,999.51171875,-58.10546875
24.90234375,515.13671875,155.2734375,-66.40625
-148.4375,-826.66015625,-1000.0,-49.31640625
-0.9765625,-1000.0,-851.5625,-42.96875
293.9453125,-82.51953125,454.1015625,-57.12890625
291.50390625,999.51171875,999.51171875,-56.15234375
30.76171875,441.89453125,187.01171875,-43.9453125
-171.875,-894.53125,-1000.0,-42.96875
-61.03515625,-1000.0,-1000.0,-57.12890625
251.46484375,-238.28125,156.25,-54.6875
314.453125,999.51171875,999.51171875,-37.59765625
55.6640625,642.578125,289.55078125,-34.66796875
-193.84765625,-762.6953125,-981.4453125,-50.29296875
-136.23046875,-1000.0,-1000.0,-51.7578125
208.984375,-73.73046875,15.625,-41.015625
284.1796875,999.51171875,999.51171875,-41.015625
41.50390625,999.51171875,483.88671875,-38.0859375
-171.38671875,-90.8203125,-831.54296875,-38.0859375
-165.52734375,-1000.0,-1000.0,-49.31640625
140.13671875,-246.09375,-166.015625,-40.0390625
275.87890625,999.51171875,999.51171875,-31.25
73.73046875,999.51171875,686.03515625,-36.1328125
-166.015625,-156.25,-654.296875,-43.9453125
-182.6171875,-1000.0,-1000.0,-41.9921875
116.2109375,-462.40234375,-198.73046875,-34.1796875
280.2734375,849.609375,999.51171875,-31.25
110.83984375,999.51171875,879.8828125,-35.15625
-146.484375,133.7890625,-388.18359375,-17.08984375
-211.42578125,-1000.0,-1000.0,-25.390625
70.80078125,-331.54296875,-221.19140625,-60.05859375
274.90234375,952.63671875,999.51171875,-38.0859375
119.62890625,999.51171875,997.55859375,-29.78515625
-144.04296875,143.06640625,-149.4140625,-38.0859375
-243.1640625,-1000.0,-1000.0,-26.85546875
9.27734375,-756.8359375,-372.0703125,-33.69140625
268.06640625,601.07421875,906.73828125,-48.828125
158.69140625,999.51171875,999.51171875,-41.50390625
-116.69921875,159.66796875,80.078125,-30.2734375
-264.6484375,-1000.0,-1000.0,-40.0390625
-65.91796875,-971.6796875,-579.58984375,-39.55078125
227.5390625,280.2734375,764.6484375,-29.296875
169.921875,999.51171875,999.51171875,-38.0859375
-104.4921875,288.0859375,159.66796875,-34.66796875
-255.859375,-1000.0,-1000.0,-26.85546875
-88.37890625,-1000.0,-775.390625,-24.90234375
201.171875,209.47265625,564.453125,-25.390625
192.3828125,999.51171875,999.51171875,-41.50390625
-86.42578125,421.38671875,178.7109375,-47.8515625
-259.765625,-895.5078125,-1000.0,-24.4140625
-130.859375,-1000.0,-956.54296875,-14.6484375
168.9453125,-58.10546875,287.59765625,-29.78515625
216.796875,999.51171875,999.51171875,-51.26953125
-47.36328125,608.88671875,257.32421875,-49.31640625
-242.1875,-738.28125,-986.328125,-36.62109375
-151.85546875,-1000.0,-1000.0,-26.85546875
152.34375,-228.515625,-2.44140625,-43.45703125
229.4921875,999.51171875,999.51171875,-62.01171875
-20.5078125,630.37109375,367.67578125,-64.453125
-268.5546875,-759.765625,-934.08203125,-69.3359375
-217.28515625,-1000.0,-1000.0,-48.33984375
114.2578125,-176.26953125,-99.609375,-41.015625
212.890625,998.53515625,999.51171875,-59.5703125
0.0,999.51171875,646.484375,-66.40625
-209.9609375,-117.67578125,-687.98828125,-65.91796875
-228.02734375,-1000.0,-1000.0,-64.453125
90.8203125,-179.6875,-180.17578125,-58.10546875
244.140625,999.51171875,999.51171875,-45.8984375
26.85546875,999.51171875,833.984375,-42.48046875
-204.1015625,-0.48828125,-453.61328125,-41.9921875
-258.7890625,-1000.0,-1000.0,-33.69140625
23.4375,-520.5078125,-211.9140625,-31.25
233.3984375,830.56640625,999.51171875,-35.15625
89.35546875,999.51171875,983.3984375,-41.9921875
-163.57421875,120.60546875,-190.91796875,-59.08203125
-285.15625,-1000.0,-1000.0,-62.01171875
-17.08984375,-522.94921875,-277.83203125,-54.6875
236.328125,843.26171875,945.80078125,-46.875
112.79296875,999.51171875,999.51171875,-44.921875
-149.4140625,194.3359375,108.88671875,-47.36328125
-290.52734375,-1000.0,-1000.0,-42.48046875
-68.84765625,-757.32421875,-460.44921875,-46.875
213.8671875,616.2109375,870.1171875,-50.78125
125.9765625,999.51171875,999.51171875,-53.22265625
-137.6953125,148.4375,150.390625,-49.31640625
-265.13671875,-1000.0,-1000.0,-35.64453125
-94.7265625,-1000.0,-704.58984375,-40.52734375
183.10546875,136.23046875,645.99609375,-51.7578125
160.15625,999.51171875,999.51171875,-57.6171875
-110.83984375,211.42578125,166.9921875,-52.734375
-278.80859375,-1000.0,-1000.0,-49.31640625
-128.41796875,-1000.0,-855.95703125,-43.9453125
162.109375,35.15625,441.40625,-33.69140625
174.8046875,999.51171875,999.51171875,-44.921875
-80.078125,353.515625,207.03125,-39.0625
-277.83203125,-925.78125,-1000.0,-41.015625
-171.875,-1000.0,-1000.0,-43.9453125
133.30078125,-241.69921875,61.03515625,-36.62109375
204.58984375,999.51171875,999.51171875,-57.12890625
-52.734375,675.29296875,352.05078125,-66.40625
-289.0625,-737.3046875,-949.21875,-57.6171875
-223.14453125,-1000.0,-1000.0,-57.12890625
113.28125,2.9296875,-32.2265625,-55.17578125
218.26171875,999.51171875,999.51171875,-49.31640625
-14.6484375,991.2109375,569.82421875,-43.45703125
-235.83984375,-142.578125,-756.34765625,-32.2265625
-232.91015625,-1000.0,-1000.0,-41.50390625
62.01171875,-212.40234375,-192.87109375,-55.6640625
206.0546875,999.51171875,999.51171875,-53.22265625
27.83203125,999.51171875,770.99609375,-44.43359375
-207.03125,-124.51171875,-550.29296875,-37.109375
-265.13671875,-1000.0,-1000.0,-48.828125
34.1796875,-444.82421875,-193.84765625,-47.36328125
229.00390625,854.00390625,999.51171875,-40.52734375
64.94140625,999.51171875,999.51171875,-45.8984375
-197.265625,202.1484375,-124.0234375,-38.57421875
-306.640625,-1000.0,-1000.0,-44.43359375
-23.4375,-697.75390625,-285.64453125,-41.015625
233.88671875,675.29296875,959.9609375,-44.43359375
83.0078125,999.51171875,999.51171875,-70.80078125
-200.68359375,281.25,24.4140625,-69.3359375
-314.453125,-1000.0,-1000.0,-62.5
-74.70703125,-874.51171875,-424.31640625,-62.98828125
199.70703125,489.2578125,887.20703125,-47.8515625
104.4921875,999.51171875,999.51171875,-58.10546875
-145.01953125,160.64453125,126.953125,-67.87109375
-276.3671875,-1000.0,-1000.0,-48.33984375
-100.09765625,-954.58984375,-606.4453125,-46.38671875
182.12890625,311.03515625,744.62890625,-54.6875
138.18359375,999.51171875,999.51171875,-57.12890625
-132.32421875,250.0,166.50390625,-46.875
-298.33984375,-981.93359375,-1000.0,-42.48046875
-137.20703125,-1000.0,-875.0,-54.6875
176.26953125,-19.53125,415.52734375,-62.5
180.6640625,999.51171875,999.51171875,-58.59375
-70.3125,709.9609375,236.81640625,-47.36328125
-281.73828125,-651.3671875,-1000.0,-39.0625
-178.7109375,-1000.0,-1000.0,-35.64453125
162.59765625,-20.99609375,178.7109375,-49.31640625
198.73046875,999.51171875,999.51171875,-46.875
-79.58984375,438.4765625,284.1796875,-47.36328125
-289.0625,-888.671875,-967.28515625,-44.43359375
-201.171875,-1000.0,-1000.0,-34.1796875
116.69921875,-202.63671875,-80.56640625,-35.64453125
211.42578125,999.51171875,999.51171875,-46.38671875
-20.5078125,970.703125,525.87890625,-48.828125
-273.92578125,-258.7890625,-809.08203125,-46.875
-239.2578125,-1000.0,-1000.0,-50.29296875
87.40234375,-206.54296875,-168.45703125,-52.24609375
210.44921875,954.58984375,999.51171875,-50.78125
31.25,999.51171875,832.51953125,-51.7578125
-199.21875,226.07421875,-462.40234375,-55.6640625
-261.71875,-1000.0,-1000.0,-43.9453125
47.36328125,-362.79296875,-191.89453125,-35.15625
243.65234375,960.9375,999.51171875,-42.96875
38.57421875,999.51171875,918.9453125,-45.41015625
-205.56640625,52.734375,-314.453125,-33.69140625
-271.97265625,-1000.0,-1000.0,-29.78515625
-0.9765625,-624.51171875,-257.8125,-42.96875
222.65625,733.88671875,969.23828125,-60.05859375
74.70703125,999.51171875,999.51171875,-52.734375
-175.29296875,184.5703125,-31.25,-34.1796875
-280.76171875,-1000.0,-1000.0,-36.62109375
-40.0390625,-795.41015625,-369.62890625,-36.62109375
214.84375,565.4296875,914.0625,-34.1796875
117.1875,999.51171875,999.51171875,-34.1796875
-164.55078125,142.578125,104.4921875,-42.96875
-303.22265625,-1000.0,-1000.0,-41.50390625
-86.9140625,-1000.0,-645.99609375,-37.59765625
213.37890625,71.2890625,704.58984375,-35.15625
158.69140625,999.51171875,999.51171875,-36.1328125
-137.6953125,152.34375,145.5078125,-50.78125
-293.45703125,-1000.0,-1000.0,-63.4765625
-121.09375,-1000.0,-853.02734375,-63.4765625
164.0625,31.73828125,454.58984375,-60.546875
136.71875,999.51171875,999.51171875,-67.3828125
-147.4609375,294.921875,171.875,-66.40625
-340.8203125,-959.9609375,-1000.0,-60.546875
-211.42578125,-1000.0,-1000.0,-62.5
110.83984375,-183.10546875,190.4296875,-79.58984375
173.33984375,999.51171875,999.51171875,-72.265625
-73.73046875,638.18359375,271.97265625,-58.59375
-289.55078125,-733.3984375,-971.6796875,-58.59375
-216.30859375,-1000.0,-1000.0,-48.828125
111.328125,-164.0625,-86.9140625,-55.6640625
179.6875,967.7734375,999.51171875,-70.3125
-71.2890625,999.51171875,552.734375,-72.75390625
-270.99609375,127.9296875,-787.109375,-63.4765625
-240.72265625,-1000.0,-1000.0,-53.22265625
76.171875,-219.23828125,-180.6640625,-49.31640625
217.28515625,999.51171875,999.51171875,-41.9921875
5.859375,999.51171875,721.6796875,-49.31640625
-244.62890625,-53.22265625,-616.2109375,-48.828125
-266.11328125,-1000.0,-1000.0,-43.9453125
36.62109375,-430.6640625,-196.2890625,-49.8046875
216.796875,885.25390625,999.51171875,-46.875
46.875,999.51171875,894.53125,-44.43359375
-219.7265625,87.890625,-363.76953125,-54.19921875
-289.0625,-1000.0,-1000.0,-56.640625
6.8359375,-518.5546875,-227.5390625,-48.828125
218.26171875,840.8203125,988.76953125,-49.8046875
62.01171875,999.51171875,999.51171875,-52.734375
-191.40625,195.3125,-87.40234375,-46.875
-296.38671875,-1000.0,-1000.0,-36.1328125
-40.52734375,-660.15625,-342.28515625,-52.734375
223.14453125,729.4921875,925.78125,-56.640625
87.890625,999.51171875,999.51171875,-46.38671875
-189.94140625,172.8515625,90.33203125,-49.8046875
-304.19921875,-1000.0,-1000.0,-43.9453125
-85.9375,-897.94921875,-570.3125,-44.43359375
192.3828125,400.390625,771.97265625,-60.546875
142.578125,999.51171875,999.51171875,-60.546875
-126.46484375,321.2890625,173.828125,-41.50390625
-294.43359375,-955.56640625,-1000.0,-36.62109375
-113.76953125,-1000.0,-824.70703125,-34.1796875
181.640625,25.87890625,501.46484375,-41.015625
148.92578125,999.51171875,999.51171875,-49.8046875
-115.72265625,393.5546875,177.734375,-40.0390625
-301.7578125,-940.4296875,-1000.0,-30.76171875
-171.38671875,-1000.0,-961.9140625,-39.55078125
146.97265625,36.62109375,276.3671875,-43.9453125
172.36328125,999.51171875,999.51171875,-50.78125
-66.40625,874.0234375,299.8046875,-52.734375
-271.97265625,-393.5546875,-974.12109375,-53.22265625
-199.21875,-1000.0,-1000.0,-60.546875
130.37109375,-76.66015625,44.43359375,-60.546875
205.56640625,999.51171875,999.51171875,-54.6875
-69.82421875,581.54296875,375.9765625,-53.7109375
-306.640625,-777.83203125,-914.0625,-60.05859375
-242.67578125,-1000.0,-1000.0,-54.6875
88.8671875,-175.78125,-158.203125,-53.22265625
211.42578125,981.93359375,999.51171875,-55.17578125
-13.18359375,999.51171875,668.9453125,-62.98828125
-251.953125,-12.20703125,-676.26953125,-52.24609375
-270.99609375,-1000.0,-1000.0,-41.50390625
37.59765625,-166.9921875,-170.41015625,-60.546875
207.03125,992.1875,999.51171875,-62.98828125
36.1328125,999.51171875,826.66015625,-42.96875
-222.16796875,168.9453125,-463.8671875,-52.734375
-309.5703125,-1000.0,-1000.0,-71.77734375
10.25390625,-197.75390625,-191.89453125,-52.734375
230.46875,999.0234375,999.51171875,-47.8515625
51.26953125,999.51171875,993.65234375,-57.6171875
-195.80078125,202.1484375,-150.390625,-48.828125
-273.92578125,-1000.0,-1000.0,-41.015625
-24.90234375,-744.62890625,-318.84765625,-41.50390625
194.3359375,627.44140625,939.453125,-46.875
77.63671875,999.51171875,999.51171875,-42.96875
-186.03515625,156.73828125,45.8984375,-41.50390625
-291.9921875,-1000.0,-1000.0,-43.9453125
-71.77734375,-999.0234375,-531.25,-44.921875
175.29296875,235.3515625,804.6875,-59.5703125
118.65234375,999.51171875,999.51171875,-64.94140625
-152.34375,250.0,160.15625,-59.5703125
-319.82421875,-1000.0,-1000.0,-42.48046875
-118.65234375,-1000.0,-707.03125,-31.73828125
184.5703125,160.64453125,640.13671875,-35.15625
150.87890625,999.51171875,999.51171875,-41.50390625
-97.16796875,847.16796875,183.10546875,-42.48046875
-275.390625,-402.83203125,-1000.0,-37.59765625
-145.5078125,-1000.0,-938.4765625,-42.48046875
163.57421875,-118.1640625,321.2890625,-50.78125
152.34375,999.51171875,999.51171875,-56.15234375
-105.95703125,697.75390625,231.93359375,-66.89453125
-295.41015625,-654.296875,-1000.0,-65.4296875
-190.4296875,-1000.0,-1000.0,-61.03515625
131.8359375,-226.5625,38.0859375,-50.78125
193.359375,999.51171875,999.51171875,-48.33984375
-47.8515625,619.62890625,338.37890625,-51.7578125
-273.4375,-775.390625,-950.1953125,-48.33984375
-226.07421875,-1000.0,-1000.0,-42.96875
99.609375,-169.921875,-84.47265625,-48.828125
202.63671875,999.51171875,999.51171875,-52.734375
-32.71484375,917.96875,566.40625,-43.45703125
-255.859375,-351.5625,-771.97265625,-38.0859375
-250.48828125,-1000.0,-1000.0,-43.9453125
70.80078125,-181.640625,-183.10546875,-56.640625
226.07421875,976.5625,999.51171875,-61.03515625
21.484375,999.51171875,810.546875,-58.10546875
-229.4921875,78.61328125,-494.140625,-55.17578125
-290.52734375,-1000.0,-1000.0,-48.33984375
0.48828125,-419.921875,-202.63671875,-46.38671875
202.63671875,895.5078125,999.51171875,-52.734375
66.89453125,999.51171875,973.14453125,-53.22265625
-196.77734375,186.5234375,-212.40234375,-50.29296875
-301.7578125,-1000.0,-1000.0,-52.734375
-25.390625,-647.94921875,-291.50390625,-65.4296875
216.796875,767.08984375,979.00390625,-62.01171875
65.4296875,999.51171875,996.58203125,-52.24609375
-195.80078125,48.828125,-106.93359375,-44.921875
-283.69140625,-1000.0,-1000.0,-39.0625
-72.75390625,-989.74609375,-467.28515625,-46.875
193.359375,222.16796875,841.30859375,-53.22265625
116.2109375,999.51171875,999.51171875,-54.19921875
-140.13671875,589.35546875,167.96875,-54.6875
-285.64453125,-785.64453125,-1000.0,-53.22265625
-116.69921875,-1000.0,-693.359375,-49.8046875
164.55078125,119.62890625,664.55078125,-59.5703125
136.23046875,999.51171875,999.51171875,-51.7578125
-119.62890625,238.76953125,163.57421875,-41.9921875
-296.875,-988.28125,-1000.0,-41.9921875
-151.85546875,-1000.0,-892.08984375,-26.3671875
173.33984375,-107.91015625,393.06640625,-32.2265625
182.6171875,999.51171875,999.51171875,-55.17578125
-91.30859375,674.31640625,223.6328125,-42.48046875
-284.1796875,-761.71875,-1000.0,-23.4375
-180.6640625,-1000.0,-987.79296875,-38.0859375
144.53125,218.26171875,243.65234375,-51.7578125
201.171875,999.51171875,999.51171875,-45.8984375
-49.8046875,653.3203125,312.01171875,-46.38671875
-281.25,-647.94921875,-944.3359375,-32.71484375
-226.07421875,-1000.0,-1000.0,-38.57421875
94.7265625,-216.796875,-110.3515625,-51.7578125
204.1015625,999.51171875,999.51171875,-52.24609375
-26.3671875,749.51171875,479.00390625,-53.7109375
-257.8125,-617.67578125,-855.95703125,-36.62109375
-221.6796875,-1000.0,-1000.0,-32.71484375
87.40234375,-169.921875,-175.29296875,-37.59765625
213.8671875,984.375,999.51171875,-37.109375
13.18359375,999.51171875,750.9765625,-44.921875
-234.375,-1.46484375,-574.21875,-52.734375
-265.625,-1000.0,-1000.0,-33.69140625
47.8515625,-378.90625,-196.77734375,-31.25
231.4453125,917.96875,999.51171875,-42.48046875
43.9453125,999.51171875,919.921875,-40.52734375
-204.1015625,92.28515625,-318.359375,-46.38671875
-289.55078125,-1000.0,-1000.0,-41.015625
-12.20703125,-493.65234375,-250.9765625,-30.76171875
241.2109375,850.5859375,970.703125,-36.1328125
97.65625,999.51171875,999.51171875,-41.50390625
-187.5,232.91015625,-20.5078125,-46.875
-295.8984375,-1000.0,-1000.0,-55.17578125
-52.734375,-871.58203125,-409.66796875,-54.19921875
196.77734375,473.6328125,894.53125,-45.41015625
108.88671875,999.51171875,999.51171875,-46.38671875
-179.6875,165.52734375,117.67578125,-47.8515625
-332.03125,-1000.0,-1000.0,-52.734375
-107.421875,-989.2578125,-615.234375,-48.33984375
195.3125,262.20703125,739.2578125,-42.48046875
147.4609375,999.51171875,999.51171875,-50.78125
-121.58203125,246.09375,169.921875,-43.45703125
-296.38671875,-1000.0,-1000.0,-52.734375
-138.671875,-736.81640625,-719.23828125,-62.98828125
173.828125,643.5546875,629.39453125,-47.8515625
151.85546875,999.51171875,999.51171875,-44.921875
-108.88671875,687.5,201.171875,-33.203125
-297.8515625,-594.23828125,-1000.0,-30.76171875
-185.05859375,-1000.0,-1000.0,-39.0625
137.20703125,-227.5390625,196.2890625,-46.38671875
184.5703125,999.51171875,999.51171875,-43.45703125
-74.70703125,580.078125,270.99609375,-51.26953125
-281.73828125,-811.03515625,-985.83984375,-50.78125
-190.91796875,-1000.0,-1000.0,-45.41015625
134.27734375,-206.0546875,-0.48828125,-45.41015625
215.33203125,999.51171875,999.51171875,-41.015625
-23.4375,873.53515625,445.80078125,-35.64453125
-244.140625,-437.98828125,-871.58203125,-33.69140625
-225.09765625,-1000.0,-1000.0,-45.41015625
99.12109375,-179.19921875,-148.92578125,-55.17578125
224.12109375,999.51171875,999.51171875,-63.96484375
-28.3203125,999.51171875,682.6171875,-68.84765625
-263.18359375,-146.97265625,-657.71484375,-59.5703125
-259.27734375,-1000.0,-1000.0,-49.8046875
60.546875,-221.6796875,-189.94140625,-46.38671875
229.4921875,956.0546875,999.51171875,-44.43359375
29.78515625,999.51171875,880.37109375,-49.8046875
-224.12109375,224.12109375,-379.8828125,-46.38671875
-265.625,-1000.0,-1000.0,-44.43359375
15.625,-654.296875,-238.76953125,-51.7578125
190.91796875,757.8125,999.51171875,-58.59375
36.62109375,999.51171875,978.02734375,-55.17578125
-210.9375,42.48046875,-202.1484375,-48.828125
-282.71484375,-1000.0,-1000.0,-46.38671875
-25.87890625,-805.17578125,-354.4921875,-48.33984375
210.9375,518.06640625,910.64453125,-59.5703125
101.07421875,999.51171875,999.51171875,-41.9921875
-175.78125,194.82421875,92.28515625,-30.2734375
-273.4375,-1000.0,-1000.0,-59.5703125
-38.0859375,-496.09375,-448.2421875,-54.19921875
200.68359375,872.55859375,876.953125,-47.36328125
119.62890625,999.51171875,999.51171875,-47.36328125
-137.6953125,150.87890625,145.99609375,-40.0390625
-286.1328125,-1000.0,-1000.0,-35.64453125
-110.3515625,-1000.0,-783.69140625,-36.1328125
176.7578125,-21.97265625,547.8515625,-59.5703125
145.5078125,999.51171875,999.51171875,-56.640625
-128.41796875,336.42578125,166.50390625,-49.31640625
-307.6171875,-950.68359375,-1000.0,-50.29296875
-161.1328125,-1000.0,-950.68359375,-37.59765625
141.11328125,-103.02734375,288.57421875,-38.0859375
159.1796875,999.51171875,999.51171875,-47.36328125
-63.96484375,999.51171875,312.01171875,-43.9453125
-272.94921875,-121.09375,-957.51953125,-49.31640625
-216.30859375,-1000.0,-1000.0,-48.33984375
112.79296875,-217.28515625,-10.7421875,-39.0625
204.1015625,999.51171875,999.51171875,-56.640625
-25.390625,809.08203125,374.51171875,-47.8515625
-261.71875,-532.2265625,-926.7578125,-40.52734375
-239.2578125,-1000.0,-1000.0,-42.48046875
83.0078125,-156.73828125,-126.46484375,-31.25
202.63671875,966.796875,999.51171875,-37.109375
-11.71875,999.51171875,604.98046875,-44.43359375
-223.14453125,185.05859375,-734.375,-26.3671875
-223.14453125,-1000.0,-1000.0,-24.4140625
98.6328125,-258.7890625,-179.19921875,-29.296875
259.27734375,999.51171875,999.51171875,-32.2265625
33.203125,999.51171875,785.64453125,-33.203125
-222.65625,-162.59765625,-525.87890625,-34.66796875
-266.6015625,-1000.0,-1000.0,-23.92578125
24.90234375,-438.96484375,-203.61328125,-24.4140625
222.16796875,854.98046875,999.51171875,-23.92578125
65.4296875,999.51171875,984.86328125,-17.578125
-182.6171875,193.84765625,-189.94140625,-14.6484375
-283.69140625,-1000.0,-1000.0,-19.53125
4.39453125,-209.9609375,-230.95703125,-33.69140625
242.67578125,999.0234375,979.00390625,-40.0390625
92.7734375,999.51171875,999.51171875,-35.15625
-154.78515625,190.4296875,26.85546875,-24.4140625
-280.2734375,-1000.0,-1000.0,-20.99609375
-53.7109375,-1000.0,-479.98046875,-23.4375
217.28515625,203.125,843.75,-20.5078125
155.2734375,999.51171875,999.51171875,-21.97265625
-123.53515625,195.3125,147.4609375,-18.5546875
-277.83203125,-1000.0,-1000.0,-14.6484375
-81.0546875,-1000.0,-678.22265625,-37.109375
204.1015625,108.3984375,673.33984375,-47.36328125
162.109375,999.51171875,999.51171875,-35.15625
-121.58203125,359.375,180.6640625,-24.90234375
-282.2265625,-918.9453125,-1000.0,-16.6015625
-131.8359375,-1000.0,-923.828125,-21.484375
148.4375,-216.796875,345.703125,-32.2265625
174.31640625,999.51171875,999.51171875,-28.80859375
-82.03125,458.984375,209.47265625,-25.87890625
-283.203125,-915.0390625,-1000.0,-25.390625
-166.9921875,-1000.0,-1000.0,-42.96875
135.7421875,-103.515625,134.27734375,-49.8046875
182.6171875,999.51171875,999.51171875,-35.15625
-51.7578125,974.609375,343.26171875,-31.73828125
-250.0,-209.47265625,-935.546875,-24.90234375
-202.63671875,-1000.0,-1000.0,-28.80859375
115.234375,-215.8203125,-112.79296875,-28.3203125
231.93359375,999.51171875,999.51171875,-30.2734375
-12.20703125,791.9921875,488.28125,-35.64453125
-252.9296875,-553.22265625,-843.75,-36.62109375
-229.98046875,-1000.0,-1000.0,-33.69140625
89.35546875,-201.171875,-177.734375,-38.0859375
216.30859375,971.6796875,999.51171875,-51.26953125
6.34765625,999.51171875,776.3671875,-42.48046875
-227.5390625,6.8359375,-541.50390625,-33.203125
-261.71875,-1000.0,-1000.0,-30.76171875
56.15234375,-181.15234375,-181.640625,-43.9453125
242.67578125,993.1640625,999.51171875,-48.828125
52.734375,999.51171875,959.9609375,-37.109375
-214.35546875,150.390625,-234.375,-40.0390625
-295.8984375,-1000.0,-1000.0,-52.734375
-27.83203125,-635.7421875,-260.25390625,-57.12890625
188.4765625,740.72265625,975.09765625,-58.10546875
55.6640625,999.51171875,999.51171875,-62.5
-206.54296875,152.34375,-44.43359375,-54.19921875
-302.734375,-1000.0,-1000.0,-49.31640625
-60.05859375,-970.703125,-437.5,-53.7109375
194.3359375,295.8984375,867.1875,-47.8515625
102.05078125,999.51171875,999.51171875,-61.5234375
-186.03515625,157.2265625,138.671875,-61.03515625
-317.3828125,-1000.0,-1000.0,-48.828125
-111.328125,-1000.0,-590.33203125,-59.08203125
168.9453125,216.30859375,762.20703125,-75.68359375
140.13671875,999.51171875,999.51171875,-76.171875
-125.48828125,208.0078125,152.83203125,-58.59375
-304.19921875,-1000.0,-1000.0,-51.26953125
-161.1328125,-1000.0,-844.7265625,-56.640625
148.92578125,33.69140625,460.9375,-62.01171875
156.73828125,999.51171875,999.51171875,-54.6875
-106.4453125,598.6328125,211.9140625,-45.8984375
-283.203125,-754.39453125,-1000.0,-47.8515625
-169.43359375,-1000.0,-988.28125,-56.15234375
139.16015625,-81.0546875,233.88671875,-53.7109375
190.91796875,999.51171875,999.51171875,-47.8515625
-55.6640625,590.8203125,287.59765625,-48.828125
-287.109375,-769.53125,-971.6796875,-46.38671875
-209.47265625,-1000.0,-1000.0,-50.29296875
123.046875,-219.23828125,-26.3671875,-43.45703125
197.265625,999.51171875,999.51171875,-42.96875
-41.50390625,734.86328125,424.8046875,-44.921875
-265.13671875,-636.71875,-888.671875,-40.52734375
-237.3046875,-1000.0,-1000.0,-40.52734375
88.37890625,-189.453125,-151.85546875,-41.50390625
212.40234375,999.51171875,999.51171875,-37.109375
-10.25390625,893.5546875,632.8125,-30.2734375
-235.3515625,-376.46484375,-706.54296875,-25.87890625
-244.140625,-1000.0,-1000.0,-27.34375
47.36328125,-352.5390625,-196.77734375,-45.41015625
210.9375,898.4375,999.51171875,-41.9921875
54.6875,999.51171875,896.97265625,-6.8359375
-192.3828125,129.8828125,-359.375,-20.01953125
-292.96875,-1000.0,-1000.0,-72.75390625
-47.36328125,-500.9765625,-223.14453125,-101.07421875
158.69140625,856.4453125,972.65625,-95.703125
18.5546875,999.51171875,999.51171875,-95.21484375
-257.32421875,178.7109375,21.484375,-97.16796875
-367.1875,-1000.0,-1000.0,-108.88671875
-112.3046875,-925.78125,-397.94921875,-109.375
145.01953125,375.48828125,909.1796875,-113.76953125
49.8046875,999.51171875,999.51171875,-110.83984375
-203.125,160.15625,85.9375,-83.984375
-332.03125,-1000.0,-1000.0,-74.21875
-133.7890625,-959.47265625,-575.1953125,-84.9609375
145.01953125,309.5703125,772.4609375,-78.61328125
96.6796875,999.51171875,999.51171875,-68.359375
-146.484375,246.09375,148.4375,-77.1484375
-300.29296875,-1000.0,-1000.0,-64.453125
-135.7421875,-758.30078125,-720.703125,-60.05859375
165.0390625,610.83984375,625.48828125,-65.91796875
139.16015625,999.51171875,999.51171875,-49.31640625
-122.55859375,325.68359375,169.43359375,-46.875
-304.19921875,-915.52734375,-1000.0,-55.17578125
-173.33984375,-1000.0,-985.83984375,-59.5703125
125.0,-210.9375,222.16796875,-56.15234375
162.109375,999.51171875,999.51171875,-53.22265625
-61.5234375,785.15625,285.15625,-43.9453125
-262.6953125,-610.83984375,-990.72265625,-35.64453125
-183.59375,-1000.0,-1000.0,-42.96875
149.4140625,82.51953125,76.66015625,-43.9453125
193.84765625,999.51171875,999.51171875,-37.59765625
-66.40625,979.98046875,405.2734375,-34.1796875
-270.01953125,-116.2109375,-890.13671875,-32.2265625
-238.28125,-1000.0,-1000.0,-32.71484375
77.63671875,-193.359375,-132.32421875,-46.38671875
201.171875,999.51171875,999.51171875,-55.17578125
-24.90234375,999.51171875,651.85546875,-60.05859375
-267.578125,-163.57421875,-686.03515625,-58.59375
-268.5546875,-1000.0,-1000.0,-44.43359375
48.828125,-301.7578125,-187.01171875,-55.17578125
197.265625,924.31640625,999.51171875,-53.7109375
11.23046875,999.51171875,882.8125,-51.26953125
-226.5625,201.66015625,-381.8359375,-50.29296875
-298.33984375,-1000.0,-1000.0,-38.57421875
-7.8125,-640.625,-223.14453125,-42.96875
199.21875,747.0703125,999.51171875,-59.5703125
55.6640625,999.51171875,995.60546875,-57.6171875
-201.66015625,186.03515625,-151.3671875,-41.015625
-326.66015625,-1000.0,-1000.0,-50.29296875
-62.98828125,-786.1328125,-322.75390625,-62.98828125
209.9609375,580.56640625,938.4765625,-65.91796875
83.49609375,999.51171875,999.51171875,-62.01171875
-203.61328125,156.25,45.8984375,-55.6640625
-309.08203125,-1000.0,-1000.0,-52.734375
-89.35546875,-997.0703125,-501.953125,-63.96484375
176.7578125,247.55859375,828.61328125,-58.59375
127.9296875,999.51171875,999.51171875,-53.7109375
-143.5546875,180.6640625,145.5078125,-56.640625
-311.03515625,-1000.0,-1000.0,-42.48046875
-115.234375,-1000.0,-762.6953125,-34.66796875
169.43359375,10.25390625,572.265625,-51.7578125
145.99609375,999.51171875,999.51171875,-60.546875
-95.703125,696.2890625,190.4296875,-42.48046875
-280.2734375,-679.19921875,-1000.0,-43.9453125
-159.1796875,-1000.0,-924.8046875,-56.640625
148.92578125,74.21875,353.02734375,-59.5703125
158.69140625,999.51171875,999.51171875,-55.6640625
-106.93359375,248.53515625,191.89453125,-42.48046875
-296.875,-971.6796875,-1000.0,-43.9453125
-188.4765625,-1000.0,-1000.0,-56.640625
121.58203125,-242.1875,48.33984375,-51.26953125
187.98828125,999.51171875,999.51171875,-56.15234375
-67.87109375,764.6484375,347.16796875,-67.3828125
-295.8984375,-595.21484375,-939.453125,-61.5234375
-225.09765625,-1000.0,-1000.0,-38.57421875
96.19140625,-154.78515625,-109.86328125,-38.0859375
196.77734375,961.9140625,999.51171875,-41.50390625
-3.90625,999.51171875,710.44921875,-37.109375
-228.515625,230.46875,-614.2578125,-36.1328125
-248.046875,-1000.0,-1000.0,-38.57421875
61.03515625,-377.9296875,-188.4765625,-52.734375
220.703125,965.33203125,999.51171875,-49.8046875
20.99609375,999.51171875,802.24609375,-45.41015625
-230.95703125,-21.97265625,-508.7890625,-58.10546875
-265.13671875,-1000.0,-1000.0,-45.41015625
20.01953125,-379.39453125,-196.77734375,-47.8515625
212.890625,907.71484375,999.51171875,-53.22265625
59.5703125,999.51171875,955.56640625,-50.78125
-209.47265625,154.296875,-243.65234375,-44.43359375
-315.91796875,-1000.0,-1000.0,-44.921875
-36.1328125,-633.30078125,-268.5546875,-62.01171875
203.61328125,745.60546875,951.171875,-55.6640625
64.94140625,999.51171875,999.51171875,-58.59375
-187.01171875,187.01171875,75.68359375,-47.8515625
-303.7109375,-1000.0,-1000.0,-38.57421875
-73.2421875,-770.01953125,-446.2890625,-46.875
196.2890625,601.5625,879.8828125,-53.7109375
112.79296875,999.51171875,999.51171875,-58.59375
-146.484375,173.828125,122.55859375,-46.875
-289.0625,-1000.0,-1000.0,-47.8515625
-99.609375,-855.46875,-630.859375,-55.6640625
163.0859375,477.5390625,723.6328125,-61.5234375
110.3515625,999.51171875,999.51171875,-71.2890625
-145.01953125,185.05859375,154.296875,-74.70703125
-311.03515625,-988.76953125,-1000.0,-60.05859375
-165.52734375,-1000.0,-908.69140625,-53.22265625
126.953125,-141.6015625,365.234375,-71.77734375
154.296875,999.51171875,999.51171875,-70.80078125
-100.09765625,453.61328125,199.21875,-46.875
-289.55078125,-895.5078125,-1000.0,-32.71484375
-181.640625,-1000.0,-1000.0,-54.6875
107.91015625,-157.71484375,128.90625,-69.3359375
179.19921875,988.76953125,999.51171875,-46.875
-41.50390625,999.51171875,386.23046875,-38.0859375
-282.71484375,-3.90625,-908.69140625,-51.7578125
-216.796875,-1000.0,-1000.0,-47.36328125
135.7421875,-206.0546875,-100.5859375,-42.48046875
214.35546875,999.51171875,999.51171875,-45.8984375
-18.06640625,986.328125,527.83203125,-44.43359375
-229.4921875,-232.421875,-810.546875,-34.1796875
-228.515625,-1000.0,-1000.0,-37.59765625
74.70703125,-175.78125,-165.0390625,-51.7578125
216.30859375,999.51171875,999.51171875,-51.26953125
3.90625,999.51171875,763.18359375,-42.96875
-253.41796875,-46.38671875,-559.08203125,-35.15625
-279.296875,-1000.0,-1000.0,-30.76171875
36.62109375,-204.1015625,-187.01171875,-43.45703125
214.84375,999.51171875,999.51171875,-48.33984375
55.17578125,999.51171875,892.578125,-40.0390625
-204.1015625,-32.2265625,-359.86328125,-37.109375
-271.97265625,-1000.0,-1000.0,-32.2265625
-4.39453125,-629.39453125,-265.13671875,-45.8984375
194.82421875,711.42578125,972.16796875,-58.59375
73.2421875,999.51171875,999.51171875,-55.6640625
-184.08203125,173.828125,-77.63671875,-46.875
-303.22265625,-1000.0,-1000.0,-38.0859375
-49.8046875,-838.8671875,-385.7421875,-38.57421875
205.56640625,504.39453125,898.4375,-54.19921875
99.12109375,999.51171875,999.51171875,-50.29296875
-169.921875,164.0625,133.30078125,-39.55078125
-308.10546875,-1000.0,-1000.0,-45.8984375
-90.8203125,-1000.0,-633.30078125,-62.01171875
177.24609375,98.6328125,721.19140625,-69.82421875
121.09375,999.51171875,999.51171875,-70.3125
-146.97265625,322.75390625,164.55078125,-64.453125
-317.87109375,-999.0234375,-1000.0,-48.33984375
-142.08984375,-1000.0,-818.84765625,-41.50390625
160.64453125,215.8203125,500.48828125,-47.36328125
152.83203125,999.51171875,999.51171875,-36.62109375
-95.21484375,907.2265625,214.84375,-40.0390625
-293.9453125,-281.73828125,-1000.0,-50.78125
-187.01171875,-1000.0,-1000.0,-53.22265625
123.53515625,-206.0546875,164.55078125,-55.6640625
154.78515625,999.51171875,999.51171875,-55.17578125
-78.61328125,566.40625,268.5546875,-53.22265625
-273.4375,-817.3828125,-981.4453125,-51.7578125
-203.125,-1000.0,-1000.0,-49.8046875
124.51171875,-216.30859375,-44.921875,-38.57421875
209.9609375,999.51171875,999.51171875,-38.0859375
-27.34375,816.89453125,444.82421875,-40.0390625
-261.23046875,-544.43359375,-885.25390625,-30.2734375
-234.375,-1000.0,-1000.0,-31.73828125
101.07421875,-46.875,-91.796875,-44.43359375
227.5390625,999.51171875,999.51171875,-43.45703125
7.32421875,999.51171875,694.3359375,-31.25
-236.81640625,-89.84375,-628.41796875,-42.96875
-261.23046875,-1000.0,-1000.0,-52.24609375
73.2421875,-178.7109375,-189.94140625,-43.9453125
231.93359375,998.53515625,999.51171875,-41.015625
28.80859375,999.51171875,875.0,-45.8984375
-209.9609375,30.76171875,-391.6015625,-39.55078125
-285.64453125,-1000.0,-1000.0,-34.66796875
-3.90625,-612.3046875,-244.140625,-41.015625
212.40234375,743.65234375,989.2578125,-55.6640625
63.4765625,999.51171875,999.51171875,-56.640625
-191.89453125,161.62109375,-130.859375,-47.8515625
-264.6484375,-1000.0,-1000.0,-56.15234375
-14.6484375,-679.19921875,-347.65625,-68.84765625
197.75390625,702.63671875,921.875,-49.8046875
92.7734375,999.51171875,999.51171875,-35.15625
-160.64453125,197.265625,76.66015625,-49.31640625
-300.78125,-1000.0,-1000.0,-47.8515625
-86.42578125,-557.12890625,-464.84375,-48.828125
185.546875,813.4765625,855.46875,-51.26953125
106.93359375,999.51171875,999.51171875,-50.78125
-128.90625,692.87109375,174.8046875,-44.921875
-278.80859375,-639.6484375,-1000.0,-37.59765625
-153.80859375,-1000.0,-777.34375,-54.19921875
145.99609375,13.18359375,562.5,-64.94140625
161.1328125,999.51171875,999.51171875,-46.38671875
-110.3515625,258.30078125,170.8984375,-38.57421875
-300.29296875,-980.46875,-1000.0,-38.0859375
-162.109375,-1000.0,-973.14453125,-27.34375
141.11328125,-199.21875,255.859375,-42.48046875
162.109375,999.51171875,999.51171875,-58.59375
-95.703125,592.28515625,252.44140625,-43.9453125
-299.31640625,-844.23828125,-1000.0,-41.015625
-196.77734375,-1000.0,-1000.0,-44.921875
125.0,135.7421875,134.765625,-33.69140625
180.6640625,999.51171875,999.51171875,-46.38671875
-53.22265625,899.90234375,384.765625,-42.48046875
-280.76171875,-295.41015625,-900.390625,-27.83203125
-243.1640625,-1000.0,-1000.0,-30.2734375
75.1953125,-209.47265625,-142.578125,-42.48046875
189.94140625,999.51171875,999.51171875,-49.31640625
-21.484375,806.15234375,561.03515625,-52.734375
-266.6015625,-514.6484375,-781.25,-39.0625
-271.97265625,-1000.0,-1000.0,-23.4375
46.875,-336.42578125,-197.265625,-41.50390625
214.35546875,899.4140625,999.51171875,-45.41015625
30.2734375,999.51171875,873.53515625,-37.59765625
-219.23828125,150.87890625,-397.4609375,-35.64453125
-288.0859375,-1000.0,-1000.0,-42.48046875
0.0,-618.65234375,-219.23828125,-47.8515625
208.0078125,759.27734375,999.51171875,-48.33984375
52.24609375,999.51171875,998.046875,-47.8515625
-205.56640625,193.359375,-155.2734375,-41.015625
-305.6640625,-1000.0,-1000.0,-34.66796875
-28.80859375,-570.80078125,-295.41015625,-39.0625
207.51953125,795.41015625,944.3359375,-39.0625
80.078125,999.51171875,999.51171875,-42.96875
-152.83203125,430.6640625,85.44921875,-61.03515625
-307.12890625,-953.61328125,-1000.0,-53.22265625
-97.16796875,-1000.0,-503.41796875,-25.87890625
197.265625,317.3828125,838.8671875,-35.15625
106.4453125,999.51171875,999.51171875,-61.03515625
-157.2265625,148.4375,122.0703125,-50.29296875
-291.015625,-1000.0,-1000.0,-35.15625
-102.5390625,-1000.0,-691.89453125,-39.0625
187.5,139.16015625,652.34375,-39.55078125
149.90234375,999.51171875,999.51171875,-41.9921875
-108.88671875,396.97265625,171.875,-47.8515625
-279.296875,-960.44921875,-1000.0,-38.57421875
-133.30078125,-1000.0,-856.93359375,-39.0625
154.296875,182.12890625,445.3125,-49.8046875
145.01953125,999.51171875,999.51171875,-44.921875
-106.93359375,514.16015625,219.7265625,-36.62109375
-295.8984375,-802.24609375,-1000.0,-35.15625
-195.80078125,-1000.0,-1000.0,-41.015625
123.046875,-177.734375,77.63671875,-41.50390625
199.70703125,999.51171875,999.51171875,-58.59375
-33.203125,995.60546875,391.11328125,-62.01171875
-271.97265625,-205.56640625,-908.69140625,-38.57421875
-219.7265625,-1000.0,-1000.0,-34.66796875
99.609375,-200.1953125,-99.12109375,-40.0390625
193.84765625,999.51171875,999.51171875,-46.875
-5.37109375,917.96875,566.40625,-51.26953125
-252.44140625,-346.6796875,-773.92578125,-46.875
-264.6484375,-1000.0,-1000.0,-54.6875
62.5,-301.26953125,-184.5703125,-55.17578125
213.8671875,946.77734375,999.51171875,-48.828125
8.30078125,999.51171875,782.71484375,-53.7109375
-241.69921875,-42.96875,-533.203125,-57.12890625
-285.64453125,-1000.0,-1000.0,-55.6640625
12.6953125,-373.046875,-195.3125,-62.5
203.125,900.87890625,999.51171875,-72.75390625
40.0390625,999.51171875,964.35546875,-71.77734375
-210.9375,201.171875,-218.75,-61.03515625
-296.875,-1000.0,-1000.0,-54.19921875
-33.69140625,-818.84765625,-291.015625,-55.6640625
193.84765625,538.57421875,965.33203125,-65.91796875
72.265625,999.51171875,999.51171875,-69.3359375
-177.734375,145.99609375,-57.6171875,-55.6640625
-292.96875,-1000.0,-1000.0,-51.7578125
-63.4765625,-840.8203125,-442.3828125,-56.15234375
191.40625,490.234375,862.79296875,-60.546875
107.421875,999.51171875,999.51171875,-62.5
-160.15625,238.28125,141.11328125,-53.7109375
-313.96484375,-1000.0,-1000.0,-45.8984375
-99.609375,-613.28125,-582.51953125,-53.22265625
204.58984375,763.671875,768.06640625,-48.33984375
138.18359375,999.51171875,999.51171875,-46.38671875
-144.53125,526.3671875,181.640625,-59.5703125
-296.875,-803.22265625,-1000.0,-50.78125
-145.5078125,-1000.0,-895.01953125,-47.8515625
156.73828125,-71.2890625,392.578125,-40.0390625
163.0859375,999.51171875,999.51171875,-45.41015625
-101.5625,536.1328125,208.49609375,-57.6171875
-289.0625,-819.82421875,-1000.0,-48.33984375
-180.17578125,-1000.0,-1000.0,-43.9453125
138.671875,-205.56640625,113.76953125,-49.8046875
192.87109375,999.51171875,999.51171875,-55.17578125
-51.26953125,708.49609375,312.98828125,-54.19921875
-276.85546875,-662.59765625,-954.1015625,-53.7109375
-213.37890625,-1000.0,-1000.0,-50.29296875
114.74609375,-165.0390625,-103.515625,-41.015625
198.73046875,973.14453125,999.51171875,-30.76171875
-12.20703125,999.51171875,563.96484375,-33.203125
-233.88671875,84.9609375,-776.85546875,-39.55078125
-238.76953125,-1000.0,-1000.0,-42.48046875
84.47265625,-237.79296875,-176.7578125,-34.66796875
216.796875,973.14453125,999.51171875,-40.52734375
4.8828125,999.51171875,700.68359375,-51.26953125
-229.98046875,229.00390625,-631.8359375,-46.875
-261.71875,-1000.0,-1000.0,-49.8046875
34.66796875,-472.16796875,-201.66015625,-58.10546875
212.890625,936.03515625,999.51171875,-56.15234375
46.38671875,999.51171875,863.28125,-48.33984375
-199.70703125,-125.9765625,-415.0390625,-44.921875
-270.01953125,-1000.0,-1000.0,-41.015625
17.578125,-409.1796875,-229.4921875,-31.25
222.65625,875.9765625,977.05078125,-31.73828125
52.734375,999.51171875,999.51171875,-31.73828125
-193.84765625,213.37890625,-35.64453125,-42.48046875
-290.52734375,-1000.0,-1000.0,-48.828125
-40.52734375,-446.77734375,-327.1484375,-41.015625
213.8671875,900.390625,935.05859375,-43.45703125
96.19140625,999.51171875,999.51171875,-46.875
-165.52734375,167.48046875,109.86328125,-53.7109375
-285.64453125,-1000.0,-1000.0,-55.17578125
-91.30859375,-1000.0,-595.21484375,-46.38671875
166.9921875,148.92578125,753.90625,-37.59765625
128.41796875,999.51171875,999.51171875,-41.015625
-136.71875,261.71875,162.59765625,-42.96875
-299.31640625,-996.09375,-1000.0,-35.15625
-125.48828125,-1000.0,-803.7109375,-27.83203125
168.9453125,65.91796875,518.5546875,-34.1796875
164.0625,999.51171875,999.51171875,-48.828125
-86.9140625,857.421875,217.28515625,-41.50390625
-286.1328125,-381.8359375,-1000.0,-23.92578125
-198.2421875,-1000.0,-1000.0,-20.99609375
107.91015625,-213.37890625,186.5234375,-47.8515625
163.0859375,999.51171875,999.51171875,-56.640625
-65.91796875,693.84765625,277.83203125,-30.76171875
-255.37109375,-685.05859375,-980.46875,-13.671875
-183.10546875,-1000.0,-1000.0,-11.71875
128.41796875,-174.31640625,-16.6015625,-23.4375
209.47265625,988.28125,999.51171875,-34.1796875
-8.30078125,999.51171875,461.9140625,-39.0625
-229.98046875,-46.875,-857.421875,-37.109375
-221.19140625,-1000.0,-1000.0,-28.80859375
101.5625,-202.63671875,-149.90234375,-21.97265625
224.12109375,999.51171875,999.51171875,-37.59765625
3.41796875,978.02734375,660.15625,-41.015625
-226.07421875,-228.02734375,-682.12890625,-31.73828125
-233.3984375,-1000.0,-1000.0,-47.36328125
65.4296875,-328.61328125,-198.73046875,-47.36328125
220.703125,942.3828125,999.51171875,-34.66796875
37.109375,999.51171875,836.42578125,-44.921875
-204.1015625,-63.4765625,-458.49609375,-49.8046875
-260.7421875,-1000.0,-1000.0,-34.66796875
34.1796875,-191.40625,-199.21875,-34.1796875
224.609375,977.05078125,999.51171875,-37.59765625
57.6171875,999.51171875,991.2109375,-29.78515625
-184.5703125,194.82421875,-156.25,-24.4140625
-288.0859375,-1000.0,-1000.0,-15.13671875
-45.8984375,-798.828125,-342.28515625,-9.27734375
211.42578125,558.59375,927.734375,-13.671875
101.5625,999.51171875,999.51171875,-32.2265625
-175.29296875,156.25,42.96875,-35.15625
-292.48046875,-1000.0,-1000.0,-30.2734375
-68.359375,-988.28125,-549.31640625,-18.06640625
196.2890625,251.953125,787.59765625,-20.01953125
139.16015625,999.51171875,999.51171875,-38.57421875
-125.48828125,261.71875,158.69140625,-38.57421875
-292.96875,-972.16796875,-1000.0,-28.3203125
-126.46484375,-1000.0,-798.828125,-23.92578125
180.17578125,-83.984375,528.3203125,-32.71484375
163.57421875,999.51171875,999.51171875,-44.43359375
-121.58203125,493.65234375,173.828125,-48.33984375
-297.36328125,-879.8828125,-1000.0,-45.8984375
-162.109375,-1000.0,-971.19140625,-33.69140625
149.4140625,-70.3125,268.5546875,-34.1796875
183.59375,999.51171875,999.51171875,-43.9453125
-91.30859375,460.9375,208.984375,-43.45703125
-283.203125,-881.34765625,-1000.0,-43.9453125
-179.6875,-1000.0,-1000.0,-37.109375
123.53515625,-229.98046875,5.37109375,-42.96875
192.87109375,999.51171875,999.51171875,-45.41015625
-41.015625,721.19140625,341.796875,-45.41015625
-255.37109375,-648.4375,-938.96484375,-59.08203125
-233.88671875,-1000.0,-1000.0,-55.6640625
83.0078125,-213.8671875,-171.38671875,-58.59375
209.9609375,992.67578125,999.51171875,-46.875
0.9765625,999.51171875,586.9140625,-32.2265625
-238.76953125,-159.1796875,-767.08984375,-41.50390625
-248.53515625,-1000.0,-1000.0,-34.1796875
76.171875,-184.08203125,-170.41015625,-36.62109375
227.05078125,999.51171875,999.51171875,-52.734375
40.0390625,986.81640625,764.6484375,-34.66796875
-211.42578125,-189.94140625,-551.7578125,-31.73828125
-277.83203125,-1000.0,-1000.0,-37.59765625
23.4375,-458.0078125,-208.0078125,-27.83203125
220.21484375,844.7265625,999.51171875,-36.62109375
56.640625,999.51171875,979.00390625,-39.55078125
-196.2890625,179.6875,-198.2421875,-33.203125
-281.73828125,-1000.0,-1000.0,-38.0859375
-13.671875,-540.0390625,-286.62109375,-36.1328125
220.703125,839.84375,944.3359375,-40.0390625
99.609375,999.51171875,999.51171875,-40.52734375
-152.34375,200.68359375,87.890625,-37.59765625
-285.15625,-1000.0,-1000.0,-26.85546875
-65.91796875,-659.66796875,-455.078125,-25.390625
213.37890625,729.00390625,871.09375,-30.2734375
145.5078125,999.51171875,999.51171875,-27.34375
-135.25390625,148.4375,131.34765625,-23.4375
-296.875,-1000.0,-1000.0,-24.4140625
-104.98046875,-1000.0,-721.19140625,-24.4140625
175.78125,63.4765625,622.55859375,-31.25
141.6015625,999.51171875,999.51171875,-37.109375
-119.140625,343.26171875,154.78515625,-37.109375
-291.50390625,-938.4765625,-1000.0,-47.8515625
-143.06640625,-1000.0,-940.91796875,-35.64453125
159.66796875,-152.34375,312.98828125,-42.48046875
183.59375,999.51171875,999.51171875,-49.31640625
-91.30859375,439.94140625,202.1484375,-29.78515625
-309.08203125,-924.31640625,-1000.0,-26.85546875
-194.82421875,-1000.0,-1000.0,-31.25
137.20703125,-72.75390625,153.3203125,-42.96875
213.37890625,999.51171875,999.51171875,-46.38671875
-43.45703125,677.24609375,324.21875,-40.0390625
-277.83203125,-677.734375,-952.63671875,-28.3203125
-210.9375,-1000.0,-1000.0,-29.78515625
114.2578125,-136.23046875,-56.640625,-27.34375
217.7734375,999.51171875,999.51171875,-33.69140625
-16.6015625,788.57421875,515.13671875,-47.36328125
-247.0703125,-524.4140625,-811.5234375,-32.2265625
-235.83984375,-1000.0,-1000.0,-29.296875
52.734375,-300.29296875,-190.91796875,-40.0390625
195.80078125,928.7109375,999.51171875,-41.9921875
11.23046875,999.51171875,801.26953125,-43.45703125
-222.65625,43.9453125,-511.23046875,-42.96875
-256.8359375,-1000.0,-1000.0,-29.296875
46.875,-323.2421875,-188.4765625,-28.80859375
227.05078125,935.05859375,999.51171875,-48.828125
48.828125,999.51171875,983.88671875,-54.19921875
-190.4296875,218.75,-180.6640625,-44.43359375
-276.3671875,-1000.0,-1000.0,-34.1796875
-13.18359375,-622.0703125,-289.0625,-34.1796875
210.9375,770.01953125,960.9375,-46.38671875
61.5234375,999.51171875,999.51171875,-56.640625
-203.125,166.9921875,-19.53125,-56.15234375
-300.29296875,-1000.0,-1000.0,-45.8984375
-69.3359375,-926.7578125,-448.73046875,-40.52734375
198.2421875,371.58203125,865.234375,-36.1328125
106.93359375,999.51171875,999.51171875,-52.734375
-170.41015625,194.82421875,121.58203125,-53.22265625
-300.29296875,-1000.0,-1000.0,-46.875
-93.26171875,-500.0,-520.5078125,-56.640625
207.51953125,865.234375,826.171875,-46.875
139.6484375,999.51171875,999.51171875,-42.48046875
-153.3203125,202.1484375,159.66796875,-41.9921875
-300.29296875,-991.69921875,-1000.0,-54.19921875
-145.99609375,-1000.0,-879.39453125,-60.05859375
131.34765625,-83.0078125,414.0625,-59.08203125
150.390625,999.51171875,999.51171875,-59.08203125
-108.3984375,333.49609375,172.8515625,-31.73828125
-277.34375,-970.703125,-1000.0,-26.85546875
-173.33984375,-1000.0,-1000.0,-46.38671875
108.3984375,-63.96484375,135.25390625,-26.3671875
166.50390625,999.51171875,999.51171875,7.32421875
-89.84375,641.11328125,277.83203125,-40.0390625
-327.63671875,-704.58984375,-972.16796875,-107.91015625
-278.80859375,-1000.0,-1000.0,-93.26171875
68.84765625,-202.63671875,-84.9609375,-19.53125
159.1796875,999.51171875,999.51171875,-12.6953125
-88.8671875,894.04296875,471.6796875,-79.1015625
-302.734375,-405.2734375,-858.88671875,-103.515625
-271.484375,-1000.0,-1000.0,-78.125
55.6640625,-154.296875,-165.0390625,-15.625
199.21875,966.796875,999.51171875,-1.46484375
-4.8828125,999.51171875,818.84765625,-29.296875
-245.60546875,233.3984375,-483.3984375,-70.80078125
-275.87890625,-1000.0,-1000.0,-75.68359375
23.92578125,-501.953125,-206.54296875,1.46484375
195.80078125,897.94921875,999.51171875,24.90234375
24.90234375,999.51171875,868.65234375,-23.92578125
-216.30859375,-2.44140625,-405.2734375,-58.10546875
-286.1328125,-1000.0,-1000.0,-66.40625
-6.34765625,-559.08203125,-253.41796875,-0.9765625
222.65625,788.0859375,976.07421875,33.69140625
64.94140625,999.51171875,999.51171875,-22.94921875
-203.125,203.61328125,-81.54296875,-52.24609375
-283.203125,-1000.0,-1000.0,-76.171875
-22.4609375,-560.546875,-337.40234375,-37.109375
218.75,829.58984375,933.59375,13.671875
93.75,999.51171875,999.51171875,-17.08984375
-154.296875,154.296875,58.59375,-53.7109375
-261.71875,-1000.0,-1000.0,-63.4765625
-80.078125,-1000.0,-591.796875,-29.78515625
174.8046875,143.5546875,748.53515625,-0.9765625
125.48828125,999.51171875,999.51171875,-18.5546875
-139.16015625,458.984375,155.2734375,-54.6875
-289.55078125,-896.97265625,-1000.0,-77.63671875
-117.67578125,-1000.0,-833.984375,-56.640625
175.29296875,50.78125,482.91015625,-22.4609375
155.76171875,999.51171875,999.51171875,-32.71484375
-121.09375,322.75390625,162.59765625,-66.89453125
-292.96875,-940.91796875,-1000.0,-93.75
-172.8515625,-1000.0,-1000.0,-65.4296875
126.46484375,-236.81640625,181.640625,-10.7421875
168.45703125,999.51171875,999.51171875,-29.296875
-92.28515625,602.05078125,257.32421875,-67.87109375
-298.33984375,-789.55078125,-992.1875,-84.9609375
-212.890625,-1000.0,-1000.0,-78.61328125
117.1875,-147.94921875,-0.9765625,-24.4140625
213.37890625,980.95703125,999.51171875,-6.8359375
-32.2265625,999.51171875,489.74609375,-54.6875
-271.484375,54.19921875,-831.54296875,-86.9140625
-248.53515625,-1000.0,-1000.0,-69.82421875
82.03125,-203.61328125,-161.62109375,-8.30078125
192.87109375,999.51171875,999.51171875,0.48828125
-36.1328125,999.51171875,665.52734375,-68.359375
-247.0703125,-104.4921875,-678.7109375,-109.375
-259.27734375,-1000.0,-1000.0,-80.078125
64.94140625,-290.0390625,-188.96484375,-21.97265625
223.14453125,950.1953125,999.51171875,-12.6953125
20.99609375,999.51171875,875.9765625,-40.52734375
-218.26171875,68.359375,-395.99609375,-74.21875
-259.27734375,-1000.0,-1000.0,-82.51953125
35.15625,-446.77734375,-223.6328125,-35.64453125
218.75,886.23046875,999.51171875,4.39453125
57.12890625,999.51171875,982.91015625,-25.87890625
-220.703125,129.39453125,-188.4765625,-93.26171875
-331.0546875,-1000.0,-1000.0,-104.00390625
-45.8984375,-752.44140625,-349.609375,-48.33984375
214.35546875,605.46875,922.8515625,-13.18359375
102.5390625,999.51171875,999.51171875,-41.9921875
-167.48046875,175.78125,38.0859375,-87.40234375
-306.640625,-1000.0,-1000.0,-85.9375
-85.44921875,-841.796875,-516.6015625,-36.62109375
180.6640625,503.90625,817.3828125,-0.9765625
132.32421875,999.51171875,999.51171875,-34.66796875
-131.34765625,138.18359375,154.78515625,-78.61328125
-318.359375,-1000.0,-1000.0,-85.9375
-134.27734375,-1000.0,-748.046875,-49.31640625
171.38671875,18.06640625,595.703125,-2.44140625
143.06640625,999.51171875,999.51171875,-25.390625
-128.90625,278.80859375,163.57421875,-79.58984375
-305.6640625,-974.12109375,-1000.0,-92.28515625
-156.25,-1000.0,-942.3828125,-54.6875
158.203125,-99.609375,301.7578125,-3.90625
173.828125,999.51171875,999.51171875,-5.859375
-81.0546875,999.51171875,298.33984375,-51.26953125
-274.4140625,-144.04296875,-975.09765625,-90.8203125
-197.75390625,-1000.0,-1000.0,-76.171875
111.328125,-231.93359375,51.26953125,-8.7890625
177.734375,999.51171875,999.51171875,-4.8828125
-69.3359375,616.2109375,338.8671875,-59.5703125
-274.4140625,-774.90234375,-943.84765625,-85.9375
-229.00390625,-1000.0,-1000.0,-72.75390625
93.75,-198.2421875,-120.1171875,-13.671875
215.33203125,999.51171875,999.51171875,3.41796875
-15.625,940.91796875,567.87109375,-48.33984375
-244.62890625,-326.171875,-778.80859375,-81.0546875
-237.79296875,-1000.0,-1000.0,-73.2421875
68.359375,-173.828125,-163.0859375,-11.71875
225.5859375,998.53515625,999.51171875,14.6484375
17.578125,999.51171875,799.31640625,-38.0859375
-236.328125,-51.26953125,-505.37109375,-85.44921875
-276.85546875,-1000.0,-1000.0,-74.21875
20.5078125,-429.6875,-208.984375,-20.99609375
210.9375,879.39453125,999.51171875,-7.8125
44.921875,999.51171875,960.9375,-37.59765625
-205.56640625,126.46484375,-238.28125,-74.70703125
-287.109375,-1000.0,-1000.0,-83.984375
-15.625,-725.5859375,-301.26953125,-38.57421875
224.609375,636.23046875,943.359375,-6.34765625
88.37890625,999.51171875,999.51171875,-30.76171875
-178.22265625,181.15234375,32.2265625,-70.80078125
-291.015625,-1000.0,-1000.0,-86.42578125
-52.734375,-795.41015625,-467.28515625,-29.296875
229.4921875,567.87109375,860.3515625,-6.34765625
118.65234375,999.51171875,999.51171875,-32.2265625
-179.6875,148.92578125,107.421875,-75.68359375
-325.1953125,-1000.0,-1000.0,-106.4453125
-115.72265625,-1000.0,-700.68359375,-57.6171875
175.78125,158.203125,642.578125,-9.765625
123.046875,999.51171875,999.51171875,-27.34375
-122.0703125,701.66015625,156.73828125,-68.359375
-274.90234375,-625.9765625,-1000.0,-79.58984375
-148.92578125,-1000.0,-933.10546875,-56.640625
161.62109375,-47.36328125,330.56640625,-4.39453125
184.08203125,999.51171875,999.51171875,-11.71875
-111.328125,343.75,176.26953125,-77.1484375
-319.82421875,-945.3125,-1000.0,-101.5625
-184.08203125,-1000.0,-1000.0,-71.77734375
140.13671875,-222.16796875,78.61328125,-22.4609375
189.94140625,999.51171875,999.51171875,-20.5078125
-70.80078125,696.2890625,316.40625,-69.3359375
-284.66796875,-707.03125,-968.26171875,-98.6328125
-202.1484375,-1000.0,-1000.0,-71.2890625
114.74609375,-26.85546875,-24.4140625,-9.27734375
186.5234375,999.51171875,999.51171875,-10.7421875
-32.71484375,832.03125,483.3984375,-64.453125
-252.9296875,-454.58984375,-837.890625,-85.44921875
-248.046875,-1000.0,-1000.0,-51.7578125
80.078125,-168.45703125,-191.40625,-3.41796875
210.9375,988.28125,999.51171875,0.48828125
-5.859375,999.51171875,721.6796875,-41.50390625
-231.4453125,-2.44140625,-613.76953125,-74.70703125
-272.4609375,-1000.0,-1000.0,-78.61328125
13.671875,-375.0,-209.9609375,-48.33984375
219.7265625,942.3828125,999.51171875,-9.27734375
39.0625,999.51171875,875.9765625,-40.52734375
-240.234375,-62.01171875,-394.53125,-85.44921875
-290.52734375,-1000.0,-1000.0,-74.70703125
6.8359375,-510.25390625,-262.20703125,-21.97265625
226.07421875,827.1484375,974.609375,6.8359375
72.265625,999.51171875,999.51171875,-39.0625
-203.61328125,165.52734375,-93.26171875,-93.75
-309.08203125,-1000.0,-1000.0,-85.44921875
-42.48046875,-521.484375,-362.3046875,-33.69140625
208.984375,838.37890625,908.203125,8.30078125
116.2109375,999.51171875,999.51171875,-12.20703125
-140.13671875,309.5703125,136.71875,-80.56640625
-326.171875,-977.05078125,-1000.0,-119.140625
-131.8359375,-1000.0,-645.01953125,-70.80078125
175.78125,122.0703125,712.40234375,-14.16015625
130.859375,999.51171875,999.51171875,-46.38671875
-166.9921875,310.05859375,161.62109375,-115.234375
-340.8203125,-1000.0,-1000.0,-128.90625
-142.578125,-996.09375,-790.52734375,-84.47265625
158.203125,274.4140625,542.48046875,-47.36328125
127.9296875,999.51171875,999.51171875,-43.45703125
-119.62890625,494.140625,193.359375,-84.47265625
-299.8046875,-958.49609375,-1000.0,-123.53515625
-180.6640625,-931.15234375,-935.05859375,-83.984375
147.4609375,456.54296875,328.61328125,-7.32421875
188.96484375,999.51171875,999.51171875,-9.27734375
-76.171875,344.23828125,229.98046875,-63.4765625
-288.0859375,-906.73828125,-986.81640625,-87.40234375
-208.984375,-1000.0,-1000.0,-69.3359375
109.86328125,-212.890625,-67.87109375,-16.6015625
196.2890625,999.51171875,999.51171875,0.48828125
-13.18359375,944.82421875,457.03125,-32.2265625
-226.07421875,-318.359375,-869.140625,-81.0546875
-214.84375,-1000.0,-1000.0,-83.984375
90.8203125,-185.546875,-164.0625,-0.48828125
216.30859375,990.234375,999.51171875,12.6953125
20.5078125,999.51171875,722.65625,-46.38671875
-198.2421875,-22.94921875,-612.3046875,-66.89453125
-243.1640625,-1000.0,-1000.0,-69.82421875
51.7578125,-332.03125,-185.05859375,-30.2734375
233.3984375,952.63671875,999.51171875,-1.46484375
38.0859375,999.51171875,859.86328125,-34.66796875
-208.49609375,-17.578125,-415.0390625,-77.63671875
-267.08984375,-1000.0,-1000.0,-87.40234375
26.3671875,-396.484375,-207.51953125,-17.578125
228.515625,887.6953125,999.51171875,22.4609375
62.01171875,999.51171875,999.51171875,-29.296875
-202.63671875,271.484375,-128.41796875,-74.21875
-294.921875,-1000.0,-1000.0,-74.70703125
-16.11328125,-761.71875,-329.1015625,-21.484375
226.07421875,630.859375,932.12890625,14.6484375
83.984375,999.51171875,999.51171875,-22.4609375
-190.91796875,172.36328125,74.70703125,-71.77734375
-302.734375,-1000.0,-1000.0,-73.2421875
-63.96484375,-876.46484375,-512.20703125,-18.5546875
201.66015625,446.2890625,826.171875,10.7421875
100.5859375,999.51171875,999.51171875,-13.18359375
-151.3671875,219.23828125,161.1328125,-64.453125
-296.38671875,-1000.0,-1000.0,-100.5859375
-115.72265625,-874.51171875,-681.15234375,-61.5234375
179.6875,441.89453125,673.33984375,-5.859375
126.953125,999.51171875,999.51171875,-12.20703125
-132.32421875,428.7109375,176.26953125,-59.5703125
-292.96875,-873.046875,-1000.0,-87.40234375
-155.76171875,-1000.0,-932.6171875,-58.10546875
164.0625,-136.71875,325.68359375,-17.08984375
186.03515625,999.51171875,999.51171875,-12.6953125
-93.75,473.6328125,241.69921875,-58.10546875
-288.0859375,-884.765625,-1000.0,-93.26171875
-196.2890625,-1000.0,-1000.0,-95.703125
118.65234375,-216.30859375,51.7578125,-41.50390625
203.61328125,999.51171875,999.51171875,4.39453125
-34.66796875,738.28125,400.390625,-40.52734375
-270.99609375,-628.90625,-902.83203125,-104.4921875
-218.26171875,-1000.0,-1000.0,-98.14453125
110.3515625,-192.3828125,-122.0703125,-28.3203125
212.40234375,999.51171875,999.51171875,0.48828125
-8.30078125,950.1953125,604.98046875,-43.45703125
-249.0234375,-301.26953125,-736.81640625,-96.6796875
-252.44140625,-1000.0,-1000.0,-74.21875
60.546875,-208.984375,-177.24609375,-3.90625
206.54296875,942.87109375,999.51171875,4.39453125
34.1796875,999.51171875,893.06640625,-37.109375
-197.75390625,348.6328125,-355.46875,-78.61328125
-287.109375,-1000.0,-1000.0,-75.68359375
6.34765625,-519.04296875,-201.66015625,-23.92578125
217.28515625,885.25390625,999.51171875,3.41796875
53.22265625,999.51171875,979.00390625,-16.11328125
-196.77734375,163.57421875,-193.359375,-75.1953125
-282.2265625,-1000.0,-1000.0,-78.61328125
-12.20703125,-677.24609375,-288.0859375,-60.05859375
219.23828125,701.66015625,948.2421875,-95.703125
75.68359375,999.51171875,999.51171875,-114.2578125
-191.40625,199.21875,61.5234375,-120.1171875
-327.1484375,-1000.0,-1000.0,-118.1640625
-56.640625,-482.91015625,-386.71875,-79.58984375
220.21484375,862.3046875,906.25,-26.85546875
87.40234375,999.51171875,999.51171875,-60.05859375
-167.48046875,400.87890625,181.15234375,-115.72265625
-320.3125,-919.43359375,-1000.0,-107.91015625
-116.69921875,-1000.0,-701.171875,-49.8046875
171.38671875,36.62109375,655.76171875,-4.8828125
120.1171875,999.51171875,999.51171875,1.953125
-139.16015625,197.265625,159.1796875,-41.9921875
-318.84765625,-1000.0,-1000.0,-71.2890625
-162.109375,-1000.0,-911.62109375,-56.15234375
151.3671875,-203.61328125,356.4453125,-12.6953125
157.2265625,999.51171875,999.51171875,4.39453125
-106.4453125,520.5078125,223.14453125,-48.828125
-288.0859375,-854.4921875,-1000.0,-79.1015625
-188.4765625,-1000.0,-1000.0,-55.6640625
121.09375,-189.453125,92.7734375,-8.7890625
191.89453125,999.51171875,999.51171875,-40.52734375
-38.0859375,999.51171875,392.08984375,-98.14453125
-272.94921875,-180.17578125,-913.0859375,-157.71484375
-261.71875,-1000.0,-1000.0,-523.4375
77.63671875,-187.98828125,-67.87109375,-485.83984375
213.37890625,999.51171875,999.51171875,-136.71875
-13.18359375,999.51171875,527.34375,-117.67578125
-246.58203125,-173.33984375,-803.22265625,-114.74609375
-242.67578125,-1000.0,-1000.0,-76.171875
79.1015625,-313.96484375,-189.453125,15.625
223.6328125,953.61328125,999.51171875,41.9921875
16.11328125,999.51171875,764.16015625,-3.90625
-217.28515625,-55.6640625,-562.5,-34.66796875
-249.51171875,-1000.0,-1000.0,-35.15625
32.71484375,-393.06640625,-195.3125,21.97265625
217.28515625,895.01953125,999.51171875,-30.2734375
42.48046875,999.51171875,960.9375,-186.03515625
-230.95703125,176.26953125,-244.140625,-450.68359375
-324.21875,-1000.0,-1000.0,-909.66796875
-40.0390625,-445.80078125,-230.46875,-1000.0
203.61328125,958.984375,999.51171875,-973.14453125
43.45703125,999.51171875,984.86328125,-1000.0
-222.16796875,-227.5390625,-177.734375,-1000.0
-307.12890625,-1000.0,-1000.0,-956.0546875
-51.26953125,-890.625,-393.06640625,-1000.0
219.23828125,305.17578125,889.16015625,-677.24609375
150.390625,999.51171875,999.51171875,313.96484375
-124.0234375,422.36328125,113.28125,507.8125
-274.90234375,-1000.0,-1000.0,482.91015625
-65.91796875,-669.43359375,-579.58984375,639.16015625
202.63671875,824.70703125,766.11328125,788.57421875
135.7421875,975.09765625,999.51171875,931.640625
-105.95703125,999.51171875,195.80078125,970.21484375
-269.04296875,-56.640625,-1000.0,961.42578125
-138.18359375,-1000.0,-843.26171875,966.796875
171.38671875,189.453125,479.4921875,966.796875
163.0859375,999.51171875,999.51171875,963.8671875
-104.98046875,497.55859375,181.15234375,967.28515625
-301.26953125,-815.4296875,-1000.0,961.42578125
-186.03515625,-1000.0,-1000.0,825.68359375
137.6953125,-210.9375,178.7109375,962.40234375
151.85546875,999.51171875,999.51171875,97.65625
-152.34375,167.48046875,234.375,-1000.0
-342.28515625,-1000.0,-992.67578125,-1000.0
-211.42578125,-1000.0,-1000.0,-686.5234375
167.48046875,-210.9375,-66.40625,537.109375
275.390625,995.1171875,999.51171875,999.51171875
-9.765625,999.51171875,510.25390625,922.8515625
-249.0234375,-47.8515625,-826.171875,967.7734375
-211.9140625,-1000.0,-1000.0,967.28515625
96.6796875,-183.10546875,-153.80859375,965.8203125
219.23828125,999.51171875,999.51171875,966.30859375
2.44140625,999.51171875,684.5703125,966.30859375
-237.3046875,20.01953125,-658.203125,966.30859375
-236.81640625,-1000.0,-1000.0,966.796875
73.73046875,-178.22265625,-174.31640625,962.40234375
190.4296875,999.51171875,999.51171875,971.19140625
4.8828125,999.51171875,883.30078125,935.546875
-222.65625,87.40234375,-373.53515625,827.63671875
-284.66796875,-1000.0,-1000.0,793.9453125
1.46484375,-653.80859375,-228.515625,812.01171875
204.1015625,706.54296875,984.375,793.9453125
45.41015625,999.51171875,999.51171875,731.93359375
-235.3515625,156.73828125,-66.89453125,650.87890625
-329.1015625,-1000.0,-1000.0,596.6796875
-70.3125,-942.3828125,-354.98046875,614.74609375
177.734375,342.28515625,915.0390625,625.48828125
80.078125,999.51171875,999.51171875,571.77734375
-185.05859375,113.76953125,133.7890625,452.63671875
-318.359375,-993.65234375,-1000.0,560.546875
-138.671875,-1000.0,-604.98046875,-131.8359375
106.93359375,-392.578125,754.8828125,-1000.0
94.7265625,999.51171875,999.51171875,-979.98046875
-175.29296875,156.25,134.27734375,-971.19140625
-331.0546875,-1000.0,-1000.0,-1000.0
-117.1875,-1000.0,-791.50390625,-546.38671875
192.87109375,-16.6015625,533.203125,-467.7734375
148.4375,999.51171875,999.51171875,-1000.0
-123.046875,534.66796875,183.10546875,-794.921875
-256.8359375,-877.44140625,-1000.0,-153.80859375
-117.1875,-1000.0,-940.4296875,311.5234375
187.5,218.75,313.96484375,624.0234375
227.05078125,999.51171875,999.51171875,799.31640625
-33.69140625,862.3046875,247.0703125,865.72265625
-250.48828125,-367.67578125,-992.67578125,916.015625
-166.015625,-1000.0,-1000.0,963.37890625
147.94921875,-87.890625,16.11328125,966.30859375
209.9609375,999.0234375,999.51171875,964.84375
-19.04296875,999.51171875,422.8515625,966.30859375
-231.4453125,82.51953125,-886.71875,966.30859375
-221.6796875,-1000.0,-1000.0,966.30859375
96.19140625,-198.73046875,-139.16015625,962.890625
220.703125,999.51171875,999.51171875,971.19140625
12.20703125,999.51171875,652.83203125,934.5703125
-233.3984375,-41.50390625,-687.98828125,849.609375
-258.7890625,-1000.0,-1000.0,815.91796875
54.6875,-306.15234375,-191.89453125,836.42578125
198.2421875,951.66015625,999.51171875,806.15234375
8.30078125,999.51171875,842.7734375,740.72265625
-232.91015625,46.875,-447.265625,821.2890625
-281.73828125,-1000.0,-1000.0,840.33203125
9.27734375,-668.9453125,-213.37890625,761.23046875
206.54296875,682.12890625,995.1171875,696.2890625
60.05859375,999.51171875,999.51171875,639.6484375
-183.59375,198.73046875,-109.375,560.05859375
-288.57421875,-1000.0,-1000.0,490.72265625
-26.85546875,-491.69921875,-284.66796875,520.01953125
218.26171875,875.48828125,964.35546875,518.06640625
73.73046875,999.51171875,999.51171875,456.0546875
-187.01171875,166.015625,9.765625,407.2265625
-292.48046875,-1000.0,-1000.0,356.4453125
-76.171875,-954.1015625,-474.12109375,362.79296875
184.08203125,325.1953125,847.65625,407.2265625
120.1171875,999.51171875,999.51171875,387.6953125
-153.3203125,141.11328125,126.953125,315.91796875
-295.8984375,-1000.0,-1000.0,282.2265625
-96.6796875,-1000.0,-707.51953125,299.31640625
175.78125,53.22265625,638.18359375,339.84375
140.625,999.51171875,999.51171875,307.6171875
-114.74609375,194.82421875,153.3203125,207.03125
-288.57421875,-1000.0,-1000.0,162.59765625
-139.16015625,-1000.0,-915.0390625,188.96484375
162.109375,-64.94140625,352.5390625,241.2109375
148.92578125,999.51171875,999.51171875,228.515625
-104.00390625,628.41796875,204.1015625,148.4375
-284.66796875,-757.8125,-1000.0,99.12109375
-199.70703125,-1000.0,-1000.0,125.9765625
129.8828125,8.30078125,104.4921875,182.6171875
193.359375,999.51171875,999.51171875,177.734375
-56.640625,466.30859375,280.2734375,104.00390625
-270.99609375,-868.1640625,-969.7265625,64.453125
-221.19140625,-1000.0,-1000.0,96.6796875
105.46875,-208.984375,-111.328125,142.08984375
192.87109375,999.51171875,999.51171875,145.5078125
-45.41015625,905.76171875,509.27734375,93.75
-258.7890625,-370.1171875,-824.21875,32.71484375
-265.13671875,-1000.0,-1000.0,39.55078125
40.52734375,-264.6484375,-184.5703125,98.6328125
202.1484375,931.640625,999.51171875,123.046875
5.37109375,999.51171875,819.3359375,50.78125
-229.4921875,180.6640625,-482.421875,4.8828125
-274.90234375,-1000.0,-1000.0,13.18359375
23.92578125,-397.94921875,-208.984375,79.58984375
212.40234375,939.94140625,999.51171875,98.6328125
32.2265625,999.51171875,904.296875,41.015625
-218.26171875,41.9921875,-344.23828125,7.8125
-299.31640625,-1000.0,-1000.0,-4.39453125
-34.1796875,-612.79296875,-282.2265625,41.50390625
196.2890625,743.65234375,962.40234375,79.1015625
73.2421875,999.51171875,999.51171875,44.43359375
-178.22265625,200.68359375,-62.5,-12.6953125
-301.7578125,-1000.0,-1000.0,-18.5546875
-54.6875,-471.6796875,-370.60546875,32.71484375
207.51953125,886.23046875,912.59765625,62.01171875
83.49609375,999.51171875,999.51171875,41.50390625
-181.640625,164.55078125,100.5859375,-0.48828125
-305.17578125,-1000.0,-1000.0,-26.3671875
-123.046875,-1000.0,-638.671875,13.18359375
156.25,133.30078125,708.49609375,58.59375
126.46484375,999.51171875,999.51171875,27.34375
-116.2109375,359.86328125,161.1328125,-22.4609375
-300.29296875,-993.1640625,-1000.0,-41.9921875
-149.4140625,-1000.0,-829.1015625,-14.6484375
176.7578125,248.53515625,491.69921875,39.0625
173.33984375,999.51171875,999.51171875,49.31640625
-107.91015625,341.796875,171.38671875,-18.06640625
-279.296875,-915.52734375,-1000.0,-32.2265625
-141.6015625,-1000.0,-1000.0,-20.5078125
137.6953125,-239.74609375,120.1171875,20.01953125
179.19921875,999.51171875,999.51171875,60.546875
-72.265625,536.1328125,265.625,0.9765625
-282.2265625,-854.4921875,-987.3046875,-41.9921875
-214.84375,-1000.0,-1000.0,-6.34765625
108.3984375,-138.671875,-31.73828125,49.31640625
201.171875,989.2578125,999.51171875,38.57421875
-27.34375,999.51171875,546.38671875,-17.578125
-269.04296875,21.484375,-783.203125,-49.31640625
-259.27734375,-1000.0,-1000.0,-48.828125
80.078125,-213.8671875,-177.24609375,13.18359375
214.35546875,975.5859375,999.51171875,37.109375
2.9296875,999.51171875,698.73046875,-32.2265625
-233.3984375,212.40234375,-641.6015625,-64.94140625
-256.8359375,-1000.0,-1000.0,-42.96875
45.8984375,-333.984375,-196.2890625,8.30078125
206.0546875,960.9375,999.51171875,39.55078125
36.1328125,999.51171875,891.6015625,3.41796875
-208.0078125,141.11328125,-367.67578125,-54.19921875
-268.06640625,-1000.0,-1000.0,-61.5234375
31.25,-545.41015625,-231.4453125,-4.8828125
234.375,824.21875,992.1875,25.390625
64.453125,999.51171875,999.51171875,-10.25390625
-206.54296875,184.08203125,-113.28125,-55.6640625
-311.5234375,-1000.0,-1000.0,-73.2421875
-42.48046875,-671.875,-346.6796875,-9.765625
208.0078125,690.91796875,918.45703125,45.8984375
89.35546875,999.51171875,999.51171875,31.25
-153.80859375,396.484375,112.3046875,-37.109375
-294.43359375,-995.60546875,-1000.0,-76.66015625
-98.6328125,-949.21875,-568.359375,-15.13671875
207.03125,423.33984375,785.15625,29.78515625
148.92578125,999.51171875,999.51171875,-10.25390625
-156.73828125,134.27734375,140.13671875,-54.19921875
-304.19921875,-1000.0,-1000.0,-68.359375
-117.67578125,-1000.0,-784.66796875,-29.296875
178.22265625,-33.203125,542.96875,22.4609375
166.9921875,999.51171875,999.51171875,0.9765625
-118.65234375,353.02734375,181.15234375,-44.921875
-315.91796875,-941.40625,-1000.0,-75.1953125
-184.5703125,-1000.0,-954.1015625,-59.08203125
138.18359375,-117.67578125,284.1796875,0.0
149.4140625,999.51171875,999.51171875,-4.8828125
-98.6328125,999.51171875,311.03515625,-57.6171875
-284.1796875,-18.5546875,-965.33203125,-97.16796875
-212.40234375,-1000.0,-1000.0,-78.125
104.00390625,-228.02734375,28.3203125,-15.625
182.12890625,999.51171875,999.51171875,10.25390625
-41.015625,793.9453125,422.8515625,-25.390625
-269.04296875,-551.26953125,-888.18359375,-104.98046875
-236.81640625,-1000.0,-1000.0,-68.84765625
88.37890625,-179.19921875,-124.0234375,17.578125
218.75,999.51171875,999.51171875,-5.859375
16.11328125,999.51171875,678.7109375,-52.734375
-231.93359375,-140.625,-660.64453125,-78.61328125
-265.13671875,-1000.0,-1000.0,-57.12890625
67.87109375,-174.31640625,-157.2265625,4.8828125
238.28125,994.140625,999.51171875,12.6953125
17.08984375,999.51171875,893.06640625,-41.50390625
-229.98046875,52.24609375,-361.328125,-81.54296875
-276.85546875,-1000.0,-1000.0,-73.2421875
18.06640625,-458.49609375,-202.1484375,-18.06640625
225.5859375,868.65234375,999.51171875,5.859375
49.31640625,999.51171875,999.51171875,-37.109375
-215.8203125,183.59375,-111.81640625,-91.30859375
-298.828125,-1000.0,-1000.0,-105.46875
-20.01953125,-770.01953125,-299.8046875,-69.3359375
238.76953125,597.65625,940.91796875,-62.01171875
80.56640625,999.51171875,999.51171875,-107.421875
-208.984375,172.36328125,115.234375,-125.0
-311.5234375,-1000.0,-1000.0,-96.6796875
-77.63671875,-867.1875,-474.12109375,-41.9921875
200.1953125,461.42578125,856.93359375,27.83203125
124.51171875,999.51171875,999.51171875,6.8359375
-152.34375,180.6640625,169.43359375,-71.2890625
-312.01171875,-1000.0,-1000.0,-71.77734375
-116.2109375,-1000.0,-719.7265625,-24.90234375
179.6875,75.68359375,628.90625,17.578125
144.53125,999.51171875,999.51171875,-14.6484375
-120.1171875,833.984375,198.2421875,-74.21875
-293.45703125,-462.890625,-1000.0,-92.28515625
-160.64453125,-1000.0,-906.25,-55.17578125
145.5078125,-11.23046875,378.41796875,12.6953125
166.9921875,999.51171875,999.51171875,13.671875
-99.12109375,562.98828125,253.41796875,-62.01171875
-297.8515625,-789.55078125,-1000.0,-97.16796875
-186.5234375,-1000.0,-1000.0,-44.921875
148.4375,-157.71484375,108.3984375,15.625
214.35546875,999.51171875,999.51171875,20.01953125
-25.390625,997.0703125,413.57421875,-30.2734375
-258.30078125,-199.21875,-899.90234375,-71.77734375
-212.40234375,-1000.0,-1000.0,-71.77734375
114.2578125,-192.3828125,-44.43359375,-17.08984375
206.0546875,999.51171875,999.51171875,-3.41796875
-35.64453125,954.58984375,590.33203125,-55.6640625
-267.578125,-282.71484375,-742.1875,-86.42578125
-252.44140625,-1000.0,-1000.0,-77.63671875
84.9609375,-309.08203125,-193.84765625,-20.99609375
216.796875,957.51953125,999.51171875,16.11328125
9.765625,999.51171875,777.34375,-25.390625
-227.05078125,-108.88671875,-543.45703125,-88.37890625
-287.59765625,-1000.0,-1000.0,-79.58984375
31.73828125,-440.4296875,-197.75390625,-20.01953125
226.5625,859.86328125,999.51171875,13.671875
46.875,999.51171875,997.0703125,-18.06640625
-197.75390625,198.73046875,-155.2734375,-76.171875
-293.9453125,-1000.0,-1000.0,-90.33203125
-5.859375,-751.46484375,-290.0390625,-63.4765625
229.00390625,624.0234375,961.9140625,-78.61328125
53.7109375,999.51171875,999.51171875,-92.7734375
-205.078125,186.5234375,-16.6015625,-97.16796875
-319.82421875,-1000.0,-1000.0,-90.8203125
-76.66015625,-680.17578125,-394.53125,-45.8984375
196.77734375,683.10546875,897.94921875,-12.6953125
101.5625,999.51171875,999.51171875,-13.671875
-151.3671875,401.85546875,150.87890625,-49.31640625
-289.55078125,-982.421875,-1000.0,-75.68359375
-97.65625,-975.09765625,-657.2265625,-15.13671875
186.5234375,374.0234375,704.1015625,33.69140625
155.2734375,999.51171875,999.51171875,7.8125
-133.30078125,185.05859375,155.2734375,-34.66796875
-322.75390625,-998.046875,-1000.0,-74.70703125
-140.13671875,-1000.0,-891.11328125,-54.19921875
184.5703125,-94.23828125,396.97265625,28.80859375
168.45703125,999.51171875,999.51171875,4.39453125
-97.16796875,442.87109375,195.3125,-51.26953125
-270.5078125,-927.734375,-1000.0,-58.10546875
-171.38671875,-1000.0,-978.515625,-53.7109375
136.71875,32.2265625,242.67578125,1.953125
184.5703125,999.51171875,999.51171875,-1.46484375
-65.4296875,730.95703125,318.359375,-67.87109375
-273.4375,-582.03125,-951.66015625,-80.078125
-198.2421875,-1000.0,-1000.0,-69.3359375
114.74609375,-186.5234375,-43.9453125,-23.92578125
189.94140625,999.51171875,999.51171875,-12.6953125
-43.45703125,807.6171875,468.26171875,-74.70703125
-263.18359375,-528.80859375,-856.93359375,-92.28515625
-226.5625,-1000.0,-1000.0,-55.6640625
91.30859375,-176.26953125,-151.3671875,3.90625
214.84375,999.0234375,999.51171875,12.20703125
3.41796875,999.51171875,745.1171875,-27.34375
-244.62890625,-91.796875,-578.61328125,-69.82421875
-277.83203125,-1000.0,-1000.0,-59.08203125
35.64453125,-435.05859375,-198.2421875,-3.90625
224.12109375,895.01953125,999.51171875,20.5078125
33.203125,999.51171875,876.953125,-22.4609375
-215.8203125,-24.90234375,-392.578125,-70.80078125
-281.25,-1000.0,-1000.0,-64.453125
0.48828125,-300.78125,-226.07421875,-30.2734375
215.8203125,934.08203125,989.74609375,1.953125
56.15234375,999.51171875,999.51171875,-8.30078125
-193.359375,252.9296875,-88.37890625,-73.73046875
-287.109375,-1000.0,-1000.0,-92.28515625
-39.55078125,-822.75390625,-384.765625,-39.0625
211.42578125,544.43359375,907.71484375,-5.37109375
92.7734375,999.51171875,999.51171875,-35.15625
-181.15234375,170.41015625,70.3125,-67.87109375
-326.171875,-1000.0,-1000.0,-81.54296875
-116.2109375,-875.48828125,-567.87109375,-47.8515625
175.29296875,434.5703125,774.90234375,-1.46484375
110.3515625,999.51171875,999.51171875,-30.2734375
-146.484375,348.6328125,160.64453125,-63.4765625
-308.10546875,-1000.0,-1000.0,-95.703125
-142.08984375,-825.68359375,-720.703125,-49.31640625
159.66796875,563.4765625,625.9765625,3.41796875
141.6015625,999.51171875,999.51171875,-24.4140625
-123.046875,264.16015625,175.29296875,-64.453125
-317.87109375,-945.3125,-1000.0,-106.93359375
-179.6875,-1000.0,-994.62890625,-66.40625
141.6015625,-220.21484375,209.47265625,-1.46484375
177.24609375,999.51171875,999.51171875,-3.90625
-86.42578125,599.609375,268.5546875,-50.29296875
-293.9453125,-784.1796875,-985.83984375,-78.125
-186.03515625,-1000.0,-1000.0,-38.57421875
119.62890625,-214.84375,-0.48828125,-5.37109375
186.03515625,999.51171875,999.51171875,-5.37109375
-38.0859375,803.22265625,431.640625,-30.2734375
-281.25,-541.50390625,-884.27734375,-75.1953125
-252.44140625,-1000.0,-1000.0,-71.2890625
90.8203125,-180.6640625,-138.671875,-9.765625
208.0078125,999.51171875,999.51171875,3.90625
-14.16015625,999.51171875,651.85546875,-48.828125
-233.3984375,-155.76171875,-687.5,-86.42578125
-260.25390625,-1000.0,-1000.0,-74.21875
37.109375,-303.22265625,-187.01171875,-16.11328125
225.09765625,920.41015625,999.51171875,4.39453125
29.296875,999.51171875,911.1328125,-39.55078125
-213.8671875,251.46484375,-325.68359375,-97.65625
-286.62109375,-1000.0,-1000.0,-106.4453125
-2.44140625,-523.92578125,-222.16796875,-42.96875
228.02734375,871.58203125,999.51171875,25.87890625
56.640625,999.51171875,990.72265625,-6.34765625
-220.703125,116.2109375,-170.8984375,-108.3984375
-311.03515625,-1000.0,-1000.0,-107.91015625
-28.80859375,-761.71875,-340.33203125,-39.55078125
210.9375,593.75,935.05859375,-3.41796875
66.40625,999.51171875,999.51171875,-27.34375
-197.75390625,183.10546875,-3.90625,-89.84375
-305.6640625,-1000.0,-1000.0,-104.00390625
-58.10546875,-453.125,-437.01171875,-49.8046875
205.078125,894.53125,873.046875,5.37109375
102.05078125,999.51171875,999.51171875,-6.8359375
-142.578125,172.36328125,137.6953125,-42.48046875
-306.15234375,-1000.0,-1000.0,-68.359375
-125.0,-1000.0,-717.7734375,-58.59375
190.4296875,172.36328125,625.9765625,10.7421875
145.01953125,999.51171875,999.51171875,7.8125
-115.234375,266.6015625,160.64453125,-65.91796875
-272.4609375,-958.984375,-1000.0,-74.70703125
-156.25,-1000.0,-959.47265625,-39.55078125
129.8828125,-212.40234375,275.87890625,-0.9765625
142.578125,999.51171875,999.51171875,-4.8828125
-106.4453125,578.125,231.93359375,-78.125
-279.78515625,-803.7109375,-1000.0,-96.6796875
-183.10546875,-1000.0,-1000.0,-37.59765625
114.74609375,-225.09765625,28.80859375,-11.23046875
183.10546875,999.51171875,999.51171875,-14.6484375
-53.22265625,703.61328125,343.75,-57.12890625
-279.296875,-668.9453125,-937.01171875,-86.42578125
-214.35546875,-1000.0,-1000.0,-73.73046875
93.75,-213.37890625,-159.66796875,-29.296875
185.05859375,957.03125,999.51171875,13.18359375
-20.5078125,999.51171875,596.19140625,-35.15625
-245.1171875,78.125,-752.44140625,-92.7734375
-248.53515625,-1000.0,-1000.0,-75.68359375
69.3359375,-217.28515625,-170.8984375,-27.34375
208.0078125,999.51171875,999.51171875,-5.859375
-15.625,974.609375,737.3046875,-56.15234375
-240.72265625,-227.05078125,-586.42578125,-97.16796875
-261.23046875,-1000.0,-1000.0,-67.3828125
46.38671875,-324.21875,-194.3359375,-11.23046875
235.3515625,909.66796875,999.51171875,18.5546875
59.5703125,999.51171875,985.3515625,-0.48828125
-197.265625,197.265625,-187.01171875,-62.01171875
-308.10546875,-1000.0,-1000.0,-79.1015625
-10.25390625,-202.1484375,-207.03125,-20.5078125
224.12109375,999.51171875,985.3515625,15.13671875
74.21875,999.51171875,999.51171875,-11.71875
-177.24609375,209.9609375,50.29296875,-79.58984375
-303.22265625,-1000.0,-1000.0,-95.703125
-66.40625,-870.1171875,-437.5,-19.53125
206.0546875,458.0078125,876.953125,17.08984375
106.4453125,999.51171875,999.51171875,-25.87890625
-168.9453125,179.6875,141.6015625,-76.171875
-308.59375,-1000.0,-1000.0,-78.61328125
-126.953125,-1000.0,-664.55078125,-44.43359375
175.29296875,174.31640625,686.5234375,9.765625
150.87890625,999.51171875,999.51171875,-31.25
-123.046875,335.9375,167.96875,-95.21484375
-302.24609375,-944.3359375,-1000.0,-86.9140625
-175.29296875,-1000.0,-914.0625,-60.546875
146.97265625,-54.6875,356.93359375,-3.41796875
162.59765625,999.51171875,999.51171875,-8.7890625
-104.00390625,750.0,226.5625,-65.4296875
-276.85546875,-571.2890625,-1000.0,-93.26171875
-181.15234375,-1000.0,-1000.0,-88.8671875
123.046875,-220.703125,107.421875,-42.48046875
182.12890625,999.51171875,999.51171875,-17.08984375
-66.40625,598.6328125,276.85546875,-52.734375
-254.39453125,-790.0390625,-972.65625,-96.19140625
-183.59375,-1000.0,-1000.0,-67.87109375
91.796875,-211.42578125,-106.4453125,-9.27734375
172.8515625,999.51171875,999.51171875,-2.44140625
-35.15625,841.30859375,443.359375,-39.55078125
-251.46484375,-488.76953125,-880.37109375,-78.125
-233.3984375,-1000.0,-1000.0,-80.56640625
88.37890625,-159.66796875,-175.29296875,-26.85546875
217.7734375,972.16796875,999.51171875,-0.48828125
-7.8125,999.51171875,808.59375,-43.45703125
-249.0234375,128.90625,-500.48828125,-94.7265625
-257.32421875,-1000.0,-1000.0,-78.61328125
57.6171875,-202.1484375,-185.05859375,-20.99609375
204.1015625,999.51171875,999.51171875,7.32421875
7.8125,999.51171875,886.71875,-25.390625
-207.51953125,53.22265625,-365.234375,-54.6875
-270.01953125,-1000.0,-1000.0,-76.171875
-3.41796875,-617.1875,-266.11328125,-45.8984375
197.265625,744.62890625,976.07421875,5.859375
50.78125,999.51171875,999.51171875,-26.3671875
-197.75390625,154.78515625,-104.98046875,-84.9609375
-298.828125,-1000.0,-1000.0,-97.16796875
-42.48046875,-542.48046875,-350.5859375,-47.8515625
207.51953125,817.87109375,909.1796875,4.8828125
98.6328125,999.51171875,999.51171875,-20.01953125
-146.484375,657.71484375,168.45703125,-69.82421875
-279.296875,-729.98046875,-1000.0,-85.44921875
-98.6328125,-1000.0,-597.16796875,-43.9453125
170.8984375,211.9140625,762.20703125,16.11328125
110.3515625,999.51171875,999.51171875,-3.41796875
-139.6484375,182.12890625,152.34375,-67.87109375
-272.4609375,-1000.0,-1000.0,-98.6328125
-111.81640625,-1000.0,-842.28515625,-41.015625
180.17578125,-98.14453125,465.8203125,-17.08984375
157.71484375,999.51171875,999.51171875,-41.9921875
-128.41796875,404.78515625,181.15234375,-52.734375
-282.2265625,-916.9921875,-1000.0,-92.28515625
-155.76171875,-1000.0,-1000.0,-66.40625
126.46484375,-213.8671875,194.82421875,3.90625
152.34375,999.51171875,999.51171875,6.8359375
-94.23828125,665.52734375,283.69140625,-45.41015625
-283.203125,-710.9375,-967.7734375,-96.19140625
-203.61328125,-1000.0,-1000.0,-80.078125
81.0546875,-205.56640625,-76.66015625,-9.765625
157.71484375,999.51171875,999.51171875,-22.4609375
-55.6640625,868.1640625,425.29296875,-62.98828125
-268.5546875,-448.2421875,-895.5078125,-80.56640625
-241.2109375,-1000.0,-1000.0,-69.3359375
67.3828125,-168.9453125,-140.625,-11.71875
188.4765625,999.51171875,999.51171875,-16.6015625
2.44140625,999.51171875,648.4375,-56.640625
-227.05078125,-85.9375,-685.546875,-71.77734375
-275.390625,-1000.0,-1000.0,-72.265625
19.04296875,-292.48046875,-202.1484375,-42.96875
190.4296875,974.12109375,999.51171875,-6.34765625
19.53125,999.51171875,821.77734375,-28.80859375
-208.984375,-81.0546875,-475.09765625,-59.5703125
-266.6015625,-1000.0,-1000.0,-60.546875
1.953125,-490.234375,-219.23828125,-16.6015625
187.98828125,832.51953125,979.4921875,-9.27734375
41.50390625,999.51171875,999.51171875,-40.0390625
-187.5,194.82421875,-34.66796875,-74.21875
-295.41015625,-1000.0,-1000.0,-93.75
-41.015625,-759.765625,-350.09765625,-32.71484375
199.21875,613.28125,928.7109375,9.765625
73.73046875,999.51171875,999.51171875,-21.484375
-175.29296875,158.203125,74.21875,-70.80078125
-301.7578125,-1000.0,-1000.0,-74.70703125
-79.1015625,-984.86328125,-552.734375,-22.4609375
189.453125,257.32421875,789.0625,-7.8125
115.234375,999.51171875,999.51171875,-29.296875
-123.046875,284.1796875,153.3203125,-53.7109375
-270.01953125,-982.91015625,-1000.0,-65.91796875
-104.4921875,-1000.0,-712.890625,-24.4140625
171.38671875,56.640625,633.7890625,4.8828125
131.34765625,999.51171875,999.51171875,-9.27734375
-113.28125,271.484375,164.55078125,-56.15234375
-274.90234375,-968.75,-1000.0,-77.63671875
-156.25,-1000.0,-970.21484375,-43.45703125
143.5546875,-198.73046875,256.8359375,-18.06640625
166.9921875,999.51171875,999.51171875,-30.76171875
-75.68359375,520.5078125,240.72265625,-70.3125
-263.18359375,-892.08984375,-1000.0,-87.40234375
-179.6875,-1000.0,-1000.0,-54.19921875
138.18359375,12.6953125,111.328125,-7.32421875
180.17578125,999.51171875,999.51171875,-6.8359375
-73.73046875,682.12890625,359.375,-58.59375
-251.953125,-645.5078125,-926.26953125,-96.19140625
-213.37890625,-1000.0,-1000.0,-66.89453125
83.984375,-184.08203125,-113.28125,-1.953125
188.96484375,999.51171875,999.51171875,1.46484375
-19.53125,999.51171875,576.66015625,-39.55078125
-227.05078125,-183.10546875,-765.13671875,-63.96484375
-221.19140625,-1000.0,-1000.0,-70.80078125
82.51953125,-185.05859375,-173.828125,-24.4140625
212.890625,965.8203125,999.51171875,-0.48828125
19.04296875,999.51171875,878.90625,-29.78515625
-204.58984375,224.609375,-387.20703125,-81.54296875
-261.23046875,-1000.0,-1000.0,-97.65625
36.62109375,-280.2734375,-199.70703125,-12.20703125
216.30859375,982.91015625,999.51171875,7.8125
37.109375,999.51171875,953.61328125,-44.43359375
-192.3828125,150.390625,-246.09375,-67.3828125
-279.296875,-1000.0,-1000.0,-65.91796875
-24.90234375,-699.21875,-295.41015625,-25.87890625
202.1484375,669.43359375,954.1015625,-10.7421875
69.82421875,999.51171875,999.51171875,-41.9921875
-199.70703125,168.45703125,-16.6015625,-74.70703125
-315.91796875,-1000.0,-1000.0,-81.54296875
-65.4296875,-882.8125,-423.828125,-39.55078125
196.77734375,436.03515625,879.39453125,2.9296875
94.7265625,999.51171875,999.51171875,-23.4375
-152.34375,227.05078125,133.7890625,-76.66015625
-252.9296875,-1000.0,-1000.0,-74.70703125
-95.21484375,-798.33984375,-595.703125,-23.92578125
140.625,570.80078125,756.34765625,6.8359375
106.93359375,999.51171875,999.51171875,-12.20703125
-133.7890625,174.31640625,151.85546875,-61.5234375
-269.04296875,-1000.0,-1000.0,-81.54296875
-121.09375,-1000.0,-881.34765625,-47.36328125
176.7578125,129.8828125,411.62109375,6.34765625
164.55078125,999.51171875,999.51171875,7.32421875
-113.28125,396.484375,194.3359375,-57.12890625
-287.109375,-893.06640625,-1000.0,-104.98046875
-166.015625,-1000.0,-1000.0,-62.98828125
133.30078125,-200.1953125,101.5625,-5.37109375
173.33984375,999.51171875,999.51171875,2.9296875
-42.96875,988.76953125,350.5859375,-41.9921875
-249.51171875,-228.02734375,-948.73046875,-87.40234375
-201.171875,-1000.0,-1000.0,-61.03515625
105.46875,-154.78515625,-22.94921875,-7.8125
176.26953125,981.93359375,999.51171875,12.20703125
-38.57421875,999.51171875,552.24609375,-26.85546875
-244.62890625,154.296875,-776.85546875,-78.125
-233.3984375,-1000.0,-1000.0,-72.265625
60.546875,-342.28515625,-186.03515625,-16.6015625
207.03125,999.51171875,999.51171875,-0.48828125
27.83203125,999.51171875,665.0390625,-32.2265625
-226.07421875,-227.5390625,-681.640625,-65.4296875
-270.01953125,-1000.0,-1000.0,-75.1953125
29.78515625,-293.9453125,-198.73046875,-35.15625
208.0078125,933.59375,999.51171875,-9.27734375
12.6953125,999.51171875,889.16015625,-51.7578125
-225.09765625,111.81640625,-374.0234375,-84.9609375
-281.73828125,-1000.0,-1000.0,-77.63671875
0.9765625,-190.91796875,-202.1484375,-33.203125
219.23828125,995.1171875,999.51171875,-5.859375
60.546875,999.51171875,999.51171875,-36.62109375
-186.5234375,192.87109375,-94.23828125,-71.77734375
-281.73828125,-1000.0,-1000.0,-79.1015625
-45.41015625,-902.83203125,-410.64453125,-44.43359375
191.89453125,410.64453125,887.20703125,-3.41796875
83.984375,999.51171875,999.51171875,-31.25
-175.78125,158.203125,89.84375,-70.3125
-280.76171875,-1000.0,-1000.0,-90.8203125
-85.44921875,-975.09765625,-609.86328125,-60.05859375
166.015625,294.921875,742.1875,-5.37109375
111.81640625,999.51171875,999.51171875,-22.94921875
-144.04296875,144.53125,124.0234375,-76.171875
-292.48046875,-1000.0,-1000.0,-99.12109375
-146.97265625,-1000.0,-801.26953125,-53.22265625
144.04296875,65.91796875,515.13671875,-17.08984375
141.6015625,999.51171875,999.51171875,-56.640625
-116.2109375,541.015625,180.6640625,-85.9375
-291.50390625,-789.0625,-1000.0,-83.49609375
-172.8515625,-1000.0,-1000.0,-50.78125
132.8125,-178.7109375,178.22265625,0.9765625
154.296875,999.51171875,999.51171875,-16.11328125
-60.05859375,935.546875,306.15234375,-51.26953125
-236.81640625,-329.1015625,-963.37890625,-76.66015625
-217.28515625,-1000.0,-1000.0,-88.8671875
74.21875,-197.75390625,-34.1796875,-54.6875
159.1796875,999.51171875,999.51171875,-44.43359375
-83.984375,908.203125,438.96484375,-103.515625
-286.1328125,-378.41796875,-879.8828125,-155.76171875
-260.7421875,-1000.0,-1000.0,-133.30078125
29.78515625,-172.36328125,-150.390625,-67.3828125
160.64453125,994.140625,999.51171875,-51.26953125
-31.25,999.51171875,642.08984375,-108.88671875
-263.18359375,-46.38671875,-701.171875,-153.3203125
-276.3671875,-1000.0,-1000.0,-103.02734375
56.640625,-159.1796875,-173.828125,-45.8984375
199.21875,999.51171875,999.51171875,-39.55078125
0.48828125,999.51171875,806.640625,-45.41015625
-223.6328125,-11.71875,-490.234375,-85.44921875
-259.765625,-1000.0,-1000.0,-108.88671875
18.5546875,-453.61328125,-225.5859375,-56.15234375
217.7734375,857.91015625,999.51171875,-23.4375
68.84765625,999.51171875,986.328125,-41.50390625
-173.33984375,229.00390625,-165.0390625,-77.63671875
-253.41796875,-1000.0,-1000.0,-92.28515625
-13.18359375,-783.203125,-356.93359375,-35.15625
208.984375,594.7265625,919.921875,15.625
94.23828125,999.51171875,999.51171875,-0.48828125
-153.3203125,152.34375,51.26953125,-53.7109375
-276.85546875,-1000.0,-1000.0,-77.1484375
-64.94140625,-1000.0,-558.59375,-32.71484375
197.265625,194.82421875,788.0859375,10.7421875
125.9765625,999.51171875,999.51171875,-6.8359375
-144.04296875,238.28125,102.5390625,-65.91796875
-302.24609375,-1000.0,-1000.0,-83.984375
-129.8828125,-973.14453125,-727.5390625,-30.76171875
161.1328125,344.23828125,607.91015625,-0.9765625
135.25390625,999.51171875,999.51171875,-27.34375
-113.76953125,937.98828125,169.921875,-68.359375
-279.78515625,-203.125,-1000.0,-75.1953125
-145.01953125,-1000.0,-992.1875,-60.546875
143.06640625,-222.65625,220.21484375,-12.20703125
158.69140625,999.51171875,999.51171875,8.7890625
-62.01171875,494.140625,199.21875,-63.96484375
-264.6484375,-885.7421875,-1000.0,-111.81640625
-189.453125,-1000.0,-1000.0,-63.4765625
110.3515625,-202.63671875,-24.90234375,-0.48828125
177.734375,999.51171875,999.51171875,-13.671875
-49.8046875,964.84375,328.125,-56.15234375
-250.9765625,-294.921875,-956.0546875,-95.21484375
-204.1015625,-1000.0,-1000.0,-70.3125
95.703125,-118.65234375,-118.1640625,-3.90625
172.36328125,999.51171875,999.51171875,-29.78515625
-36.62109375,999.51171875,575.68359375,-48.828125
-235.83984375,-50.29296875,-762.20703125,-64.453125
-239.2578125,-1000.0,-1000.0,-75.68359375
51.26953125,-281.25,-212.890625,-22.4609375
189.94140625,941.40625,999.51171875,-15.13671875
8.7890625,999.51171875,706.54296875,-61.03515625
-217.7734375,209.47265625,-627.44140625,-64.94140625
-261.71875,-1000.0,-1000.0,-52.734375
21.97265625,-623.046875,-251.953125,-32.2265625
232.421875,776.85546875,999.51171875,2.9296875
71.77734375,999.51171875,917.96875,-39.55078125
-191.89453125,120.60546875,-328.61328125,-89.35546875
-271.484375,-1000.0,-1000.0,-70.80078125
-18.06640625,-682.6171875,-310.05859375,-31.73828125
194.3359375,688.96484375,939.453125,15.13671875
49.8046875,999.51171875,999.51171875,-0.9765625
-190.91796875,162.109375,5.37109375,-61.03515625
-295.41015625,-1000.0,-1000.0,-86.42578125
-71.77734375,-963.8671875,-449.21875,-67.3828125
182.12890625,276.3671875,858.88671875,-20.99609375
91.796875,999.51171875,999.51171875,-39.55078125
-138.18359375,496.09375,172.8515625,-57.6171875
-277.34375,-882.8125,-1000.0,-80.078125
-96.6796875,-1000.0,-640.625,-71.77734375
179.6875,166.015625,721.6796875,-11.71875
128.41796875,999.51171875,999.51171875,10.25390625
-111.328125,336.42578125,162.59765625,-40.0390625
-279.296875,-958.0078125,-1000.0,-75.68359375
-143.06640625,-1000.0,-834.47265625,-57.6171875
150.87890625,14.16015625,475.09765625,-2.9296875
145.01953125,999.51171875,999.51171875,3.41796875
-104.00390625,561.03515625,221.6796875,-52.734375
-282.71484375,-827.1484375,-1000.0,-80.078125
-178.22265625,-1000.0,-983.88671875,-36.1328125
120.1171875,83.984375,245.60546875,-60.546875
159.66796875,999.51171875,999.51171875,-140.625
-83.49609375,649.90234375,302.24609375,-136.23046875
-275.87890625,-668.9453125,-956.0546875,-119.140625
-197.75390625,-1000.0,-1000.0,-97.65625
110.3515625,-198.73046875,-66.89453125,-35.64453125
188.4765625,999.51171875,999.51171875,-20.5078125
-43.9453125,917.96875,500.48828125,-130.37109375
-257.8125,-360.3515625,-830.078125,-190.4296875
-237.3046875,-1000.0,-1000.0,-197.265625
58.59375,-183.59375,-142.08984375,-218.26171875
194.82421875,967.28515625,999.51171875,-208.49609375
2.44140625,999.51171875,841.796875,-164.55078125
-230.95703125,145.01953125,-444.3359375,-157.71484375
-262.20703125,-1000.0,-1000.0,-165.0390625
28.3203125,-403.3203125,-187.01171875,-143.5546875
161.1328125,921.38671875,999.51171875,-131.8359375
-10.25390625,999.51171875,913.57421875,-150.87890625
-218.26171875,118.65234375,-322.265625,-160.64453125
-288.57421875,-1000.0,-1000.0,-151.85546875
-5.37109375,-508.7890625,-245.1171875,-138.671875
204.58984375,840.33203125,984.86328125,-132.32421875
29.78515625,999.51171875,999.51171875,-141.11328125
-193.359375,285.15625,-85.44921875,-139.6484375
-264.6484375,-1000.0,-1000.0,-127.44140625
-33.69140625,-987.79296875,-418.9453125,-116.69921875
200.1953125,315.91796875,892.08984375,-72.75390625
92.28515625,999.51171875,999.51171875,-23.92578125
-171.38671875,136.23046875,39.0625,-30.2734375
-280.76171875,-1000.0,-1000.0,-22.4609375
-81.0546875,-1000.0,-604.00390625,31.25
174.8046875,95.703125,732.91015625,71.2890625
140.625,999.51171875,999.51171875,54.19921875
-129.39453125,402.34375,169.43359375,3.41796875
-309.08203125,-1000.0,-1000.0,-65.91796875
-132.8125,-707.03125,-666.50390625,-103.02734375
171.38671875,706.54296875,686.03515625,-88.37890625
140.625,999.51171875,999.51171875,-81.54296875
-134.27734375,373.53515625,211.42578125,-112.79296875
-311.5234375,-909.1796875,-1000.0,-120.1171875
-174.8046875,-1000.0,-921.875,-112.3046875
141.6015625,-73.2421875,343.75,-106.4453125
187.98828125,999.51171875,999.51171875,-96.19140625
-73.2421875,750.9765625,350.09765625,-89.35546875
-272.4609375,-573.2421875,-960.9375,-83.0078125
-173.33984375,-1000.0,-1000.0,-83.984375
122.55859375,-205.078125,125.48828125,-89.35546875
177.734375,999.51171875,999.51171875,-74.21875
-34.1796875,842.28515625,535.15625,-69.82421875
-236.81640625,-485.3515625,-790.0390625,-56.640625
-217.28515625,-1000.0,-1000.0,-25.87890625
78.61328125,-175.29296875,-76.66015625,30.76171875
193.359375,975.5859375,999.51171875,9.27734375
-12.20703125,999.51171875,792.48046875,-83.984375
-232.421875,57.6171875,-501.953125,-90.33203125
-248.53515625,-1000.0,-1000.0,-100.09765625
55.17578125,-181.15234375,-139.6484375,-67.87109375
200.68359375,988.28125,999.51171875,-6.34765625
41.50390625,999.51171875,947.75390625,10.25390625
-180.6640625,247.0703125,-237.3046875,0.0
-294.43359375,-1000.0,-1000.0,5.37109375
-22.94921875,-636.71875,-210.9375,53.7109375
219.23828125,761.23046875,999.51171875,72.75390625
47.36328125,999.51171875,999.51171875,36.62109375
-209.47265625,172.8515625,-125.48828125,-6.34765625
-300.29296875,-1000.0,-1000.0,-24.90234375
-41.50390625,-740.72265625,-335.9375,9.765625
215.8203125,632.8125,939.453125,61.03515625
91.30859375,999.51171875,999.51171875,41.015625
-173.33984375,191.40625,6.34765625,5.37109375
-286.62109375,-1000.0,-1000.0,-12.20703125
-54.6875,-652.34375,-490.234375,35.15625
198.73046875,739.74609375,838.37890625,72.265625
100.09765625,999.51171875,999.51171875,44.43359375
-143.5546875,145.01953125,108.3984375,2.9296875
-277.83203125,-1000.0,-1000.0,-15.13671875
-121.58203125,-1000.0,-758.30078125,18.5546875
173.828125,37.109375,568.359375,44.921875
166.9921875,999.51171875,999.51171875,38.0859375
-131.34765625,234.86328125,151.85546875,1.46484375
-321.2890625,-988.28125,-1000.0,-31.73828125
-152.83203125,-1000.0,-953.61328125,0.48828125
156.25,-157.71484375,283.203125,70.80078125
169.921875,999.51171875,999.51171875,60.546875
-84.9609375,618.65234375,245.60546875,-19.04296875
-270.99609375,-749.51171875,-1000.0,-24.4140625
-171.38671875,-1000.0,-1000.0,32.2265625
132.8125,-223.6328125,66.89453125,95.21484375
187.98828125,999.51171875,999.51171875,76.171875
-43.45703125,692.3828125,354.00390625,5.37109375
-251.953125,-685.05859375,-935.546875,-16.6015625
-199.21875,-1000.0,-1000.0,-5.37109375
117.1875,-171.38671875,-98.14453125,48.828125
192.3828125,982.91015625,999.51171875,53.22265625
-22.4609375,999.51171875,585.9375,-5.37109375
-224.609375,14.16015625,-746.58203125,-27.83203125
-237.3046875,-1000.0,-1000.0,-23.4375
50.78125,-417.48046875,-189.453125,25.390625
204.58984375,913.57421875,999.51171875,49.8046875
11.23046875,999.51171875,806.15234375,-3.90625
-224.609375,0.48828125,-502.44140625,-37.59765625
-256.34765625,-1000.0,-1000.0,-21.484375
25.390625,-341.30859375,-190.4296875,24.90234375
209.47265625,928.7109375,999.51171875,25.390625
41.50390625,999.51171875,952.63671875,-7.32421875
-180.6640625,153.80859375,-251.953125,-31.73828125
-260.25390625,-1000.0,-1000.0,-39.0625
-7.8125,-250.48828125,-240.234375,1.953125
231.93359375,981.93359375,983.88671875,40.52734375
92.7734375,999.51171875,999.51171875,2.9296875
-186.03515625,166.9921875,-49.8046875,-45.41015625
-284.1796875,-1000.0,-1000.0,-58.10546875
-51.7578125,-951.171875,-450.68359375,-19.04296875
204.58984375,323.73046875,860.3515625,27.34375
125.48828125,999.51171875,999.51171875,6.34765625
-142.08984375,145.5078125,103.515625,-52.24609375
-289.0625,-1000.0,-1000.0,-63.4765625
-84.9609375,-1000.0,-649.90234375,-26.3671875
191.89453125,105.46875,693.359375,9.765625
139.6484375,999.51171875,999.51171875,-11.23046875
-114.2578125,344.7265625,165.52734375,-69.3359375
-295.41015625,-923.828125,-1000.0,-68.359375
-156.73828125,-1000.0,-916.9921875,-59.5703125
145.99609375,-233.3984375,354.00390625,-29.296875
162.59765625,999.51171875,999.51171875,14.16015625
-98.6328125,340.8203125,187.98828125,-41.015625
-286.62109375,-1000.0,-1000.0,-83.49609375
-160.15625,-1000.0,-991.69921875,-51.26953125
135.7421875,49.31640625,214.35546875,-17.578125
175.78125,999.51171875,999.51171875,-28.80859375
-50.29296875,737.79296875,312.98828125,-67.87109375
-244.62890625,-558.59375,-955.56640625,-94.23828125
-200.1953125,-1000.0,-1000.0,-89.35546875
104.98046875,-198.73046875,-50.29296875,-36.1328125
203.61328125,999.51171875,999.51171875,-13.18359375
-34.1796875,903.80859375,471.6796875,-62.98828125
-253.90625,-386.23046875,-847.65625,-80.56640625
-223.6328125,-1000.0,-1000.0,-64.94140625
78.125,-193.359375,-171.38671875,-23.92578125
210.9375,999.51171875,999.51171875,-14.6484375
11.23046875,999.51171875,698.73046875,-61.5234375
-221.19140625,-159.1796875,-640.13671875,-108.88671875
-270.01953125,-1000.0,-1000.0,-106.4453125
33.69140625,-171.38671875,-179.6875,-52.24609375
209.47265625,990.234375,999.51171875,-62.5
9.765625,999.51171875,883.30078125,-74.21875
-200.68359375,80.078125,-373.046875,-75.1953125
-256.8359375,-1000.0,-1000.0,-89.35546875
-10.25390625,-571.77734375,-250.48828125,-54.19921875
203.61328125,787.109375,979.00390625,-26.3671875
82.03125,999.51171875,999.51171875,-95.703125
-193.84765625,187.01171875,-84.47265625,-152.83203125
-317.87109375,-1000.0,-1000.0,-119.140625
-53.22265625,-742.67578125,-380.37109375,-58.59375
197.265625,629.39453125,901.3671875,-27.34375
84.47265625,999.51171875,999.51171875,-67.87109375
-158.203125,219.7265625,125.48828125,-99.12109375
-288.57421875,-1000.0,-1000.0,-104.00390625
-94.23828125,-783.69140625,-549.31640625,-71.77734375
189.453125,578.125,800.29296875,-15.625
107.91015625,999.51171875,999.51171875,-23.4375
-150.87890625,691.40625,160.15625,-71.2890625
-302.24609375,-627.9296875,-1000.0,-128.90625
-157.2265625,-1000.0,-815.91796875,-147.4609375
139.16015625,-8.30078125,505.859375,-134.27734375
137.20703125,999.51171875,999.51171875,-170.8984375
-112.3046875,333.49609375,168.45703125,-173.33984375
-266.11328125,-944.82421875,-1000.0,-147.94921875
-147.94921875,-1000.0,-981.4453125,-163.57421875
104.00390625,-237.79296875,233.88671875,-165.0390625
142.578125,999.51171875,999.51171875,-142.578125
-87.890625,493.65234375,237.79296875,-152.34375
-294.43359375,-885.25390625,-994.62890625,-141.6015625
-220.21484375,-1000.0,-1000.0,-98.14453125
88.37890625,-189.453125,-25.390625,-77.1484375
180.6640625,997.0703125,999.51171875,-110.83984375
-14.16015625,999.51171875,493.1640625,-136.71875
-244.62890625,-121.58203125,-837.40234375,-119.62890625
-246.09375,-1000.0,-1000.0,-90.8203125
77.63671875,-179.6875,-112.3046875,-22.4609375
202.1484375,999.51171875,999.51171875,15.13671875
-8.30078125,999.51171875,657.71484375,-8.30078125
-222.65625,-170.8984375,-677.24609375,-20.5078125
-231.93359375,-1000.0,-1000.0,-12.6953125
49.8046875,-290.52734375,-193.84765625,30.2734375
200.68359375,952.1484375,999.51171875,70.3125
17.08984375,999.51171875,845.703125,47.36328125
-205.56640625,15.625,-441.89453125,0.9765625
-250.0,-1000.0,-1000.0,2.9296875
15.13671875,-407.2265625,-204.1015625,41.50390625
195.80078125,883.7890625,992.1875,51.7578125
50.78125,999.51171875,999.51171875,20.5078125
-173.828125,296.38671875,-62.5,-23.4375
-277.34375,-1000.0,-1000.0,-34.1796875
-47.8515625,-831.54296875,-336.42578125,17.578125
194.3359375,546.875,939.94140625,31.25
92.7734375,999.51171875,999.51171875,-2.9296875
-179.6875,167.96875,42.48046875,-34.66796875
-284.66796875,-1000.0,-1000.0,-50.78125
-47.8515625,-903.3203125,-492.1875,-0.9765625
176.7578125,413.0859375,837.890625,19.04296875
97.16796875,999.51171875,999.51171875,-26.3671875
-140.625,133.7890625,126.953125,-102.05078125
-295.8984375,-1000.0,-1000.0,-139.6484375
-125.9765625,-1000.0,-727.05078125,-94.7265625
172.8515625,-44.43359375,607.421875,-49.31640625
138.18359375,999.51171875,999.51171875,-89.35546875
-134.27734375,450.68359375,177.734375,-140.625
-291.50390625,-885.7421875,-1000.0,-105.46875
-160.64453125,-1000.0,-963.37890625,-50.29296875
117.1875,-201.66015625,278.3203125,-43.9453125
137.20703125,999.51171875,999.51171875,-110.83984375
-91.796875,500.9765625,207.03125,-118.65234375
-274.4140625,-916.015625,-1000.0,-81.54296875
-197.265625,-1000.0,-1000.0,-63.96484375
111.328125,51.7578125,97.65625,3.41796875
195.80078125,999.51171875,999.51171875,33.69140625
-40.0390625,754.39453125,334.47265625,-24.4140625
-274.4140625,-541.9921875,-939.94140625,-54.6875
-229.00390625,-1000.0,-1000.0,-45.41015625
98.6328125,-190.4296875,-128.41796875,9.765625
194.3359375,999.51171875,999.51171875,28.3203125
-47.8515625,953.125,534.1796875,-11.71875
-263.671875,-275.87890625,-803.7109375,-65.4296875
-256.8359375,-1000.0,-1000.0,-144.53125
44.43359375,-391.11328125,-195.80078125,-174.31640625
192.87109375,874.0234375,999.51171875,-155.76171875
-1.46484375,999.51171875,850.5859375,-149.4140625
-218.75,205.56640625,-432.12890625,-146.97265625
-268.5546875,-1000.0,-1000.0,-140.13671875
21.484375,-438.4765625,-214.84375,-144.53125
211.9140625,903.80859375,999.51171875,-132.32421875
21.97265625,999.51171875,921.38671875,-125.48828125
-205.078125,203.61328125,-302.734375,-116.2109375
-286.1328125,-1000.0,-1000.0,-115.234375
-36.62109375,-731.93359375,-298.33984375,-121.09375
205.56640625,645.01953125,959.47265625,-113.28125
84.9609375,999.51171875,999.51171875,-97.16796875
-166.9921875,148.4375,-67.87109375,-86.9140625
-275.390625,-1000.0,-1000.0,-92.28515625
-75.68359375,-1000.0,-463.37890625,-105.46875
169.921875,121.09375,847.65625,-104.00390625
91.796875,999.51171875,999.51171875,-95.21484375
-166.015625,216.796875,118.1640625,-102.05078125
-278.3203125,-1000.0,-1000.0,-85.44921875
-88.8671875,-967.7734375,-647.94921875,-50.29296875
170.41015625,300.78125,704.58984375,-62.98828125
138.671875,999.51171875,999.51171875,-80.56640625
-115.72265625,309.08203125,151.85546875,-77.63671875
-285.64453125,-979.00390625,-1000.0,-75.1953125
-137.6953125,-1000.0,-884.765625,-61.5234375
147.94921875,104.00390625,405.2734375,-68.84765625
148.4375,999.51171875,999.51171875,-75.68359375
-96.19140625,443.84765625,179.6875,-54.6875
-294.43359375,-868.1640625,-1000.0,-61.03515625
-188.96484375,-1000.0,-1000.0,-62.01171875
129.8828125,-209.47265625,92.7734375,-52.734375
161.62109375,999.51171875,999.51171875,-56.640625
-71.77734375,905.2734375,261.71875,-57.6171875
-256.8359375,-375.48828125,-980.46875,-54.19921875
-210.44921875,-1000.0,-1000.0,-42.96875
96.6796875,-156.73828125,-103.515625,-58.10546875
187.5,969.7265625,999.51171875,-67.3828125
-30.76171875,999.51171875,558.59375,-48.33984375
-231.4453125,201.66015625,-784.1796875,-38.57421875
-234.86328125,-1000.0,-1000.0,-47.8515625
67.87109375,-227.05078125,-168.45703125,-47.36328125
212.40234375,999.51171875,999.51171875,-23.92578125
0.0,999.51171875,669.921875,-36.1328125
-227.05078125,-147.94921875,-671.38671875,-39.55078125
-239.74609375,-1000.0,-1000.0,-39.0625
45.41015625,-386.23046875,-196.2890625,-36.1328125
199.21875,892.578125,999.51171875,-40.0390625
7.32421875,999.51171875,895.01953125,-66.89453125
-220.703125,142.08984375,-360.83984375,-44.921875
-278.80859375,-1000.0,-1000.0,-41.015625
-15.13671875,-460.9375,-220.21484375,-44.43359375
202.63671875,886.23046875,997.0703125,-45.8984375
45.8984375,999.51171875,999.51171875,-54.19921875
-200.68359375,165.0390625,-115.72265625,-48.828125
-276.3671875,-1000.0,-1000.0,-52.24609375
-23.4375,-465.33203125,-326.66015625,-40.52734375
223.6328125,906.25,953.61328125,-46.38671875
75.1953125,999.51171875,999.51171875,-48.33984375
-183.59375,81.54296875,-1.953125,-40.52734375
-283.69140625,-1000.0,-1000.0,-32.2265625
-79.1015625,-1000.0,-566.40625,-43.9453125
179.19921875,194.3359375,771.97265625,-39.0625
115.72265625,999.51171875,999.51171875,-35.15625
-126.46484375,277.83203125,154.78515625,-44.921875
-281.73828125,-982.421875,-1000.0,-38.0859375
-116.69921875,-1000.0,-801.7578125,-35.15625
166.015625,14.16015625,522.94921875,-41.9921875
141.6015625,999.51171875,999.51171875,-56.640625
-109.375,379.39453125,179.19921875,-55.17578125
-284.66796875,-930.17578125,-1000.0,-37.59765625
-167.96875,-1000.0,-955.56640625,-28.3203125
132.8125,-59.5703125,279.296875,-39.55078125
161.1328125,999.51171875,999.51171875,-65.4296875
-70.3125,999.51171875,315.4296875,-45.8984375
-257.8125,60.05859375,-960.44921875,-16.6015625
-210.44921875,-1000.0,-1000.0,-40.0390625
104.4921875,-228.515625,11.23046875,-51.7578125
184.5703125,999.51171875,999.51171875,-41.50390625
-37.109375,870.1171875,420.8984375,-49.31640625
-246.09375,-439.453125,-889.16015625,-59.08203125
-237.79296875,-1000.0,-1000.0,-51.7578125
71.2890625,-177.734375,-140.625,-42.96875
200.1953125,999.51171875,999.51171875,-41.50390625
-8.30078125,999.51171875,597.65625,-38.0859375
-225.09765625,-136.71875,-747.55859375,-35.64453125
-232.421875,-1000.0,-1000.0,-2.9296875
65.4296875,-170.41015625,-201.171875,66.89453125
194.82421875,999.51171875,999.51171875,65.4296875
-8.30078125,946.2890625,650.390625,-1.953125
-249.0234375,-273.92578125,-688.96484375,-56.15234375
-302.734375,-1000.0,-1000.0,-41.9921875
-27.34375,-614.74609375,-335.44921875,22.4609375
155.2734375,724.609375,999.51171875,62.5
2.9296875,999.51171875,831.0546875,11.23046875
-235.83984375,18.5546875,-487.79296875,-55.17578125
-333.49609375,-1000.0,-1000.0,-52.734375
-116.69921875,-638.18359375,-448.2421875,3.41796875
119.140625,718.75,895.01953125,11.71875
-5.859375,999.51171875,999.51171875,-41.9921875
-261.23046875,148.92578125,-217.7734375,-134.27734375
-351.5625,-1000.0,-1000.0,-143.06640625
-130.37109375,-985.3515625,-649.90234375,-32.71484375
123.046875,261.23046875,671.38671875,-13.671875
30.76171875,999.51171875,999.51171875,-99.12109375
-237.79296875,208.49609375,46.875,-125.48828125
-346.6796875,-1000.0,-1000.0,-123.046875
-153.80859375,-1000.0,-843.75,-41.50390625
120.60546875,154.78515625,448.73046875,24.4140625
99.609375,999.51171875,999.51171875,-25.87890625
-148.4375,700.68359375,126.46484375,-42.96875
-315.4296875,-623.53515625,-1000.0,-32.71484375
-187.5,-1000.0,-1000.0,-79.1015625
121.09375,-72.265625,165.0390625,-80.078125
142.08984375,999.51171875,999.51171875,-20.01953125
-123.046875,362.3046875,125.48828125,-82.51953125
-290.52734375,-937.01171875,-1000.0,-122.55859375
-187.5,-1000.0,-1000.0,-90.33203125
96.6796875,-236.81640625,-126.46484375,-127.44140625
153.3203125,999.51171875,999.51171875,-145.01953125
-73.73046875,747.55859375,221.19140625,-145.01953125
-257.8125,-654.78515625,-1000.0,-141.6015625
-202.63671875,-1000.0,-1000.0,-113.28125
87.890625,-22.4609375,-164.55078125,-85.44921875
198.73046875,999.51171875,999.51171875,-66.89453125
-36.62109375,669.43359375,332.03125,-92.7734375
-271.97265625,-667.48046875,-955.078125,-99.12109375
-226.5625,-1000.0,-1000.0,-20.01953125
80.56640625,-174.8046875,-236.81640625,70.3125
201.66015625,988.28125,999.51171875,74.21875
2.9296875,999.51171875,646.97265625,25.390625
-220.703125,-41.015625,-705.078125,10.25390625
-252.44140625,-1000.0,-1000.0,-15.13671875
35.64453125,-374.0234375,-242.67578125,-91.30859375
226.5625,910.64453125,999.51171875,-105.95703125
77.63671875,999.51171875,871.58203125,-62.5
-184.08203125,124.0234375,-401.85546875,-73.73046875
-273.92578125,-1000.0,-1000.0,-47.8515625
10.25390625,-590.8203125,-342.28515625,35.64453125
225.5859375,780.76171875,960.9375,67.87109375
81.0546875,999.51171875,988.76953125,10.7421875
-181.15234375,158.203125,-214.84375,-45.8984375
-274.4140625,-1000.0,-1000.0,-25.390625
-46.38671875,-975.09765625,-589.84375,19.53125
216.30859375,258.7890625,746.09375,70.80078125
143.06640625,999.51171875,999.51171875,70.3125
-129.8828125,416.50390625,-13.18359375,31.25
-250.9765625,-922.8515625,-1000.0,4.39453125
-73.2421875,-1000.0,-833.984375,24.4140625
174.8046875,107.421875,473.6328125,63.4765625
130.37109375,999.51171875,999.51171875,48.828125
-123.046875,146.484375,5.859375,-18.5546875
-269.53125,-1000.0,-1000.0,-47.8515625
-118.1640625,-1000.0,-991.2109375,-26.3671875
155.2734375,-16.11328125,183.10546875,19.53125
149.90234375,999.51171875,999.51171875,46.875
-96.6796875,464.84375,128.90625,3.41796875
-270.99609375,-915.52734375,-1000.0,-32.71484375
-160.64453125,-1000.0,-1000.0,-9.27734375
131.34765625,121.58203125,62.98828125,58.59375
172.36328125,999.51171875,999.51171875,74.70703125
-57.6171875,943.84765625,253.41796875,10.25390625
-244.140625,-223.14453125,-985.3515625,-23.4375
-189.453125,-1000.0,-1000.0,-9.27734375
87.890625,-220.21484375,-113.76953125,53.22265625
185.546875,999.51171875,999.51171875,43.9453125
-39.55078125,712.40234375,406.25,-38.57421875
-252.9296875,-661.62109375,-909.66796875,-57.12890625
-228.515625,-1000.0,-1000.0,-36.1328125
71.2890625,-182.12890625,-155.2734375,-3.90625
197.75390625,999.51171875,999.51171875,3.90625
