TP9,AF7,AF8,TP10
-937.01171875,-255.859375,-200.1953125,-198.73046875
-858.3984375,955.56640625,999.51171875,-196.2890625
-968.75,999.51171875,975.09765625,-212.40234375
-1000.0,180.6640625,-205.078125,-226.5625
-993.1640625,-1000.0,-1000.0,-224.12109375
-783.203125,-382.32421875,-245.1171875,-178.7109375
-650.390625,915.0390625,965.8203125,-180.17578125
-819.3359375,999.51171875,999.51171875,-187.5
-935.05859375,329.1015625,71.2890625,-180.6640625
-910.64453125,-1000.0,-1000.0,-176.26953125
-616.2109375,-869.140625,-459.47265625,-146.97265625
-289.55078125,478.515625,865.234375,-128.90625
367.1875,999.51171875,999.51171875,-165.52734375
985.3515625,554.6875,141.6015625,-168.45703125
262.6953125,-786.62109375,-1000.0,-122.55859375
-534.66796875,-1000.0,-675.29296875,-122.0703125
-581.54296875,0.9765625,671.875,-111.81640625
-708.49609375,999.51171875,999.51171875,-103.02734375
-893.06640625,500.9765625,190.91796875,-119.140625
-938.4765625,-858.88671875,-1000.0,-114.2578125
-783.203125,-1000.0,-848.6328125,-108.3984375
-434.08203125,-12.6953125,458.49609375,-102.5390625
296.38671875,999.51171875,999.51171875,-102.5390625
942.87109375,999.51171875,300.78125,-108.3984375
967.28515625,-1.953125,-1000.0,-104.4921875
947.265625,-1000.0,-1000.0,-78.61328125
970.703125,-45.41015625,222.65625,-42.96875
965.33203125,999.51171875,999.51171875,-45.41015625
965.33203125,999.51171875,400.87890625,-77.63671875
965.33203125,221.6796875,-904.78515625,-90.33203125
965.8203125,-1000.0,-1000.0,-60.05859375
965.33203125,-224.12109375,-10.25390625,-57.6171875
965.33203125,999.51171875,999.51171875,-67.87109375
965.33203125,999.51171875,540.52734375,-60.546875
965.8203125,-104.98046875,-788.0859375,-57.6171875
965.8203125,-1000.0,-1000.0,-41.015625
965.8203125,-166.015625,-134.27734375,-23.92578125
965.33203125,979.4921875,999.51171875,-46.875
965.33203125,999.51171875,838.8671875,-65.4296875
965.33203125,217.7734375,-441.40625,-55.6640625
965.8203125,-1000.0,-1000.0,-53.7109375
965.33203125,-209.47265625,-179.19921875,-46.875
965.33203125,999.51171875,999.51171875,-29.78515625
965.33203125,999.51171875,905.76171875,-34.1796875
965.33203125,125.48828125,-330.078125,-62.01171875
965.8203125,-1000.0,-1000.0,-50.78125
965.33203125,-762.20703125,-237.79296875,-8.30078125
965.33203125,587.40234375,972.65625,-26.85546875
965.33203125,999.51171875,999.51171875,-55.6640625
965.33203125,173.33984375,-1.953125,-49.31640625
965.33203125,-1000.0,-1000.0,-55.6640625
965.33203125,-849.609375,-352.05078125,-33.203125
965.33203125,462.40234375,919.921875,-29.296875
965.33203125,999.51171875,999.51171875,-51.7578125
965.33203125,429.6875,158.203125,-53.7109375
965.8203125,-892.08984375,-1000.0,-58.59375
965.8203125,-1000.0,-586.42578125,-47.8515625
965.33203125,12.6953125,772.4609375,-41.9921875
965.33203125,999.51171875,999.51171875,-43.45703125
965.33203125,193.359375,160.15625,-78.61328125
965.8203125,-1000.0,-1000.0,-83.984375
965.33203125,-1000.0,-718.75,-16.6015625
965.33203125,57.6171875,625.48828125,27.83203125
965.33203125,999.51171875,999.51171875,0.48828125
965.33203125,584.47265625,214.84375,-66.89453125
965.8203125,-744.62890625,-1000.0,-100.09765625
965.8203125,-1000.0,-948.2421875,-67.3828125
965.33203125,-208.0078125,310.05859375,-78.125
965.33203125,999.51171875,999.51171875,-133.7890625
965.33203125,688.96484375,284.66796875,-132.8125
965.8203125,-686.03515625,-981.93359375,-101.5625
965.8203125,-1000.0,-1000.0,-81.0546875
965.33203125,-190.91796875,55.17578125,-76.171875
965.33203125,999.51171875,999.51171875,-81.54296875
965.33203125,977.5390625,448.2421875,-85.9375
965.33203125,-264.16015625,-875.48828125,-81.0546875
965.8203125,-1000.0,-1000.0,-61.5234375
965.33203125,-137.6953125,-52.24609375,-73.2421875
962.890625,999.51171875,999.51171875,-94.7265625
974.12109375,999.51171875,667.48046875,-86.42578125
920.41015625,-2.44140625,-652.34375,-71.77734375
914.0625,-1000.0,-1000.0,-58.59375
969.7265625,-389.16015625,-185.05859375,-60.05859375
957.51953125,922.36328125,999.51171875,-56.15234375
986.81640625,999.51171875,852.5390625,-74.70703125
810.05859375,14.16015625,-426.26953125,-76.66015625
690.4296875,-1000.0,-1000.0,-56.640625
891.11328125,-627.9296875,-197.265625,-50.78125
981.4453125,722.65625,995.60546875,-45.8984375
922.8515625,999.51171875,999.51171875,-59.08203125
657.71484375,186.5234375,-68.84765625,-69.82421875
514.16015625,-1000.0,-1000.0,-54.6875
770.5078125,-770.99609375,-288.57421875,-33.69140625
985.83984375,604.98046875,962.40234375,-34.1796875
877.44140625,999.51171875,999.51171875,-63.4765625
538.57421875,141.11328125,32.71484375,-65.4296875
351.5625,-1000.0,-1000.0,-46.875
611.81640625,-867.67578125,-418.45703125,21.97265625
913.0859375,455.078125,886.23046875,91.796875
789.55078125,999.51171875,999.51171875,63.96484375
461.9140625,156.73828125,161.62109375,11.23046875
249.51171875,-1000.0,-1000.0,2.9296875
429.19921875,-1000.0,-656.73828125,41.015625
764.6484375,-22.4609375,697.265625,82.03125
689.94140625,999.51171875,999.51171875,58.10546875
350.09765625,329.58984375,191.40625,15.625
162.59765625,-964.35546875,-1000.0,11.71875
328.61328125,-1000.0,-826.66015625,35.64453125
651.3671875,-78.61328125,491.2109375,85.44921875
634.27734375,999.51171875,999.51171875,67.87109375
314.94140625,479.4921875,252.9296875,13.671875
107.91015625,-887.20703125,-1000.0,-15.625
241.69921875,-1000.0,-1000.0,25.390625
590.8203125,-93.75,206.54296875,94.7265625
606.4453125,999.51171875,999.51171875,55.17578125
301.26953125,672.8515625,367.67578125,0.48828125
83.984375,-676.7578125,-922.8515625,-40.0390625
127.9296875,-1000.0,-1000.0,-33.203125
472.16796875,-204.58984375,-46.875,42.48046875
602.05078125,999.51171875,999.51171875,62.5
339.35546875,871.09375,543.45703125,5.859375
62.5,-442.87109375,-790.0390625,-59.08203125
73.73046875,-1000.0,-1000.0,-31.25
444.3359375,-153.80859375,-149.90234375,47.8515625
561.03515625,965.33203125,999.51171875,58.59375
295.8984375,999.51171875,845.703125,-8.30078125
7.32421875,222.16796875,-434.08203125,-68.84765625
-70.80078125,-1000.0,-1000.0,-54.19921875
261.23046875,-219.7265625,-188.4765625,20.01953125
400.87890625,999.51171875,999.51171875,33.69140625
103.02734375,999.51171875,905.2734375,-8.30078125
-266.6015625,-8.7890625,-332.03125,-38.0859375
-435.546875,-1000.0,-1000.0,-38.57421875
-173.828125,-726.5625,-253.90625,1.46484375
38.57421875,602.05078125,972.65625,38.0859375
-212.40234375,999.51171875,999.51171875,2.44140625
-524.4140625,151.3671875,-41.015625,-50.29296875
-383.7890625,-1000.0,-1000.0,-46.38671875
-597.65625,-1000.0,-357.91015625,9.765625
-1000.0,179.19921875,921.38671875,51.26953125
-991.2109375,999.51171875,999.51171875,3.90625
-993.1640625,145.5078125,100.09765625,-60.546875
-1000.0,-1000.0,-1000.0,-61.03515625
-1000.0,-1000.0,-533.69140625,-16.11328125
-1000.0,108.88671875,805.17578125,26.85546875
-997.0703125,999.51171875,999.51171875,13.18359375
-978.02734375,206.0546875,168.45703125,-45.41015625
-1000.0,-1000.0,-1000.0,-64.94140625
-616.2109375,-962.40234375,-727.5390625,-24.4140625
238.28125,302.24609375,616.2109375,33.69140625
287.109375,999.51171875,999.51171875,-6.34765625
30.76171875,674.31640625,216.30859375,-67.87109375
208.0078125,-663.0859375,-1000.0,-67.87109375
620.60546875,-1000.0,-933.10546875,-37.59765625
958.0078125,64.453125,332.03125,4.8828125
958.0078125,999.51171875,999.51171875,-2.9296875
934.5703125,945.3125,319.3359375,-48.828125
952.63671875,-228.515625,-974.609375,-83.984375
502.9296875,-1000.0,-1000.0,-38.0859375
-605.46875,-209.47265625,115.72265625,6.34765625
-1000.0,999.51171875,999.51171875,-19.04296875
-963.37890625,999.51171875,560.546875,-66.89453125
-1000.0,-115.234375,-755.37109375,-103.02734375
-1000.0,-1000.0,-1000.0,-59.5703125
-1000.0,-581.0546875,-143.06640625,-5.859375
-1000.0,878.90625,999.51171875,-9.27734375
-1000.0,944.82421875,638.18359375,-51.26953125
-979.98046875,-450.1953125,-702.63671875,-60.546875
-1000.0,-1000.0,-1000.0,-66.89453125
-804.6875,-236.81640625,-176.26953125,-35.15625
-325.1953125,936.03515625,999.51171875,7.8125
-123.53515625,999.51171875,899.4140625,-46.38671875
-35.15625,215.33203125,-353.515625,-78.61328125
269.04296875,-1000.0,-1000.0,-51.26953125
560.05859375,-201.66015625,-186.03515625,1.46484375
804.6875,999.51171875,999.51171875,37.109375
982.91015625,999.51171875,979.4921875,-9.27734375
957.03125,219.7265625,-181.15234375,-75.68359375
958.984375,-1000.0,-1000.0,-80.56640625
913.57421875,-698.73046875,-317.87109375,-20.99609375
999.51171875,729.98046875,942.3828125,15.625
100.5859375,999.51171875,999.51171875,-35.64453125
-1000.0,-57.12890625,19.04296875,-80.078125
-516.11328125,-1000.0,-1000.0,-68.359375
507.8125,-599.609375,-453.61328125,-14.16015625
999.51171875,744.140625,862.3046875,30.2734375
763.671875,999.51171875,999.51171875,10.7421875
-559.08203125,112.3046875,142.08984375,-64.453125
-1000.0,-997.55859375,-1000.0,-133.7890625
-941.89453125,-1000.0,-730.95703125,-131.34765625
-1000.0,-253.90625,613.76953125,-135.25390625
-1000.0,999.51171875,999.51171875,-129.39453125
-1000.0,207.03125,162.59765625,-130.37109375
-1000.0,-1000.0,-1000.0,-142.08984375
-1000.0,-1000.0,-895.5078125,-77.1484375
-1000.0,-202.63671875,375.9765625,-6.8359375
-1000.0,999.51171875,999.51171875,-2.9296875
-1000.0,922.36328125,312.01171875,-59.5703125
-1000.0,-348.14453125,-975.5859375,-79.58984375
-1000.0,-1000.0,-1000.0,-53.7109375
-1000.0,-182.6171875,105.95703125,-1.46484375
-1000.0,999.51171875,999.51171875,27.34375
-962.890625,999.51171875,411.62109375,-26.85546875
-1000.0,-183.10546875,-899.4140625,-68.359375
-725.09765625,-1000.0,-1000.0,-36.1328125
457.51953125,-142.08984375,-63.4765625,29.78515625
999.51171875,996.58203125,999.51171875,31.73828125
929.6875,999.51171875,564.94140625,-42.96875
962.40234375,62.5,-775.390625,-86.9140625
967.7734375,-1000.0,-1000.0,-71.2890625
965.33203125,-112.79296875,-147.94921875,-14.16015625
968.75,999.51171875,999.51171875,25.87890625
951.171875,999.51171875,759.27734375,-18.06640625
993.65234375,210.44921875,-551.26953125,-62.5
906.25,-1000.0,-1000.0,-64.453125
751.953125,-475.5859375,-197.75390625,-0.48828125
949.70703125,880.37109375,999.51171875,35.64453125
999.51171875,999.51171875,946.2890625,-15.625
641.11328125,211.9140625,-261.71875,-64.453125
734.86328125,-1000.0,-1000.0,-76.171875
999.51171875,-547.36328125,-243.65234375,-14.6484375
896.97265625,844.23828125,977.5390625,16.6015625
999.51171875,999.51171875,999.51171875,-20.99609375
145.5078125,133.7890625,-25.390625,-82.51953125
-1000.0,-1000.0,-1000.0,-109.86328125
-986.328125,-1000.0,-398.4375,-32.71484375
-961.42578125,56.640625,899.90234375,7.32421875
-994.62890625,999.51171875,999.51171875,-33.69140625
-970.21484375,179.6875,111.328125,-63.4765625
-218.26171875,-1000.0,-1000.0,-85.9375
779.78515625,-898.4375,-607.421875,-40.0390625
965.8203125,431.15234375,741.2109375,16.11328125
957.03125,999.51171875,999.51171875,-15.13671875
934.5703125,908.69140625,160.15625,-81.0546875
682.12890625,-275.87890625,-1000.0,-95.21484375
773.4375,-1000.0,-875.0,-40.0390625
990.72265625,-141.11328125,420.41015625,13.18359375
651.3671875,999.51171875,999.51171875,1.46484375
-409.66796875,251.46484375,184.08203125,-47.36328125
-820.3125,-995.60546875,-1000.0,-64.94140625
-748.53515625,-1000.0,-1000.0,-46.875
-1000.0,-254.39453125,161.62109375,-16.11328125
-1000.0,999.51171875,999.51171875,-4.39453125
-993.1640625,628.90625,299.8046875,-40.0390625
-1000.0,-759.27734375,-978.02734375,-84.47265625
-1000.0,-1000.0,-1000.0,-59.08203125
-1000.0,-185.546875,30.76171875,-27.83203125
-1000.0,999.51171875,999.51171875,-34.1796875
-1000.0,999.51171875,529.78515625,-44.43359375
-1000.0,-154.296875,-792.96875,-85.44921875
-1000.0,-1000.0,-1000.0,-54.19921875
-1000.0,-311.03515625,-152.34375,17.08984375
-1000.0,974.609375,999.51171875,15.13671875
-988.76953125,999.51171875,677.734375,-49.31640625
-997.0703125,-174.8046875,-665.0390625,-103.02734375
-948.2421875,-1000.0,-1000.0,-82.03125
-389.6484375,-163.0859375,-168.9453125,-27.34375
272.4609375,979.00390625,999.51171875,-29.78515625
476.5625,999.51171875,878.90625,-57.12890625
460.9375,194.3359375,-381.34765625,-85.9375
567.87109375,-1000.0,-1000.0,-88.8671875
861.81640625,-388.671875,-218.26171875,-25.390625
975.09765625,923.828125,995.60546875,9.27734375
957.51953125,999.51171875,999.51171875,-23.92578125
964.84375,207.03125,-107.421875,-71.77734375
966.30859375,-1000.0,-1000.0,-95.703125
965.33203125,-730.95703125,-328.61328125,-41.9921875
965.33203125,634.765625,922.36328125,-22.4609375
965.33203125,999.51171875,999.51171875,-57.12890625
965.33203125,725.5859375,149.4140625,-71.77734375
965.33203125,-668.9453125,-1000.0,-84.47265625
965.33203125,-1000.0,-522.4609375,-39.0625
965.33203125,339.35546875,829.58984375,21.484375
965.33203125,999.51171875,999.51171875,-23.92578125
965.33203125,163.0859375,130.37109375,-81.0546875
965.8203125,-1000.0,-1000.0,-95.703125
965.33203125,-1000.0,-766.6015625,-42.96875
965.33203125,-22.4609375,562.01171875,0.48828125
965.33203125,999.51171875,999.51171875,-12.20703125
965.33203125,687.98828125,193.84765625,-55.17578125
965.8203125,-757.8125,-1000.0,-103.02734375
966.796875,-1000.0,-875.48828125,-60.05859375
958.984375,318.84765625,427.734375,11.23046875
976.07421875,999.51171875,999.51171875,-4.39453125
939.94140625,511.23046875,222.65625,-72.265625
827.1484375,-797.8515625,-1000.0,-92.28515625
908.203125,-1000.0,-1000.0,-55.17578125
964.84375,-218.75,62.5,0.9765625
981.4453125,999.51171875,999.51171875,-0.9765625
849.12109375,676.26953125,341.796875,-62.01171875
478.515625,-702.63671875,-940.91796875,-99.609375
449.70703125,-1000.0,-1000.0,-70.3125
787.109375,-161.62109375,-112.3046875,-5.859375
989.2578125,966.30859375,999.51171875,6.8359375
916.9921875,999.51171875,672.8515625,-41.015625
711.9140625,157.2265625,-660.15625,-96.19140625
742.1875,-1000.0,-1000.0,-79.58984375
946.2890625,-286.62109375,-176.26953125,-10.25390625
976.5625,985.3515625,999.51171875,-5.37109375
917.48046875,999.51171875,812.98828125,-40.0390625
614.74609375,41.015625,-485.83984375,-115.234375
438.96484375,-1000.0,-1000.0,-202.1484375
744.62890625,-489.74609375,-194.3359375,-91.796875
913.0859375,843.75,999.51171875,-22.4609375
684.08203125,999.51171875,995.60546875,-71.2890625
416.50390625,247.0703125,-142.08984375,-127.9296875
278.3203125,-1000.0,-1000.0,-142.578125
479.00390625,-677.734375,-270.99609375,-64.94140625
559.08203125,726.07421875,975.09765625,-4.8828125
216.796875,999.51171875,999.51171875,-6.8359375
-327.1484375,139.6484375,-26.3671875,-81.54296875
-674.8046875,-1000.0,-1000.0,-119.140625
-557.12890625,-999.0234375,-430.6640625,-41.9921875
-475.5859375,246.58203125,881.8359375,12.6953125
-767.578125,999.51171875,999.51171875,-11.71875
-1000.0,141.11328125,95.21484375,-65.4296875
-995.60546875,-1000.0,-1000.0,-89.35546875
-995.60546875,-1000.0,-595.703125,-22.94921875
-1000.0,207.51953125,752.9296875,23.4375
-1000.0,999.51171875,999.51171875,7.32421875
-1000.0,136.23046875,145.5078125,-50.29296875
-1000.0,-1000.0,-1000.0,-95.703125
-1000.0,-1000.0,-869.140625,-45.8984375
-1000.0,-62.5,428.22265625,11.71875
-1000.0,999.51171875,999.51171875,-43.45703125
-999.51171875,412.59765625,187.98828125,-168.9453125
-997.0703125,-904.296875,-1000.0,-190.91796875
-1000.0,-1000.0,-1000.0,-192.87109375
-931.640625,-215.33203125,151.85546875,-107.421875
-922.8515625,999.51171875,999.51171875,-58.59375
-1000.0,868.1640625,282.71484375,-96.6796875
-991.2109375,-446.77734375,-972.16796875,-101.07421875
-1000.0,-1000.0,-1000.0,-76.66015625
-875.9765625,-188.96484375,-59.5703125,9.27734375
-750.9765625,999.51171875,999.51171875,30.76171875
-891.6015625,970.21484375,483.88671875,-32.2265625
-910.64453125,-289.0625,-850.5859375,-64.94140625
-626.953125,-1000.0,-1000.0,-27.34375
-177.734375,-100.09765625,-117.1875,-57.12890625
-139.16015625,999.51171875,999.51171875,-82.03125
-675.29296875,999.51171875,679.6875,-88.8671875
-987.79296875,37.109375,-646.484375,-105.95703125
-1000.0,-1000.0,-1000.0,-78.61328125
-754.39453125,-346.19140625,-190.91796875,-10.7421875
294.921875,923.33984375,999.51171875,25.390625
967.28515625,999.51171875,891.11328125,-15.625
946.2890625,213.8671875,-367.67578125,-63.4765625
954.58984375,-1000.0,-1000.0,-83.984375
968.75,-294.921875,-207.03125,-24.90234375
965.8203125,967.7734375,997.55859375,-22.4609375
965.33203125,999.51171875,999.51171875,-72.265625
965.33203125,229.98046875,-87.890625,-81.0546875
965.8203125,-1000.0,-1000.0,-87.40234375
965.8203125,-238.76953125,-266.11328125,2.44140625
965.33203125,991.69921875,967.28515625,41.9921875
965.33203125,999.51171875,999.51171875,-10.25390625
965.33203125,195.3125,58.59375,-61.03515625
965.8203125,-1000.0,-1000.0,-63.4765625
965.33203125,-966.30859375,-537.109375,8.30078125
965.33203125,292.48046875,800.29296875,39.55078125
969.7265625,999.51171875,999.51171875,22.94921875
945.3125,247.55859375,138.18359375,-28.80859375
977.05078125,-989.2578125,-1000.0,-60.546875
980.46875,-1000.0,-800.29296875,-24.4140625
319.82421875,7.8125,522.94921875,38.0859375
453.61328125,999.51171875,999.51171875,2.44140625
999.51171875,564.453125,186.03515625,-147.4609375
948.73046875,-779.78515625,-1000.0,-214.84375
958.49609375,-1000.0,-937.98828125,-147.94921875
967.7734375,-192.87109375,318.359375,-46.875
965.33203125,999.51171875,999.51171875,-20.01953125
965.33203125,623.53515625,222.16796875,-59.5703125
965.33203125,-758.7890625,-1000.0,-74.21875
965.8203125,-1000.0,-1000.0,-27.34375
965.8203125,-160.15625,41.50390625,26.85546875
965.8203125,970.703125,999.51171875,21.484375
961.42578125,999.51171875,377.9296875,-20.5078125
954.1015625,125.48828125,-910.64453125,-55.17578125
999.51171875,-1000.0,-1000.0,-35.64453125
580.078125,-533.203125,-154.296875,14.6484375
749.51171875,999.51171875,999.51171875,33.69140625
235.83984375,554.19921875,566.40625,-21.97265625
-997.55859375,-893.06640625,-780.76171875,-71.77734375
-244.62890625,-1000.0,-1000.0,-50.78125
719.23828125,-197.75390625,-180.6640625,12.20703125
972.65625,969.7265625,999.51171875,35.15625
943.84765625,999.51171875,802.24609375,-6.8359375
964.35546875,36.1328125,-505.37109375,-48.33984375
966.796875,-1000.0,-1000.0,-58.10546875
965.8203125,-181.15234375,-183.10546875,-9.27734375
965.33203125,990.72265625,999.51171875,23.92578125
965.33203125,999.51171875,956.54296875,-20.01953125
965.33203125,200.68359375,-234.86328125,-67.87109375
965.8203125,-1000.0,-1000.0,-81.0546875
965.8203125,-619.62890625,-274.4140625,-21.484375
965.33203125,765.625,960.9375,0.9765625
965.33203125,999.51171875,999.51171875,-38.0859375
965.33203125,166.015625,4.8828125,-72.75390625
965.33203125,-1000.0,-1000.0,-79.58984375
965.8203125,-967.28515625,-438.96484375,-24.90234375
964.84375,288.57421875,869.140625,18.5546875
966.30859375,999.51171875,999.51171875,0.0
963.37890625,264.16015625,153.3203125,-86.42578125
957.51953125,-986.81640625,-1000.0,-104.00390625
965.8203125,-1000.0,-686.5234375,-28.3203125
959.9609375,31.25,666.015625,2.9296875
974.12109375,999.51171875,999.51171875,-1.953125
942.3828125,441.89453125,162.109375,-65.4296875
813.4765625,-889.16015625,-1000.0,-98.6328125
884.27734375,-1000.0,-895.99609375,-37.59765625
967.28515625,-144.53125,390.13671875,0.48828125
981.4453125,999.51171875,999.51171875,-17.08984375
875.0,440.91796875,184.5703125,-67.87109375
623.046875,-910.15625,-1000.0,-103.02734375
742.67578125,-1000.0,-991.69921875,-50.29296875
955.078125,-184.5703125,212.40234375,11.71875
970.21484375,999.51171875,999.51171875,11.71875
759.765625,516.6015625,272.4609375,-50.29296875
446.2890625,-856.4453125,-972.65625,-90.8203125
493.1640625,-1000.0,-1000.0,-73.2421875
833.49609375,-208.0078125,-73.2421875,0.9765625
933.59375,999.51171875,999.51171875,-10.25390625
671.875,908.203125,487.79296875,-92.28515625
389.16015625,-380.859375,-841.796875,-78.125
378.90625,-1000.0,-1000.0,-40.52734375
733.3984375,-176.26953125,-152.34375,0.0
871.58203125,999.51171875,999.51171875,20.5078125
592.7734375,999.51171875,697.75390625,-26.3671875
388.671875,-95.21484375,-633.30078125,-87.40234375
113.28125,-1000.0,-1000.0,-76.171875
43.45703125,-588.8671875,-196.77734375,-1.953125
332.03125,786.1328125,999.51171875,9.765625
215.8203125,999.51171875,877.9296875,-42.48046875
-186.5234375,-86.9140625,-385.7421875,-92.28515625
-492.1875,-1000.0,-1000.0,-85.44921875
-377.44140625,-770.5078125,-244.62890625,-24.90234375
-39.0625,534.1796875,968.75,-10.7421875
11.71875,999.51171875,999.51171875,-22.4609375
-155.76171875,181.15234375,-9.27734375,-50.78125
-152.34375,-1000.0,-1000.0,-67.87109375
131.8359375,-770.01953125,-374.51171875,-17.578125
96.6796875,582.51953125,918.9453125,21.97265625
-47.8515625,999.51171875,999.51171875,-7.8125
-142.08984375,315.4296875,80.078125,-75.68359375
-214.35546875,-959.47265625,-1000.0,-77.63671875
179.19921875,-1000.0,-571.2890625,-33.69140625
-408.203125,60.05859375,770.5078125,-13.18359375
-1000.0,999.51171875,999.51171875,-27.34375
-965.8203125,185.05859375,155.2734375,-79.1015625
-996.58203125,-1000.0,-1000.0,-84.47265625
-1000.0,-1000.0,-770.99609375,-35.15625
-1000.0,-146.97265625,568.359375,5.37109375
-1000.0,999.51171875,999.51171875,-11.71875
-1000.0,229.98046875,154.296875,-68.359375
-1000.0,-1000.0,-1000.0,-97.65625
-1000.0,-1000.0,-974.609375,-55.6640625
-1000.0,-209.47265625,247.0703125,-6.8359375
-1000.0,999.51171875,999.51171875,-7.32421875
-1000.0,755.37109375,239.74609375,-79.58984375
-1000.0,-608.88671875,-1000.0,-118.1640625
-1000.0,-1000.0,-1000.0,-67.87109375
-1000.0,-163.57421875,36.62109375,0.48828125
-1000.0,999.51171875,999.51171875,9.27734375
-1000.0,654.78515625,305.17578125,-55.6640625
-1000.0,-709.47265625,-952.63671875,-103.515625
-1000.0,-1000.0,-1000.0,-67.3828125
-1000.0,-242.1875,-183.59375,-6.8359375
-1000.0,999.51171875,999.51171875,0.48828125
-1000.0,988.76953125,502.44140625,-51.7578125
-1000.0,-236.81640625,-837.40234375,-108.3984375
-1000.0,-1000.0,-1000.0,-74.21875
-1000.0,-258.30078125,-204.1015625,3.41796875
-1000.0,936.03515625,999.51171875,8.7890625
-1000.0,999.51171875,825.1953125,-38.0859375
-1000.0,226.07421875,-471.6796875,-84.9609375
-1000.0,-1000.0,-1000.0,-90.8203125
-1000.0,-538.0859375,-229.4921875,-7.8125
-1000.0,855.46875,999.51171875,19.53125
-1000.0,999.51171875,907.71484375,-75.1953125
-1000.0,124.51171875,-335.44921875,-110.83984375
-1000.0,-1000.0,-1000.0,-70.80078125
-1000.0,-791.9921875,-337.890625,-19.04296875
-1000.0,552.24609375,933.59375,-9.765625
-1000.0,999.51171875,999.51171875,-27.34375
-1000.0,201.171875,-40.0390625,-73.2421875
-1000.0,-1000.0,-1000.0,-90.8203125
-1000.0,-697.265625,-422.36328125,-26.85546875
-1000.0,686.03515625,880.37109375,-17.08984375
-1000.0,999.51171875,999.51171875,-41.50390625
-997.55859375,158.203125,104.00390625,-60.05859375
-1000.0,-1000.0,-1000.0,-72.265625
-1000.0,-1000.0,-732.421875,-33.69140625
-908.203125,-39.0625,606.93359375,22.94921875
-896.97265625,999.51171875,999.51171875,-5.859375
-981.93359375,289.0625,145.5078125,-70.3125
-1000.0,-1000.0,-1000.0,-92.28515625
-856.4453125,-1000.0,-862.3046875,-62.01171875
-632.32421875,198.2421875,438.96484375,-4.39453125
-666.015625,999.51171875,999.51171875,-5.37109375
-801.26953125,565.91796875,188.96484375,-55.6640625
-817.87109375,-757.32421875,-1000.0,-94.23828125
-641.11328125,-1000.0,-1000.0,-82.03125
-434.5703125,-160.64453125,120.1171875,-21.97265625
-431.15234375,999.51171875,999.51171875,1.46484375
-562.98828125,745.1171875,271.97265625,-62.01171875
-627.44140625,-606.93359375,-975.09765625,-102.05078125
-520.5078125,-1000.0,-1000.0,-46.875
-294.43359375,-163.0859375,-94.7265625,11.23046875
-265.13671875,973.14453125,999.51171875,8.7890625
-438.96484375,999.51171875,511.71875,-39.0625
-525.87890625,90.33203125,-820.80078125,-83.49609375
-429.6875,-1000.0,-1000.0,-67.87109375
-208.984375,-211.42578125,-178.7109375,-19.53125
-194.3359375,999.51171875,999.51171875,-5.37109375
-363.28125,999.51171875,629.8828125,-70.80078125
-469.7265625,-142.08984375,-715.33203125,-94.7265625
-341.796875,-1000.0,-1000.0,-82.51953125
74.70703125,-318.359375,-221.19140625,-54.19921875
473.6328125,920.41015625,999.51171875,-6.8359375
685.05859375,999.51171875,810.05859375,-34.66796875
670.41015625,186.03515625,-495.1171875,-82.51953125
776.85546875,-1000.0,-1000.0,-81.54296875
999.51171875,-332.03125,-259.765625,-28.3203125
787.109375,983.3984375,999.51171875,7.32421875
70.3125,999.51171875,949.21875,-36.1328125
-423.828125,-63.96484375,-268.06640625,-75.68359375
-521.484375,-1000.0,-1000.0,-73.73046875
-406.25,-837.40234375,-400.390625,-45.8984375
-299.31640625,419.921875,891.6015625,0.9765625
-541.9921875,999.51171875,999.51171875,-26.3671875
-56.640625,346.19140625,28.80859375,-84.47265625
195.3125,-974.609375,-1000.0,-87.890625
-258.7890625,-1000.0,-597.16796875,-34.1796875
-203.61328125,205.078125,743.1640625,5.859375
-347.65625,999.51171875,999.51171875,-11.71875
-515.625,194.3359375,136.23046875,-90.8203125
-491.2109375,-1000.0,-1000.0,-121.09375
44.921875,-995.60546875,-820.80078125,-69.3359375
819.82421875,248.53515625,500.0,-5.859375
986.328125,999.51171875,999.51171875,-16.6015625
940.91796875,686.5234375,159.66796875,-83.0078125
969.23828125,-639.6484375,-1000.0,-92.7734375
965.8203125,-1000.0,-973.6328125,-45.8984375
967.7734375,41.015625,246.09375,17.578125
958.0078125,999.51171875,999.51171875,9.27734375
939.94140625,999.51171875,270.99609375,-55.6640625
999.51171875,64.453125,-987.3046875,-93.75
349.12109375,-1000.0,-1000.0,-60.05859375
-546.38671875,-254.8828125,29.296875,-3.90625
-682.6171875,999.51171875,999.51171875,-5.37109375
-805.17578125,524.90234375,357.421875,-53.22265625
-1000.0,-853.02734375,-933.10546875,-75.1953125
-334.9609375,-1000.0,-1000.0,-56.15234375
-10.25390625,-273.92578125,-131.34765625,-11.23046875
-580.078125,999.51171875,999.51171875,-2.44140625
-827.1484375,692.87109375,545.8984375,-58.10546875
-961.42578125,-690.4296875,-796.875,-139.16015625
-897.4609375,-1000.0,-1000.0,-136.23046875
-679.6875,-220.703125,-170.41015625,-41.015625
-624.0234375,972.65625,999.51171875,-5.859375
-756.8359375,999.51171875,820.80078125,-68.84765625
-858.88671875,-46.38671875,-473.14453125,-108.3984375
-754.8828125,-1000.0,-1000.0,-97.16796875
-465.8203125,-265.13671875,-195.3125,-40.52734375
-360.83984375,951.66015625,999.51171875,-0.9765625
-408.203125,999.51171875,960.9375,-38.0859375
-240.72265625,197.75390625,-230.46875,-63.4765625
334.47265625,-1000.0,-1000.0,-86.9140625
887.6953125,-426.7578125,-289.55078125,-6.34765625
966.796875,906.73828125,964.84375,-71.2890625
952.63671875,999.51171875,999.51171875,-233.3984375
966.796875,203.125,-59.08203125,-221.6796875
965.8203125,-1000.0,-1000.0,-151.85546875
965.33203125,-739.2578125,-465.33203125,-72.75390625
965.33203125,613.76953125,850.09765625,-60.05859375
965.33203125,999.51171875,999.51171875,-76.171875
965.33203125,455.56640625,111.328125,-102.05078125
965.33203125,-1000.0,-1000.0,-112.79296875
965.8203125,-573.73046875,-598.14453125,-44.43359375
965.33203125,879.8828125,751.953125,22.94921875
965.33203125,999.51171875,999.51171875,-4.39453125
965.33203125,798.33984375,169.43359375,-61.5234375
965.33203125,-465.8203125,-1000.0,-60.05859375
965.33203125,-1000.0,-925.29296875,-21.97265625
965.33203125,-149.4140625,343.26171875,0.48828125
965.33203125,999.51171875,999.51171875,1.953125
965.33203125,555.6640625,184.08203125,-44.921875
965.33203125,-816.89453125,-1000.0,-72.265625
965.33203125,-1000.0,-1000.0,-34.66796875
965.33203125,-222.65625,105.46875,19.04296875
965.33203125,999.51171875,999.51171875,14.16015625
965.33203125,708.0078125,288.57421875,-53.7109375
965.33203125,-713.8671875,-988.28125,-73.73046875
967.7734375,-1000.0,-1000.0,-71.2890625
956.0546875,74.21875,36.62109375,-69.82421875
918.9453125,999.51171875,999.51171875,-29.78515625
999.51171875,901.85546875,489.74609375,-44.921875
36.1328125,-308.10546875,-820.80078125,-83.49609375
-1000.0,-1000.0,-1000.0,-74.21875
-966.30859375,-895.01953125,-174.31640625,0.9765625
-983.3984375,596.19140625,999.51171875,27.34375
-1000.0,695.80078125,663.57421875,-18.06640625
-1000.0,-832.51953125,-679.19921875,-76.66015625
-1000.0,-1000.0,-1000.0,-57.6171875
-1000.0,-485.83984375,-187.98828125,11.71875
-1000.0,829.58984375,999.51171875,17.578125
-1000.0,999.51171875,925.78125,-16.6015625
-1000.0,49.8046875,-299.31640625,-65.4296875
-1000.0,-1000.0,-1000.0,-61.5234375
-1000.0,-788.57421875,-244.140625,1.46484375
-1000.0,542.96875,999.0234375,35.64453125
-985.83984375,999.51171875,995.60546875,6.34765625
-974.12109375,166.015625,-156.25,-73.2421875
-1000.0,-1000.0,-1000.0,-83.49609375
-26.3671875,-359.86328125,-332.51953125,-0.9765625
999.51171875,935.05859375,920.8984375,36.62109375
944.3359375,999.51171875,999.51171875,1.953125
946.2890625,760.7421875,123.046875,-53.22265625
971.6796875,-663.0859375,-1000.0,-87.40234375
965.8203125,-1000.0,-620.60546875,-52.734375
965.8203125,348.14453125,735.3515625,16.6015625
965.33203125,999.51171875,999.51171875,2.9296875
965.33203125,475.09765625,145.5078125,-68.84765625
965.8203125,-886.71875,-1000.0,-76.66015625
965.33203125,-1000.0,-804.19921875,-38.57421875
965.33203125,124.0234375,521.484375,-12.6953125
965.33203125,999.51171875,999.51171875,-30.76171875
965.33203125,729.98046875,175.78125,-75.1953125
965.8203125,-771.97265625,-1000.0,-97.65625
965.33203125,-864.74609375,-874.51171875,-39.55078125
965.33203125,631.34765625,420.41015625,5.859375
965.33203125,999.51171875,999.51171875,-34.1796875
965.33203125,690.4296875,238.28125,-76.66015625
965.33203125,-588.8671875,-997.0703125,-95.21484375
965.33203125,-1000.0,-1000.0,-54.6875
965.8203125,-197.75390625,39.55078125,-8.30078125
965.33203125,999.51171875,999.51171875,-10.7421875
965.33203125,909.1796875,390.13671875,-63.96484375
965.8203125,-376.953125,-905.76171875,-98.14453125
965.8203125,-1000.0,-1000.0,-64.453125
965.33203125,-181.640625,-140.625,-0.48828125
965.33203125,999.51171875,999.51171875,-3.90625
965.33203125,999.51171875,622.0703125,-68.359375
965.8203125,-159.66796875,-721.6796875,-90.33203125
965.33203125,-1000.0,-1000.0,-56.640625
965.33203125,-422.36328125,-203.125,-12.6953125
965.33203125,894.04296875,999.51171875,-9.27734375
965.33203125,999.51171875,791.015625,-50.29296875
965.33203125,-10.25390625,-523.4375,-82.51953125
965.33203125,-1000.0,-1000.0,-67.3828125
965.33203125,-564.94140625,-207.51953125,-11.71875
965.33203125,766.6015625,999.51171875,7.32421875
965.33203125,999.51171875,988.28125,-39.55078125
965.33203125,299.31640625,-153.80859375,-83.984375
965.8203125,-1000.0,-1000.0,-94.23828125
965.33203125,-900.87890625,-325.1953125,-62.98828125
965.33203125,457.03125,946.77734375,-11.71875
965.33203125,999.51171875,999.51171875,-8.7890625
965.33203125,142.08984375,-7.8125,-73.2421875
965.8203125,-1000.0,-1000.0,-83.0078125
965.8203125,-1000.0,-492.1875,-31.25
965.33203125,76.171875,829.58984375,-12.20703125
965.33203125,999.51171875,999.51171875,-34.66796875
965.8203125,342.28515625,149.90234375,-76.66015625
965.33203125,-1000.0,-1000.0,-102.5390625
966.30859375,-619.140625,-582.03125,-53.22265625
959.47265625,797.8515625,773.4375,11.23046875
976.07421875,999.51171875,999.51171875,-14.6484375
934.08203125,739.2578125,168.9453125,-67.87109375
815.91796875,-529.78515625,-1000.0,-85.9375
891.11328125,-1000.0,-940.91796875,-45.41015625
963.37890625,-217.28515625,314.94140625,2.9296875
985.3515625,999.51171875,999.51171875,2.44140625
855.46875,499.51171875,196.2890625,-52.24609375
576.66015625,-884.27734375,-1000.0,-89.84375
691.40625,-1000.0,-1000.0,-58.59375
936.03515625,-206.0546875,99.12109375,10.25390625
970.21484375,999.51171875,999.51171875,-1.46484375
750.9765625,781.25,307.12890625,-63.4765625
442.87109375,-567.3828125,-956.54296875,-82.51953125
489.74609375,-1000.0,-1000.0,-38.57421875
833.49609375,-175.78125,-107.421875,8.30078125
914.0625,996.09375,999.51171875,6.8359375
654.78515625,999.51171875,556.640625,-42.96875
359.375,-91.796875,-782.71484375,-104.4921875
326.171875,-1000.0,-1000.0,-91.796875
693.84765625,-217.28515625,-177.734375,-19.53125
838.8671875,999.0234375,999.51171875,-0.9765625
574.70703125,999.51171875,713.8671875,-61.5234375
286.62109375,-59.08203125,-621.58203125,-82.03125
231.93359375,-1000.0,-1000.0,-74.21875
578.125,-422.8515625,-196.2890625,-27.34375
777.83203125,879.8828125,999.51171875,6.34765625
546.38671875,999.51171875,869.62890625,-49.31640625
241.69921875,158.69140625,-395.5078125,-82.51953125
153.80859375,-1000.0,-1000.0,-91.30859375
452.63671875,-532.2265625,-239.74609375,-37.59765625
657.71484375,843.75,980.46875,13.671875
483.88671875,999.51171875,999.51171875,-35.64453125
183.10546875,193.359375,-70.3125,-83.0078125
41.015625,-1000.0,-1000.0,-78.125
330.078125,-408.69140625,-310.05859375,-43.45703125
602.5390625,924.31640625,950.68359375,2.9296875
452.1484375,999.51171875,999.51171875,-15.625
121.09375,127.9296875,44.921875,-81.54296875
-43.9453125,-1000.0,-1000.0,-100.09765625
265.13671875,-967.28515625,-562.5,-39.0625
449.70703125,284.1796875,773.92578125,20.01953125
57.12890625,999.51171875,999.51171875,-6.34765625
-243.1640625,157.71484375,149.90234375,-64.453125
-134.27734375,-992.67578125,-1000.0,-69.82421875
-485.3515625,-1000.0,-841.796875,-44.921875
-1000.0,-227.5390625,462.890625,-6.34765625
-927.24609375,999.51171875,999.51171875,-20.99609375
-975.5859375,770.5078125,213.8671875,-83.0078125
-911.62109375,-584.47265625,-1000.0,-106.93359375
-415.0390625,-1000.0,-1000.0,-65.91796875
-469.7265625,-217.7734375,207.03125,-1.46484375
-1000.0,999.51171875,999.51171875,-2.9296875
-1000.0,327.63671875,218.26171875,-64.94140625
-944.3359375,-975.5859375,-1000.0,-104.4921875
-617.67578125,-1000.0,-1000.0,-76.66015625
8.7890625,-165.52734375,-8.7890625,-19.53125
305.17578125,967.7734375,999.51171875,-24.4140625
176.26953125,999.51171875,429.19921875,-42.48046875
11.71875,216.796875,-884.27734375,-76.171875
110.3515625,-1000.0,-1000.0,-90.33203125
543.9453125,-226.5625,-143.06640625,-15.13671875
744.62890625,999.51171875,999.51171875,16.11328125
518.06640625,999.51171875,582.51953125,-46.38671875
243.65234375,-120.1171875,-758.30078125,-104.98046875
229.4921875,-1000.0,-1000.0,-96.19140625
616.2109375,-258.7890625,-199.70703125,-21.97265625
819.82421875,949.70703125,999.51171875,7.8125
590.8203125,999.51171875,834.47265625,-46.875
315.4296875,158.203125,-458.49609375,-68.359375
253.90625,-1000.0,-1000.0,-68.84765625
586.42578125,-198.73046875,-194.3359375,-25.390625
812.98828125,999.51171875,999.51171875,3.90625
597.16796875,999.51171875,955.56640625,-66.89453125
282.2265625,187.5,-236.328125,-117.67578125
176.7578125,-1000.0,-1000.0,-94.7265625
483.3984375,-646.484375,-300.78125,-32.2265625
755.859375,736.328125,946.2890625,-9.27734375
607.91015625,999.51171875,999.51171875,-42.96875
283.203125,164.55078125,20.01953125,-87.890625
104.4921875,-1000.0,-1000.0,-94.7265625
343.75,-970.703125,-467.7734375,-37.109375
657.2265625,291.9921875,847.65625,-12.6953125
574.21875,999.51171875,999.51171875,-36.1328125
249.51171875,196.77734375,162.59765625,-74.70703125
57.12890625,-1000.0,-1000.0,-100.5859375
276.3671875,-1000.0,-715.8203125,-68.359375
605.95703125,7.32421875,637.20703125,-17.578125
554.6875,999.51171875,999.51171875,-13.671875
212.890625,153.3203125,153.80859375,-165.0390625
5.859375,-1000.0,-1000.0,-234.86328125
189.94140625,-1000.0,-878.90625,-118.65234375
526.3671875,-13.671875,409.66796875,-47.36328125
530.76171875,999.51171875,999.51171875,-38.0859375
213.8671875,538.57421875,223.14453125,-81.54296875
-7.8125,-801.26953125,-1000.0,-100.5859375
101.5625,-1000.0,-1000.0,-55.6640625
456.0546875,-205.078125,171.875,2.9296875
502.9296875,999.51171875,999.51171875,14.6484375
206.54296875,674.8046875,324.21875,-26.3671875
-36.1328125,-700.68359375,-952.63671875,-72.265625
12.20703125,-1000.0,-1000.0,-64.94140625
364.74609375,-189.453125,-43.9453125,-12.6953125
458.0078125,999.51171875,999.51171875,13.18359375
179.19921875,987.3046875,573.73046875,-122.0703125
-97.65625,-234.86328125,-762.6953125,-199.70703125
-89.84375,-1000.0,-1000.0,-104.98046875
276.3671875,-212.40234375,-124.51171875,-54.6875
440.4296875,999.51171875,999.51171875,-35.15625
174.8046875,796.875,695.3125,-54.19921875
-107.91015625,-530.76171875,-634.27734375,-78.125
-129.8828125,-1000.0,-1000.0,-62.98828125
216.796875,-317.3828125,-185.546875,-10.7421875
433.10546875,906.25,999.51171875,13.671875
218.75,999.51171875,930.6640625,-24.90234375
-74.21875,155.76171875,-284.66796875,-86.9140625
-147.94921875,-1000.0,-1000.0,-78.61328125
157.71484375,-728.02734375,-250.48828125,-2.44140625
407.2265625,638.18359375,965.8203125,3.90625
268.06640625,999.51171875,999.51171875,-35.64453125
-40.52734375,194.3359375,23.92578125,-81.54296875
-196.77734375,-1000.0,-1000.0,-88.8671875
117.1875,-609.86328125,-332.51953125,-21.484375
425.29296875,779.78515625,937.98828125,41.9921875
272.94921875,999.51171875,999.51171875,13.671875
-32.71484375,161.62109375,119.140625,-43.45703125
-174.31640625,-1000.0,-1000.0,-70.80078125
50.78125,-1000.0,-567.3828125,-50.29296875
353.02734375,218.26171875,778.3203125,3.41796875
277.34375,999.51171875,999.51171875,-5.859375
-39.55078125,299.8046875,182.12890625,-67.87109375
-223.14453125,-1000.0,-1000.0,-76.66015625
-30.76171875,-1000.0,-692.87109375,-44.43359375
331.54296875,239.2578125,658.69140625,-2.44140625
324.70703125,999.51171875,999.51171875,0.48828125
-6.34765625,392.08984375,212.40234375,-53.22265625
-214.84375,-888.671875,-1000.0,-81.54296875
-66.40625,-1000.0,-949.21875,-43.45703125
286.62109375,-236.81640625,303.7109375,-7.32421875
311.03515625,999.51171875,999.51171875,-15.625
-4.39453125,564.453125,293.45703125,-53.7109375
-232.421875,-850.09765625,-988.76953125,-73.73046875
-126.46484375,-1000.0,-1000.0,-44.43359375
250.9765625,-40.0390625,110.3515625,8.30078125
321.2890625,999.51171875,999.51171875,7.32421875
35.64453125,822.265625,448.73046875,-50.29296875
-226.5625,-459.9609375,-853.02734375,-80.078125
-177.24609375,-1000.0,-1000.0,-63.4765625
200.68359375,-247.0703125,-140.625,-20.5078125
315.4296875,965.8203125,999.51171875,-9.765625
56.15234375,999.51171875,670.8984375,-57.6171875
-182.6171875,-54.19921875,-666.015625,-92.28515625
-206.0546875,-1000.0,-1000.0,-75.68359375
151.85546875,-253.90625,-168.45703125,-9.27734375
346.6796875,953.125,999.51171875,4.39453125
87.890625,999.51171875,925.78125,-38.0859375
-188.4765625,213.8671875,-300.29296875,-84.47265625
-236.328125,-1000.0,-1000.0,-49.8046875
97.16796875,-444.3359375,-208.0078125,-105.95703125
324.70703125,928.22265625,999.51171875,-245.60546875
127.44140625,999.51171875,962.40234375,-209.9609375
-186.5234375,-3.41796875,-228.515625,-160.64453125
-277.83203125,-1000.0,-1000.0,-129.8828125
42.48046875,-647.4609375,-301.26953125,-61.03515625
296.875,699.70703125,942.87109375,-13.18359375
150.390625,999.51171875,999.51171875,-47.8515625
-162.59765625,196.2890625,41.50390625,-99.609375
-295.8984375,-1000.0,-1000.0,-90.8203125
18.06640625,-362.79296875,-361.328125,-21.484375
309.08203125,937.98828125,920.41015625,15.625
165.0390625,999.51171875,999.51171875,-13.18359375
-145.01953125,191.89453125,157.2265625,-76.171875
-291.9921875,-1000.0,-1000.0,-75.1953125
-67.3828125,-1000.0,-700.68359375,-9.765625
265.625,-29.78515625,645.99609375,22.4609375
229.00390625,999.51171875,999.51171875,1.953125
-92.28515625,390.13671875,173.828125,-67.3828125
-296.38671875,-955.078125,-1000.0,-86.9140625
-124.51171875,-1000.0,-892.578125,-41.50390625
247.55859375,46.875,398.92578125,20.5078125
253.90625,999.51171875,999.51171875,10.25390625
-67.3828125,464.84375,215.33203125,-59.08203125
-285.15625,-881.8359375,-1000.0,-65.4296875
-158.69140625,-1000.0,-1000.0,-29.296875
192.87109375,-78.125,151.85546875,20.5078125
256.34765625,999.51171875,999.51171875,5.859375
-37.59765625,673.828125,326.171875,-73.73046875
-285.64453125,-670.8984375,-946.77734375,-109.86328125
-197.75390625,-1000.0,-1000.0,-65.4296875
177.734375,-168.45703125,-76.66015625,-8.30078125
249.0234375,977.5390625,999.51171875,-9.27734375
-6.8359375,999.51171875,592.7734375,-65.91796875
-249.0234375,36.62109375,-742.67578125,-92.7734375
-252.44140625,-1000.0,-1000.0,-54.6875
138.18359375,-184.08203125,-164.0625,-0.9765625
315.91796875,994.62890625,999.51171875,19.53125
37.109375,999.51171875,741.69921875,-41.9921875
-244.140625,158.69140625,-578.61328125,-91.796875
-270.99609375,-1000.0,-1000.0,-70.80078125
79.58984375,-381.34765625,-194.3359375,-20.01953125
291.9921875,945.3125,999.51171875,5.37109375
49.8046875,999.51171875,907.71484375,-42.96875
-237.3046875,37.59765625,-338.37890625,-89.35546875
-269.53125,-1000.0,-1000.0,-91.796875
73.73046875,-395.01953125,-217.28515625,-21.484375
282.2265625,901.3671875,985.83984375,35.64453125
90.8203125,999.51171875,999.51171875,-14.16015625
-199.70703125,201.66015625,-33.69140625,-80.56640625
-304.19921875,-1000.0,-1000.0,-71.2890625
1.953125,-770.99609375,-369.62890625,-13.671875
289.55078125,577.1484375,913.57421875,11.71875
157.2265625,999.51171875,999.51171875,-12.6953125
-157.2265625,382.32421875,116.69921875,-73.2421875
-316.89453125,-971.6796875,-1000.0,-83.49609375
-81.0546875,-1000.0,-590.33203125,-31.73828125
253.90625,288.0859375,761.71875,-6.34765625
199.21875,999.51171875,999.51171875,-23.92578125
-135.25390625,191.40625,154.78515625,-58.10546875
-324.70703125,-1000.0,-1000.0,-65.4296875
-100.5859375,-1000.0,-791.015625,-22.94921875
238.28125,-3.90625,537.59765625,5.37109375
211.9140625,999.51171875,999.51171875,-20.5078125
-119.140625,463.8671875,187.98828125,-58.10546875
-316.40625,-877.44140625,-1000.0,-76.171875
-151.85546875,-1000.0,-968.75,-59.5703125
201.66015625,-108.88671875,261.23046875,-11.23046875
229.98046875,999.51171875,999.51171875,-20.5078125
-67.3828125,999.51171875,316.89453125,-59.5703125
-263.18359375,-116.2109375,-959.47265625,-73.73046875
-139.6484375,-1000.0,-1000.0,-58.59375
187.01171875,-214.35546875,5.37109375,-7.32421875
233.88671875,999.51171875,999.51171875,9.765625
-35.64453125,842.7734375,424.8046875,-46.875
-279.296875,-485.3515625,-888.18359375,-96.19140625
-212.40234375,-1000.0,-1000.0,-66.40625
164.0625,-158.203125,-130.859375,-0.48828125
281.25,970.21484375,999.51171875,8.7890625
10.7421875,999.51171875,646.484375,-41.9921875
-253.90625,153.80859375,-692.87109375,-97.16796875
-252.9296875,-1000.0,-1000.0,-80.078125
118.65234375,-247.0703125,-166.9921875,-1.46484375
284.66796875,982.91015625,999.51171875,11.23046875
57.12890625,999.51171875,890.625,-42.48046875
-225.5859375,184.08203125,-363.76953125,-93.75
-283.203125,-1000.0,-1000.0,-91.796875
73.73046875,-586.9140625,-220.21484375,-16.6015625
300.29296875,800.78125,999.51171875,27.34375
77.63671875,999.51171875,983.88671875,-21.97265625
-229.00390625,132.8125,-188.96484375,-85.9375
-288.57421875,-1000.0,-1000.0,-53.7109375
31.73828125,-796.875,-304.6875,-7.8125
267.578125,551.7578125,948.2421875,-21.484375
111.81640625,999.51171875,999.51171875,-36.1328125
-187.01171875,176.7578125,16.6015625,-80.56640625
-303.7109375,-1000.0,-1000.0,-86.9140625
-37.109375,-818.359375,-440.4296875,-50.29296875
243.1640625,532.71484375,869.62890625,-0.9765625
160.15625,999.51171875,999.51171875,-1.953125
-170.8984375,173.828125,149.90234375,-90.33203125
-334.9609375,-1000.0,-1000.0,-107.91015625
-78.61328125,-1000.0,-700.68359375,-35.15625
227.05078125,99.12109375,645.01953125,5.37109375
188.4765625,999.51171875,999.51171875,-9.27734375
-116.69921875,765.625,194.82421875,-35.64453125
-310.05859375,-524.90234375,-1000.0,-62.98828125
-135.25390625,-1000.0,-929.6875,-39.0625
208.984375,-182.6171875,342.7734375,9.765625
222.16796875,999.51171875,999.51171875,-13.671875
-104.98046875,504.39453125,217.7734375,-91.30859375
-330.078125,-878.41796875,-1000.0,-108.3984375
-179.6875,-1000.0,-1000.0,-54.19921875
171.38671875,-168.9453125,139.16015625,10.25390625
222.65625,999.51171875,999.51171875,-11.71875
-74.21875,764.6484375,345.703125,-213.37890625
-314.94140625,-581.0546875,-943.359375,-310.05859375
-218.26171875,-1000.0,-1000.0,-312.5
145.5078125,-212.40234375,-51.7578125,-283.69140625
245.60546875,999.51171875,999.51171875,-209.47265625
-18.5546875,771.484375,475.09765625,-197.265625
-282.2265625,-583.49609375,-847.16796875,-163.0859375
-274.90234375,-1000.0,-1000.0,-93.75
86.9140625,-179.6875,-176.7578125,-21.97265625
269.04296875,968.75,999.51171875,5.859375
33.69140625,999.51171875,765.13671875,-16.11328125
-272.4609375,88.8671875,-554.6875,-53.7109375
-303.22265625,-1000.0,-1000.0,-66.40625
83.984375,-235.83984375,-176.7578125,-59.08203125
281.25,974.609375,999.51171875,-101.5625
46.875,999.51171875,976.5625,-135.25390625
-236.328125,218.26171875,-196.2890625,-143.5546875
-311.5234375,-1000.0,-1000.0,-120.1171875
19.53125,-745.60546875,-255.37109375,-140.13671875
279.78515625,631.34765625,980.46875,-194.82421875
101.07421875,999.51171875,999.51171875,-202.63671875
-216.30859375,179.19921875,-45.41015625,-206.0546875
-321.2890625,-1000.0,-1000.0,-211.42578125
-17.08984375,-794.43359375,-369.140625,-199.21875
255.37109375,545.41015625,908.203125,-183.59375
107.91015625,999.51171875,999.51171875,-193.84765625
-183.59375,661.62109375,153.80859375,-169.43359375
-319.3359375,-741.69921875,-1000.0,-146.97265625
-67.3828125,-1000.0,-594.7265625,-148.4375
250.9765625,323.2421875,766.11328125,-130.859375
165.52734375,999.51171875,999.51171875,-128.90625
-166.015625,126.46484375,136.71875,-116.2109375
-317.87109375,-1000.0,-1000.0,-110.83984375
-126.46484375,-1000.0,-858.3984375,-123.53515625
201.171875,-172.36328125,439.94140625,-110.83984375
201.171875,999.51171875,999.51171875,-108.88671875
-125.0,527.83203125,196.2890625,-119.140625
-308.10546875,-941.40625,-1000.0,-100.5859375
-152.83203125,-1000.0,-897.4609375,-116.69921875
203.125,295.41015625,386.71875,-120.60546875
224.609375,999.51171875,999.51171875,-101.07421875
-79.58984375,609.86328125,267.578125,-90.33203125
-309.08203125,-708.984375,-985.3515625,-82.51953125
-191.89453125,-1000.0,-1000.0,-83.0078125
186.5234375,-114.74609375,43.9453125,-60.546875
246.09375,999.51171875,999.51171875,-35.64453125
-64.94140625,877.44140625,433.59375,-56.15234375
-304.19921875,-405.76171875,-873.53515625,-96.6796875
-233.88671875,-1000.0,-1000.0,-54.19921875
141.6015625,-166.50390625,-145.5078125,56.15234375
282.2265625,985.3515625,999.51171875,94.7265625
18.5546875,999.51171875,668.45703125,58.10546875
-258.7890625,33.203125,-669.921875,48.828125
-267.578125,-1000.0,-1000.0,36.62109375
96.6796875,-336.9140625,-183.10546875,-64.453125
293.45703125,965.33203125,999.51171875,-115.234375
30.2734375,999.51171875,847.16796875,-99.609375
-271.484375,-78.125,-438.4765625,-100.09765625
-307.12890625,-1000.0,-1000.0,-68.84765625
66.40625,-168.45703125,-179.19921875,34.66796875
293.9453125,980.95703125,999.51171875,89.84375
53.7109375,999.51171875,999.51171875,73.73046875
-387.20703125,183.10546875,-113.28125,34.66796875
-572.75390625,-1000.0,-1000.0,10.7421875
-726.07421875,-1000.0,-314.94140625,82.03125
-1000.0,103.02734375,941.89453125,129.8828125
-999.51171875,999.51171875,999.51171875,67.3828125
-994.140625,152.83203125,65.4296875,10.7421875
-1000.0,-1000.0,-1000.0,20.01953125
-1000.0,-1000.0,-494.62890625,-18.5546875
-1000.0,100.09765625,840.33203125,-37.109375
-1000.0,999.51171875,999.51171875,-10.25390625
-990.234375,221.19140625,136.71875,-26.3671875
-1000.0,-1000.0,-1000.0,-58.59375
-985.83984375,-733.3984375,-610.3515625,-37.59765625
-614.2578125,641.6015625,743.65234375,30.2734375
-372.55859375,999.51171875,999.51171875,31.25
-613.28125,228.02734375,163.57421875,-23.92578125
-719.23828125,-1000.0,-1000.0,-18.06640625
-387.6953125,-1000.0,-898.4375,39.0625
106.93359375,98.6328125,384.27734375,95.703125
-43.45703125,999.51171875,999.51171875,77.1484375
-596.19140625,426.7578125,196.77734375,11.23046875
-599.609375,-878.41796875,-1000.0,-31.25
-405.76171875,-1000.0,-1000.0,-0.48828125
-547.8515625,-222.65625,87.890625,52.24609375
-955.56640625,999.51171875,999.51171875,62.98828125
-1000.0,734.375,360.3515625,20.99609375
-989.2578125,-634.765625,-938.4765625,-12.6953125
-962.40234375,-1000.0,-1000.0,27.34375
-485.3515625,-186.03515625,-54.6875,68.359375
-249.0234375,999.51171875,999.51171875,48.828125
-487.79296875,991.2109375,537.109375,1.46484375
-587.40234375,-222.65625,-793.45703125,-41.50390625
-450.68359375,-1000.0,-1000.0,-45.8984375
-12.20703125,-158.69140625,-161.62109375,28.3203125
230.95703125,973.14453125,999.51171875,69.3359375
48.828125,999.51171875,850.09765625,14.6484375
-176.26953125,232.421875,-420.41015625,-33.69140625
-150.390625,-1000.0,-1000.0,-40.0390625
266.6015625,-434.08203125,-196.77734375,15.625
437.5,918.9453125,999.51171875,47.36328125
-0.48828125,999.51171875,943.359375,-19.04296875
-528.80859375,108.3984375,-270.5078125,-87.40234375
-814.94140625,-1000.0,-1000.0,-78.125
-909.66796875,-743.65234375,-242.1875,-7.8125
-950.1953125,611.81640625,981.93359375,34.1796875
-1000.0,999.51171875,999.51171875,8.30078125
-985.3515625,182.12890625,-49.31640625,-60.546875
-1000.0,-1000.0,-1000.0,-73.73046875
-912.109375,-448.2421875,-339.84375,-20.01953125
-448.2421875,885.25390625,927.734375,5.859375
-127.9296875,999.51171875,999.51171875,-69.82421875
-129.39453125,315.4296875,111.81640625,-215.33203125
-125.0,-1000.0,-1000.0,-270.99609375
237.79296875,-1000.0,-643.06640625,-244.62890625
684.08203125,244.62890625,707.51953125,-230.46875
734.86328125,999.51171875,999.51171875,-198.2421875
510.25390625,444.3359375,147.4609375,-155.76171875
396.484375,-909.1796875,-1000.0,-113.28125
596.19140625,-1000.0,-848.14453125,-43.45703125
897.94921875,106.4453125,456.54296875,13.18359375
917.48046875,999.51171875,999.51171875,25.87890625
633.30078125,553.7109375,178.22265625,-12.6953125
397.4609375,-786.1328125,-1000.0,-43.9453125
520.99609375,-1000.0,-1000.0,8.7890625
857.421875,-141.6015625,185.05859375,65.4296875
896.484375,999.51171875,999.51171875,19.53125
606.4453125,629.8828125,265.13671875,-36.62109375
440.4296875,-738.28125,-986.81640625,-35.15625
562.98828125,-1000.0,-1000.0,-12.20703125
845.21484375,-203.125,-13.18359375,25.390625
923.828125,999.51171875,999.51171875,41.9921875
565.91796875,901.3671875,440.91796875,-3.90625
270.01953125,-409.1796875,-883.7890625,-59.08203125
417.48046875,-1000.0,-1000.0,-35.64453125
807.12890625,-84.47265625,-79.58984375,48.828125
934.08203125,999.51171875,999.51171875,25.87890625
743.1640625,975.5859375,654.296875,-41.9921875
338.37890625,-191.40625,-671.38671875,-43.9453125
-155.76171875,-1000.0,-1000.0,-27.83203125
-631.34765625,-733.3984375,-200.1953125,27.34375
-750.9765625,644.53125,999.51171875,49.8046875
-457.51953125,999.51171875,809.5703125,-13.671875
-329.58984375,-221.6796875,-494.62890625,-88.37890625
-145.99609375,-1000.0,-1000.0,-82.03125
425.29296875,-200.1953125,-203.125,5.37109375
-172.36328125,999.51171875,999.51171875,46.875
-1000.0,999.51171875,971.6796875,-6.34765625
-977.05078125,-145.99609375,-199.21875,-55.6640625
-985.83984375,-1000.0,-1000.0,-69.82421875
-1000.0,-968.26171875,-344.23828125,-48.33984375
-1000.0,210.44921875,922.36328125,-4.39453125
-1000.0,999.51171875,999.51171875,-11.23046875
-971.19140625,169.43359375,53.22265625,-136.23046875
-1000.0,-1000.0,-1000.0,-189.453125
-724.12109375,-894.04296875,-496.09375,-75.68359375
94.23828125,395.5078125,831.54296875,-15.13671875
492.67578125,999.51171875,999.51171875,-34.1796875
491.69921875,459.47265625,166.50390625,-65.4296875
583.49609375,-934.5703125,-1000.0,-85.44921875
886.71875,-1000.0,-721.6796875,-31.73828125
977.5390625,314.94140625,625.0,22.94921875
955.56640625,999.51171875,999.51171875,-12.20703125
965.8203125,825.1953125,187.5,-59.5703125
966.30859375,-438.96484375,-1000.0,-94.7265625
953.61328125,-1000.0,-927.24609375,-45.8984375
982.421875,-66.89453125,342.7734375,-54.19921875
808.59375,999.51171875,999.51171875,-142.578125
437.01171875,415.0390625,209.9609375,-124.0234375
-23.92578125,-910.15625,-1000.0,-124.0234375
-435.05859375,-1000.0,-1000.0,-87.890625
-234.375,-234.375,109.375,-22.4609375
95.703125,999.51171875,999.51171875,-19.04296875
-514.16015625,569.82421875,351.07421875,-63.96484375
-1000.0,-794.921875,-925.29296875,-89.84375
-985.83984375,-1000.0,-1000.0,-45.41015625
-976.07421875,-433.59375,-147.4609375,-3.90625
-966.30859375,937.98828125,999.51171875,-65.4296875
-1000.0,978.02734375,573.2421875,-128.90625
-1000.0,-352.05078125,-780.76171875,-126.46484375
-999.0234375,-1000.0,-1000.0,-129.39453125
-1000.0,-210.9375,-165.0390625,-123.046875
-1000.0,999.51171875,999.51171875,-148.92578125
-1000.0,774.4140625,675.78125,-225.5859375
-1000.0,-551.26953125,-662.59765625,-251.46484375
-1000.0,-1000.0,-1000.0,-211.9140625
-1000.0,-558.59375,-210.44921875,-203.61328125
-1000.0,751.46484375,999.51171875,-212.890625
-1000.0,999.51171875,912.59765625,-179.6875
-1000.0,127.44140625,-325.68359375,-166.50390625
-1000.0,-1000.0,-1000.0,-166.50390625
-1000.0,-653.3203125,-263.671875,-160.64453125
-1000.0,696.77734375,957.51953125,-160.15625
-1000.0,999.51171875,999.51171875,-156.73828125
-1000.0,488.76953125,29.296875,-147.4609375
-1000.0,-961.42578125,-1000.0,-133.7890625
-1000.0,-917.48046875,-423.33984375,-133.7890625
-1000.0,502.44140625,891.11328125,-141.11328125
-1000.0,999.51171875,999.51171875,-140.13671875
-1000.0,145.99609375,112.3046875,-126.953125
-1000.0,-1000.0,-1000.0,-111.81640625
-1000.0,-1000.0,-605.46875,-107.421875
-1000.0,130.37109375,747.0703125,-101.07421875
-1000.0,999.51171875,999.51171875,-105.95703125
-1000.0,170.8984375,143.5546875,-111.328125
-1000.0,-1000.0,-1000.0,-86.9140625
-1000.0,-1000.0,-847.16796875,-73.73046875
-1000.0,-176.26953125,456.54296875,-77.63671875
-1000.0,999.51171875,999.51171875,-72.265625
-1000.0,632.8125,195.3125,-51.26953125
-987.79296875,-743.1640625,-1000.0,-33.69140625
-1000.0,-1000.0,-994.62890625,25.390625
-884.27734375,-112.79296875,216.796875,92.28515625
-408.203125,984.86328125,999.51171875,65.91796875
224.609375,999.51171875,289.0625,31.25
769.53125,28.3203125,-980.95703125,18.5546875
967.7734375,-1000.0,-1000.0,39.55078125
955.56640625,115.72265625,36.1328125,123.53515625
963.8671875,999.51171875,999.51171875,130.859375
962.890625,999.51171875,443.84765625,43.9453125
966.796875,33.69140625,-867.67578125,16.11328125
901.3671875,-1000.0,-1000.0,25.390625
728.515625,-213.8671875,-136.71875,70.80078125
282.2265625,999.51171875,999.51171875,85.44921875
-197.75390625,937.01171875,642.578125,45.41015625
-397.94921875,-293.45703125,-695.3125,-6.34765625
-623.046875,-1000.0,-1000.0,-19.04296875
-808.59375,-477.05078125,-190.4296875,62.98828125
-903.3203125,825.68359375,999.51171875,94.23828125
-1000.0,999.51171875,906.25,31.25
-998.046875,170.8984375,-334.9609375,-23.92578125
-999.0234375,-1000.0,-1000.0,-26.85546875
-1000.0,-788.57421875,-242.1875,12.6953125
-1000.0,582.03125,999.51171875,47.8515625
-1000.0,999.51171875,990.234375,13.18359375
-999.51171875,103.02734375,-175.78125,-34.66796875
-1000.0,-1000.0,-1000.0,-25.390625
-998.046875,-864.74609375,-325.68359375,13.671875
-989.74609375,451.171875,936.5234375,36.1328125
-1000.0,999.51171875,999.51171875,15.625
-993.1640625,148.92578125,36.62109375,-36.62109375
-1000.0,-1000.0,-1000.0,-60.546875
-950.1953125,-1000.0,-521.484375,-4.39453125
-779.78515625,166.9921875,812.5,43.9453125
-804.6875,999.51171875,999.51171875,-16.6015625
-895.01953125,219.23828125,134.765625,-69.3359375
-915.52734375,-1000.0,-1000.0,-54.19921875
-726.5625,-1000.0,-739.2578125,-26.3671875
-451.171875,47.36328125,601.5625,8.30078125
-467.28515625,999.51171875,999.51171875,9.27734375
-625.48828125,480.46875,174.31640625,-36.62109375
-695.3125,-909.1796875,-1000.0,-57.12890625
-515.13671875,-1000.0,-915.0390625,-21.484375
-262.20703125,134.765625,361.328125,17.08984375
-268.06640625,999.51171875,999.51171875,-14.6484375
-404.296875,547.36328125,214.84375,-79.1015625
-438.96484375,-776.85546875,-1000.0,-97.16796875
-268.06640625,-1000.0,-1000.0,-54.19921875
6.34765625,-199.70703125,48.33984375,12.6953125
64.94140625,999.51171875,999.51171875,20.99609375
-113.28125,873.046875,332.51953125,-51.7578125
-187.98828125,-435.546875,-948.2421875,-93.75
-32.71484375,-1000.0,-1000.0,-37.109375
255.859375,-154.78515625,-102.05078125,5.859375
268.06640625,966.796875,999.51171875,-17.578125
22.4609375,999.51171875,676.7578125,-45.41015625
-103.02734375,206.54296875,-655.2734375,-86.9140625
-42.48046875,-1000.0,-1000.0,-82.51953125
177.734375,-222.16796875,-168.45703125,-15.625
225.5859375,999.51171875,999.51171875,18.5546875
32.71484375,999.51171875,740.72265625,-27.34375
-144.53125,-71.2890625,-580.078125,-79.58984375
-125.0,-1000.0,-1000.0,-58.59375
144.53125,-499.51171875,-211.42578125,-16.6015625
244.140625,837.890625,999.51171875,14.16015625
70.3125,999.51171875,912.59765625,-12.20703125
-37.59765625,126.46484375,-325.68359375,-79.58984375
36.1328125,-1000.0,-1000.0,-67.3828125
256.8359375,-590.8203125,-268.06640625,-16.11328125
323.2421875,784.1796875,969.23828125,5.859375
203.125,999.51171875,999.51171875,-19.53125
19.53125,203.125,-55.17578125,-70.80078125
-95.21484375,-1000.0,-1000.0,-91.796875
104.00390625,-483.88671875,-365.72265625,-38.57421875
260.25390625,880.37109375,915.52734375,7.8125
121.09375,999.51171875,999.51171875,-17.08984375
-82.51953125,194.3359375,107.91015625,-66.40625
-161.1328125,-1000.0,-1000.0,-101.07421875
20.99609375,-805.6640625,-580.078125,-41.9921875
187.98828125,554.6875,771.484375,7.8125
16.6015625,999.51171875,999.51171875,-45.41015625
-281.73828125,122.55859375,136.71875,-100.09765625
-349.609375,-999.51171875,-1000.0,-102.5390625
-177.734375,-1000.0,-888.18359375,-65.4296875
38.57421875,-225.5859375,394.53125,-39.55078125
19.04296875,999.51171875,999.51171875,-53.22265625
-187.98828125,509.27734375,190.4296875,-100.5859375
-239.74609375,-905.2734375,-1000.0,-107.421875
-11.23046875,-1000.0,-958.984375,-61.5234375
311.03515625,59.5703125,273.4375,-43.45703125
416.9921875,999.51171875,999.51171875,-61.03515625
117.1875,999.51171875,342.7734375,-125.9765625
-30.2734375,-98.6328125,-946.2890625,-158.69140625
0.9765625,-1000.0,-1000.0,-112.3046875
343.26171875,-187.98828125,11.23046875,-103.02734375
972.65625,999.51171875,999.51171875,-122.55859375
971.6796875,999.51171875,473.6328125,-151.3671875
946.2890625,-126.953125,-847.65625,-156.25
969.7265625,-1000.0,-1000.0,-115.234375
965.33203125,-179.19921875,-128.90625,-57.6171875
965.33203125,999.51171875,999.51171875,-25.390625
965.33203125,999.51171875,683.59375,-71.77734375
965.33203125,-14.6484375,-649.90234375,-111.328125
965.33203125,-1000.0,-1000.0,-81.0546875
965.8203125,-184.5703125,-174.8046875,-6.34765625
965.33203125,999.51171875,999.51171875,15.13671875
965.8203125,999.51171875,823.73046875,-46.875
965.8203125,-20.99609375,-464.84375,-84.47265625
965.33203125,-1000.0,-1000.0,-41.015625
965.33203125,-676.7578125,-247.0703125,-73.73046875
965.33203125,656.25,999.51171875,-232.421875
965.33203125,999.51171875,976.07421875,-217.28515625
965.33203125,189.453125,-209.9609375,-135.25390625
965.33203125,-1000.0,-1000.0,-104.00390625
965.8203125,-651.3671875,-342.7734375,-18.06640625
965.33203125,740.72265625,928.7109375,36.62109375
965.33203125,999.51171875,999.51171875,-12.20703125
965.33203125,160.64453125,12.6953125,-53.7109375
965.8203125,-1000.0,-1000.0,-45.41015625
965.8203125,-998.046875,-543.9453125,2.44140625
965.33203125,250.9765625,795.41015625,61.03515625
965.33203125,999.51171875,999.51171875,36.62109375
965.8203125,156.73828125,110.83984375,-21.97265625
965.33203125,-1000.0,-1000.0,-33.203125
965.8203125,-1000.0,-708.0078125,-0.48828125
965.33203125,166.9921875,628.41796875,34.1796875
965.33203125,999.51171875,999.51171875,28.80859375
965.33203125,763.671875,196.77734375,-8.7890625
965.8203125,-507.32421875,-1000.0,-45.8984375
965.8203125,-1000.0,-960.9375,-26.85546875
965.33203125,-226.07421875,286.1328125,32.2265625
965.33203125,999.51171875,999.51171875,11.23046875
965.33203125,576.66015625,229.98046875,-60.05859375
965.33203125,-813.4765625,-1000.0,-87.40234375
965.33203125,-1000.0,-1000.0,-60.05859375
965.33203125,-226.07421875,74.70703125,-10.7421875
965.33203125,999.51171875,999.51171875,4.8828125
965.33203125,710.9375,343.26171875,-47.8515625
965.33203125,-703.61328125,-955.078125,-91.796875
965.8203125,-1000.0,-1000.0,-45.8984375
965.33203125,38.57421875,-21.97265625,37.59765625
966.30859375,999.51171875,999.51171875,20.99609375
966.30859375,977.05078125,552.24609375,-67.3828125
924.31640625,-181.640625,-770.01953125,-93.26171875
999.51171875,-1000.0,-1000.0,-50.78125
520.01953125,-987.79296875,-204.1015625,7.32421875
-672.8515625,402.83203125,999.51171875,17.08984375
-1000.0,875.0,723.6328125,-44.43359375
-965.8203125,-666.9921875,-616.69921875,-98.14453125
-1000.0,-1000.0,-1000.0,-73.73046875
-1000.0,-778.3203125,-211.42578125,-3.90625
-1000.0,517.578125,999.51171875,38.0859375
-1000.0,999.51171875,916.015625,-10.7421875
-989.2578125,-18.06640625,-317.87109375,-42.96875
-1000.0,-1000.0,-1000.0,-37.59765625
-934.08203125,-790.0390625,-297.36328125,-10.7421875
-680.6640625,525.87890625,953.125,21.484375
-656.25,999.51171875,999.51171875,-19.53125
-796.38671875,186.03515625,-36.1328125,-76.171875
-755.37109375,-1000.0,-1000.0,-83.49609375
-306.15234375,-699.70703125,-405.76171875,-27.83203125
119.62890625,672.36328125,891.6015625,8.30078125
195.80078125,999.51171875,999.51171875,-14.16015625
181.15234375,726.07421875,124.0234375,-76.66015625
340.8203125,-651.3671875,-1000.0,-114.74609375
781.73828125,-1000.0,-654.296875,-40.0390625
983.3984375,275.390625,695.80078125,7.8125
952.1484375,999.51171875,999.51171875,5.859375
964.35546875,570.80078125,156.25,-43.9453125
966.30859375,-755.859375,-1000.0,-74.70703125
970.703125,-1000.0,-891.6015625,-30.2734375
939.94140625,-131.34765625,393.5546875,25.390625
978.515625,999.51171875,999.51171875,18.06640625
924.8046875,614.74609375,200.68359375,-41.9921875
-1.953125,-824.70703125,-1000.0,-82.51953125
-208.49609375,-1000.0,-960.44921875,-42.96875
758.7890625,153.3203125,283.69140625,30.76171875
691.40625,999.51171875,999.51171875,26.3671875
-592.7734375,629.39453125,303.22265625,-31.73828125
-1000.0,-685.05859375,-954.58984375,-61.03515625
-968.75,-1000.0,-1000.0,-33.203125
-492.67578125,-194.82421875,-55.17578125,5.859375
235.83984375,999.51171875,999.51171875,13.671875
406.73828125,960.9375,407.2265625,-16.6015625
406.73828125,-323.2421875,-908.203125,-60.05859375
617.1875,-1000.0,-1000.0,-47.8515625
937.01171875,-11.71875,-129.39453125,-0.9765625
970.21484375,999.51171875,999.51171875,9.27734375
956.0546875,999.51171875,610.83984375,-38.57421875
967.28515625,-9.765625,-726.5625,-83.49609375
965.8203125,-1000.0,-1000.0,-61.03515625
965.8203125,-323.2421875,-196.77734375,7.8125
965.33203125,926.26953125,999.51171875,30.2734375
965.33203125,999.51171875,886.23046875,-23.92578125
965.8203125,219.23828125,-372.0703125,-65.4296875
965.8203125,-1000.0,-1000.0,-62.01171875
965.33203125,-598.6328125,-238.28125,-4.8828125
965.33203125,777.34375,993.65234375,23.92578125
965.33203125,999.51171875,999.51171875,-18.06640625
965.33203125,322.265625,-129.39453125,-84.47265625
965.33203125,-1000.0,-1000.0,-79.58984375
966.30859375,-969.23828125,-352.05078125,-16.6015625
960.44921875,357.91015625,929.19921875,17.08984375
976.5625,999.51171875,999.51171875,-13.18359375
928.22265625,152.83203125,24.90234375,-75.68359375
861.328125,-1000.0,-1000.0,-80.078125
939.453125,-1000.0,-526.3671875,-16.6015625
961.9140625,204.1015625,803.22265625,17.578125
984.375,999.51171875,999.51171875,-20.5078125
875.48828125,337.40234375,157.71484375,-63.4765625
679.6875,-1000.0,-1000.0,-86.42578125
837.40234375,-1000.0,-703.61328125,-33.69140625
973.6328125,283.69140625,646.97265625,25.390625
972.16796875,999.51171875,999.51171875,-12.6953125
785.64453125,337.890625,155.2734375,-62.01171875
525.390625,-930.6640625,-1000.0,-82.51953125
650.390625,-1000.0,-942.87109375,-43.9453125
914.55078125,-81.54296875,305.17578125,-9.27734375
956.0546875,999.51171875,999.51171875,-10.7421875
707.03125,936.5234375,219.23828125,-43.9453125
422.36328125,-295.41015625,-1000.0,-78.125
473.14453125,-1000.0,-1000.0,-50.29296875
817.3828125,-167.96875,34.66796875,-18.06640625
886.71875,999.51171875,999.51171875,-3.41796875
601.5625,999.51171875,393.06640625,-45.41015625
313.96484375,-137.20703125,-902.83203125,-94.7265625
319.3359375,-1000.0,-1000.0,-75.1953125
678.22265625,-216.796875,-142.08984375,-4.39453125
799.8046875,999.51171875,999.51171875,0.48828125
520.99609375,805.17578125,474.609375,-63.4765625
230.95703125,-528.3203125,-857.421875,-87.40234375
227.5390625,-1000.0,-1000.0,-73.2421875
568.84765625,-224.609375,-194.82421875,-22.4609375
698.73046875,939.453125,999.51171875,-10.25390625
464.84375,999.51171875,756.8359375,-42.48046875
218.75,219.7265625,-562.5,-75.68359375
156.73828125,-1000.0,-1000.0,-87.40234375
466.796875,-516.6015625,-214.84375,-11.23046875
683.10546875,861.81640625,999.51171875,16.6015625
455.078125,999.51171875,920.8984375,-56.640625
147.94921875,184.08203125,-305.17578125,-88.8671875
67.3828125,-1000.0,-1000.0,-80.078125
372.0703125,-669.43359375,-280.2734375,-49.31640625
592.28515625,718.26171875,971.6796875,-1.46484375
417.96875,999.51171875,999.51171875,-29.296875
131.34765625,187.98828125,-89.84375,-74.21875
-4.39453125,-1000.0,-1000.0,-62.01171875
279.78515625,-386.23046875,-347.16796875,-15.625
564.94140625,928.7109375,926.7578125,0.48828125
435.05859375,999.51171875,999.51171875,-27.83203125
117.67578125,166.9921875,70.3125,-74.21875
-70.3125,-1000.0,-1000.0,-103.515625
141.6015625,-1000.0,-670.8984375,-58.10546875
479.98046875,125.9765625,669.921875,9.27734375
448.2421875,999.51171875,999.51171875,5.37109375
95.703125,200.1953125,145.01953125,-43.9453125
-90.33203125,-1000.0,-1000.0,-65.91796875
116.2109375,-1000.0,-847.65625,-41.50390625
434.08203125,2.44140625,458.0078125,-7.8125
422.36328125,999.51171875,999.51171875,-20.01953125
127.44140625,405.76171875,182.6171875,-49.8046875
-109.86328125,-900.87890625,-1000.0,-126.46484375
15.625,-1000.0,-1000.0,-256.34765625
354.98046875,-227.5390625,163.57421875,-308.59375
402.34375,999.51171875,999.51171875,-284.66796875
125.9765625,760.7421875,269.53125,-260.7421875
-115.234375,-602.05078125,-978.515625,-247.0703125
-41.9921875,-1000.0,-1000.0,-243.1640625
323.2421875,-178.7109375,-59.08203125,-220.21484375
407.2265625,999.51171875,999.51171875,-186.03515625
121.58203125,871.09375,400.390625,-165.0390625
-131.34765625,-431.15234375,-906.73828125,-116.69921875
-94.7265625,-1000.0,-1000.0,-72.265625
274.4140625,-176.7578125,-162.109375,9.765625
417.48046875,999.51171875,999.51171875,44.43359375
147.4609375,999.51171875,632.8125,0.9765625
-144.04296875,-109.375,-708.984375,-22.4609375
-187.01171875,-1000.0,-1000.0,-11.23046875
161.1328125,-244.140625,-195.3125,44.921875
365.234375,963.37890625,999.51171875,40.52734375
102.05078125,999.51171875,862.79296875,-3.90625
-196.77734375,103.02734375,-415.0390625,-42.96875
-214.84375,-1000.0,-1000.0,-29.78515625
120.60546875,-203.125,-207.03125,53.22265625
360.3515625,995.60546875,999.51171875,77.63671875
162.109375,999.51171875,977.05078125,13.671875
-138.18359375,156.73828125,-192.3828125,-45.41015625
-239.74609375,-1000.0,-1000.0,-55.6640625
39.55078125,-673.828125,-330.56640625,13.671875
89.84375,710.44921875,937.5,-32.71484375
-371.58203125,999.51171875,999.51171875,-200.1953125
-735.83984375,100.09765625,4.8828125,-236.328125
-725.09765625,-1000.0,-1000.0,-216.30859375
-283.203125,-903.80859375,-519.04296875,-174.31640625
-9.765625,389.16015625,805.6640625,-176.26953125
-313.4765625,999.51171875,999.51171875,-195.3125
-800.29296875,194.3359375,163.57421875,-158.69140625
-968.26171875,-1000.0,-1000.0,-115.234375
-619.62890625,-951.66015625,-717.7734375,-23.4375
-338.37890625,322.265625,633.30078125,11.71875
-545.8984375,999.51171875,999.51171875,-7.8125
-877.9296875,264.16015625,157.71484375,-21.97265625
-984.375,-963.8671875,-1000.0,-56.640625
-776.3671875,-1000.0,-944.82421875,-12.6953125
-456.54296875,-119.140625,304.19921875,37.109375
-457.03125,999.51171875,999.51171875,38.57421875
-659.66796875,583.49609375,212.890625,-9.765625
-676.26953125,-788.0859375,-1000.0,-66.89453125
-370.1171875,-1000.0,-1000.0,-10.25390625
104.00390625,-166.015625,57.6171875,56.640625
357.421875,999.51171875,999.51171875,53.7109375
-283.69140625,669.43359375,345.703125,0.9765625
-1000.0,-687.5,-938.96484375,-32.71484375
-992.67578125,-1000.0,-1000.0,-4.39453125
-982.421875,-303.22265625,-124.0234375,42.96875
-1000.0,999.51171875,999.51171875,30.2734375
-1000.0,862.79296875,497.0703125,-20.01953125
-1000.0,-482.91015625,-835.44921875,-136.71875
-1000.0,-1000.0,-1000.0,-247.0703125
-1000.0,-228.515625,-199.70703125,-243.1640625
-1000.0,999.51171875,999.51171875,-224.609375
-1000.0,939.453125,685.546875,-201.171875
-1000.0,-307.12890625,-659.1796875,-174.31640625
-991.2109375,-1000.0,-1000.0,-181.15234375
-1000.0,-479.98046875,-222.16796875,-190.4296875
-944.82421875,821.2890625,999.51171875,-175.29296875
-657.71484375,999.51171875,920.8984375,-158.69140625
-189.94140625,205.078125,-312.5,-122.55859375
581.0546875,-1000.0,-1000.0,-96.19140625
990.72265625,-378.41796875,-285.64453125,-32.71484375
946.77734375,916.015625,944.3359375,32.2265625
960.9375,999.51171875,999.51171875,18.5546875
967.28515625,513.18359375,52.734375,-3.41796875
965.8203125,-1000.0,-1000.0,-3.41796875
965.33203125,-627.44140625,-431.640625,58.10546875
965.33203125,817.3828125,886.23046875,78.61328125
965.33203125,999.51171875,999.51171875,51.7578125
965.8203125,582.03125,125.9765625,23.4375
965.8203125,-835.9375,-1000.0,-3.41796875
965.33203125,-1000.0,-658.69140625,30.2734375
965.33203125,308.10546875,695.3125,80.078125
965.33203125,999.51171875,999.51171875,87.890625
965.33203125,443.84765625,153.80859375,8.7890625
965.33203125,-889.16015625,-1000.0,-48.828125
965.33203125,-1000.0,-819.82421875,1.953125
965.33203125,-1.46484375,496.58203125,52.734375
965.33203125,999.51171875,999.51171875,52.24609375
965.33203125,331.54296875,172.36328125,-9.765625
965.8203125,-949.21875,-1000.0,-41.50390625
965.8203125,-1000.0,-998.53515625,-4.39453125
965.8203125,-185.05859375,202.1484375,46.38671875
965.8203125,999.51171875,999.51171875,53.7109375
965.33203125,571.2890625,259.765625,-15.13671875
965.33203125,-808.10546875,-987.3046875,-75.68359375
965.8203125,-1000.0,-1000.0,-32.71484375
965.33203125,-185.05859375,-15.13671875,45.41015625
965.33203125,999.51171875,999.51171875,42.96875
965.33203125,793.9453125,413.0859375,-28.3203125
965.8203125,-543.45703125,-892.578125,-64.94140625
965.8203125,-1000.0,-1000.0,-26.85546875
965.8203125,-170.41015625,-156.73828125,23.92578125
965.33203125,987.3046875,999.51171875,20.01953125
965.33203125,999.51171875,664.0625,-32.2265625
965.33203125,-10.7421875,-673.828125,-63.96484375
965.8203125,-1000.0,-1000.0,-62.98828125
965.33203125,-343.75,-195.3125,-13.671875
965.33203125,917.96875,999.51171875,20.99609375
965.33203125,999.51171875,886.71875,-13.18359375
965.33203125,210.9375,-373.046875,-70.3125
965.33203125,-1000.0,-1000.0,-74.21875
965.33203125,-704.58984375,-241.69921875,16.11328125
965.33203125,664.55078125,993.1640625,42.48046875
965.33203125,999.51171875,999.51171875,-39.55078125
965.33203125,300.78125,-139.6484375,-72.265625
965.8203125,-1000.0,-1000.0,-48.33984375
965.33203125,-764.16015625,-343.26171875,-9.27734375
957.03125,641.11328125,927.734375,16.6015625
989.2578125,999.51171875,999.51171875,-1.46484375
845.703125,150.87890625,54.6875,-60.05859375
718.75,-1000.0,-1000.0,-76.66015625
872.0703125,-1000.0,-518.06640625,-33.69140625
999.51171875,183.10546875,820.80078125,18.5546875
134.27734375,999.51171875,999.51171875,-7.32421875
-950.1953125,-39.0625,119.140625,-78.61328125
-907.2265625,-1000.0,-1000.0,-81.54296875
-955.56640625,-1000.0,-793.45703125,-41.015625
-1000.0,-277.83203125,526.3671875,-0.9765625
-997.55859375,999.51171875,999.51171875,1.953125
-989.2578125,566.89453125,178.7109375,-61.5234375
-1000.0,-843.26171875,-1000.0,-80.56640625
-971.19140625,-1000.0,-961.9140625,-33.203125
-420.41015625,-69.82421875,286.1328125,1.46484375
115.72265625,999.51171875,999.51171875,-40.52734375
179.19921875,711.42578125,233.88671875,-93.75
155.2734375,-642.578125,-1000.0,-73.73046875
696.77734375,-1000.0,-1000.0,-42.48046875
107.421875,-134.27734375,88.37890625,4.39453125
-1000.0,999.51171875,999.51171875,-1.953125
-1000.0,594.23828125,361.81640625,-82.03125
-824.70703125,-776.85546875,-924.8046875,-130.859375
-763.671875,-1000.0,-1000.0,-79.58984375
-1000.0,-166.015625,-114.74609375,-1.953125
-1000.0,967.7734375,999.51171875,-18.5546875
-987.3046875,999.51171875,606.4453125,-53.7109375
-975.09765625,132.8125,-731.4453125,-69.3359375
-1000.0,-1000.0,-1000.0,-58.59375
-470.21484375,-270.5078125,-197.75390625,-2.9296875
421.38671875,967.7734375,999.51171875,12.20703125
692.87109375,999.51171875,765.13671875,-37.109375
823.2421875,206.54296875,-554.19921875,-82.03125
946.2890625,-1000.0,-1000.0,-85.44921875
969.7265625,-230.95703125,-201.66015625,-18.06640625
961.42578125,991.2109375,999.51171875,18.5546875
966.30859375,999.51171875,950.1953125,-44.43359375
965.33203125,231.93359375,-255.859375,-78.61328125
965.33203125,-1000.0,-1000.0,-62.98828125
965.8203125,-532.2265625,-268.06640625,-2.9296875
965.8203125,851.07421875,963.8671875,35.15625
965.33203125,999.51171875,999.51171875,-22.94921875
965.33203125,185.05859375,-1.953125,-83.0078125
965.8203125,-1000.0,-1000.0,-79.1015625
965.33203125,-855.46875,-427.734375,-39.0625
965.33203125,472.65625,881.34765625,-11.23046875
965.33203125,999.51171875,999.51171875,-18.06640625
965.33203125,254.8828125,125.48828125,-62.01171875
965.8203125,-1000.0,-1000.0,-64.94140625
965.8203125,-908.203125,-605.46875,-19.53125
965.8203125,426.7578125,749.51171875,4.8828125
965.33203125,999.51171875,999.51171875,-4.39453125
965.33203125,187.5,147.94921875,-76.66015625
965.33203125,-991.69921875,-1000.0,-106.4453125
965.8203125,-1000.0,-880.37109375,-43.9453125
964.84375,-118.65234375,412.59765625,3.41796875
966.30859375,999.51171875,999.51171875,-18.06640625
964.35546875,508.7890625,191.89453125,-55.6640625
953.125,-848.6328125,-1000.0,-78.125
963.37890625,-1000.0,-1000.0,-60.546875
948.73046875,-171.38671875,182.6171875,4.39453125
995.60546875,999.0234375,999.51171875,-3.90625
803.7109375,999.51171875,362.3046875,-77.63671875
346.6796875,-105.46875,-928.7109375,-102.05078125
290.0390625,-1000.0,-1000.0,-66.40625
590.8203125,-232.421875,-52.24609375,-20.99609375
770.5078125,999.51171875,999.51171875,-28.80859375
443.84765625,818.359375,455.078125,-64.453125
120.60546875,-523.4375,-868.1640625,-94.23828125
228.02734375,-1000.0,-1000.0,-76.171875
676.7578125,-184.5703125,-145.5078125,-7.32421875
958.984375,999.51171875,999.51171875,-20.99609375
695.80078125,992.67578125,660.64453125,-64.453125
387.6953125,-211.42578125,-678.7109375,-104.00390625
454.1015625,-1000.0,-1000.0,-84.47265625
780.2734375,-250.9765625,-185.05859375,-5.859375
999.51171875,999.51171875,999.51171875,-4.8828125
71.2890625,853.02734375,864.2578125,-42.48046875
-1000.0,-481.4453125,-410.15625,-81.0546875
-987.3046875,-1000.0,-1000.0,-84.9609375
-975.09765625,-852.05078125,-235.83984375,-9.27734375
-1000.0,431.15234375,999.51171875,7.8125
-984.86328125,999.51171875,981.4453125,-34.66796875
-1000.0,-81.0546875,-194.3359375,-74.70703125
-742.1875,-1000.0,-1000.0,-103.02734375
-10.25390625,-644.04296875,-331.54296875,-23.92578125
574.70703125,677.734375,921.875,15.625
566.89453125,999.51171875,999.51171875,-47.8515625
359.86328125,301.7578125,98.6328125,-88.37890625
362.3046875,-1000.0,-1000.0,-84.9609375
699.70703125,-992.67578125,-549.8046875,-34.1796875
965.8203125,281.73828125,795.8984375,16.6015625
975.09765625,999.51171875,999.51171875,-18.5546875
801.7578125,445.3125,148.92578125,-87.890625
606.4453125,-924.8046875,-1000.0,-99.12109375
799.31640625,-1000.0,-717.28515625,-62.01171875
973.6328125,224.12109375,625.9765625,1.953125
966.796875,999.51171875,999.51171875,-10.25390625
793.45703125,899.90234375,199.70703125,-75.68359375
502.9296875,-335.44921875,-1000.0,-93.75
588.8671875,-1000.0,-918.9453125,-73.2421875
835.9375,2.9296875,354.98046875,-2.9296875
524.4140625,999.51171875,999.51171875,-24.90234375
92.28515625,665.0390625,262.6953125,-91.30859375
0.0,-669.921875,-993.1640625,-178.7109375
94.7265625,-1000.0,-1000.0,-280.76171875
283.69140625,-231.93359375,67.3828125,-191.40625
304.19921875,999.51171875,999.51171875,-125.48828125
-343.75,497.0703125,340.33203125,-130.859375
-966.796875,-886.23046875,-948.73046875,-122.55859375
-994.140625,-1000.0,-1000.0,-73.2421875
-687.01171875,-215.8203125,-72.265625,-19.53125
-456.0546875,999.51171875,999.51171875,-7.32421875
-434.08203125,857.91015625,525.87890625,-39.55078125
-391.6015625,-463.37890625,-805.6640625,-66.40625
-178.7109375,-1000.0,-1000.0,-57.6171875
379.39453125,-159.1796875,-168.9453125,2.9296875
698.2421875,973.14453125,999.51171875,20.99609375
561.03515625,999.51171875,778.80859375,-39.0625
371.09375,140.625,-532.2265625,-87.40234375
314.94140625,-1000.0,-1000.0,-67.3828125
875.0,-369.62890625,-197.265625,27.34375
173.33984375,966.30859375,999.51171875,27.83203125
-1000.0,999.51171875,954.58984375,-27.83203125
-958.49609375,-81.0546875,-250.0,-65.91796875
-1000.0,-1000.0,-1000.0,-85.44921875
-771.484375,-601.5625,-248.046875,-5.859375
-112.3046875,712.890625,970.21484375,27.83203125
137.20703125,999.51171875,999.51171875,-33.203125
54.6875,417.96875,13.18359375,-71.2890625
20.01953125,-1000.0,-1000.0,-66.89453125
454.58984375,-356.93359375,-313.4765625,-6.8359375
903.80859375,988.28125,937.98828125,23.92578125
874.51171875,985.83984375,999.51171875,-39.0625
661.62109375,875.0,183.59375,-94.23828125
559.5703125,-471.6796875,-1000.0,-76.171875
764.16015625,-1000.0,-599.12109375,6.34765625
997.55859375,229.4921875,762.6953125,45.8984375
831.0546875,999.51171875,999.51171875,-32.2265625
273.92578125,161.62109375,169.43359375,-98.6328125
56.15234375,-1000.0,-1000.0,-85.9375
381.34765625,-1000.0,-825.68359375,-55.17578125
734.375,-132.8125,490.234375,-35.15625
651.85546875,999.51171875,999.51171875,-36.1328125
239.74609375,453.61328125,211.9140625,-60.546875
-109.86328125,-924.31640625,-1000.0,-83.984375
-122.0703125,-1000.0,-935.05859375,-52.734375
141.11328125,2.44140625,328.61328125,-1.953125
92.7734375,999.51171875,999.51171875,0.9765625
-201.171875,492.67578125,308.59375,-65.91796875
-344.7265625,-842.7734375,-958.984375,-104.4921875
-113.28125,-1000.0,-1000.0,-58.59375
429.19921875,-216.796875,-2.44140625,0.48828125
649.4140625,999.51171875,999.51171875,-1.953125
462.40234375,830.078125,466.30859375,-68.359375
277.83203125,-504.8828125,-854.98046875,-98.14453125
364.2578125,-1000.0,-1000.0,-59.08203125
769.53125,-171.38671875,-128.41796875,-8.30078125
945.80078125,991.2109375,999.51171875,0.9765625
708.49609375,999.51171875,735.83984375,-30.76171875
442.3828125,-40.52734375,-582.51953125,-68.359375
413.0859375,-1000.0,-1000.0,-60.546875
743.65234375,-275.390625,-181.15234375,-16.11328125
958.984375,963.8671875,999.51171875,-11.71875
739.2578125,999.51171875,888.671875,-43.9453125
423.828125,59.08203125,-366.69921875,-77.1484375
337.890625,-1000.0,-1000.0,-68.84765625
664.0625,-473.14453125,-202.1484375,-5.859375
916.015625,853.02734375,998.046875,29.296875
681.15234375,999.51171875,999.51171875,-10.7421875
346.19140625,280.76171875,-75.1953125,-96.6796875
212.890625,-1000.0,-1000.0,-100.5859375
276.85546875,-853.515625,-306.15234375,-23.4375
288.57421875,514.16015625,946.2890625,0.9765625
34.1796875,999.51171875,999.51171875,-21.484375
-383.7890625,141.6015625,86.42578125,-63.4765625
-673.33984375,-1000.0,-1000.0,-73.73046875
-598.6328125,-1000.0,-468.26171875,-22.94921875
-346.6796875,70.3125,856.4453125,16.6015625
-493.1640625,999.51171875,999.51171875,-6.34765625
-908.203125,173.33984375,168.45703125,-81.54296875
-1000.0,-1000.0,-1000.0,-104.4921875
-692.87109375,-943.359375,-634.765625,-38.0859375
-195.80078125,330.078125,722.16796875,9.27734375
-190.91796875,999.51171875,999.51171875,-20.01953125
-600.5859375,212.40234375,175.78125,-78.61328125
-760.7421875,-971.6796875,-1000.0,-112.3046875
-464.84375,-1000.0,-932.12890625,-90.8203125
-192.87109375,-228.02734375,326.171875,-43.45703125
-247.55859375,999.51171875,999.51171875,-45.8984375
-479.4921875,592.7734375,251.46484375,-75.1953125
-582.03125,-794.921875,-1000.0,-86.42578125
-381.8359375,-1000.0,-1000.0,-72.265625
0.0,-199.21875,133.7890625,-17.578125
141.6015625,999.51171875,999.51171875,-20.99609375
35.64453125,732.421875,375.0,-87.40234375
-104.4921875,-628.90625,-915.0390625,-135.25390625
-326.171875,-1000.0,-1000.0,-116.69921875
-469.23828125,-205.56640625,-95.703125,-7.8125
-477.5390625,976.5625,999.51171875,-18.5546875
-416.015625,999.51171875,644.53125,-66.40625
-317.3828125,-43.9453125,-688.4765625,-64.453125
-93.75,-1000.0,-1000.0,-62.98828125
410.15625,-170.8984375,-149.4140625,-5.37109375
730.95703125,982.421875,999.51171875,13.18359375
517.578125,999.51171875,875.0,-25.390625
341.30859375,223.14453125,-387.20703125,-81.0546875
108.3984375,-1000.0,-1000.0,-91.30859375
31.25,-224.12109375,-179.19921875,-11.71875
206.54296875,998.53515625,999.51171875,5.37109375
95.21484375,999.51171875,960.44921875,-36.1328125
32.71484375,197.75390625,-226.5625,-62.5
118.1640625,-1000.0,-1000.0,-69.82421875
514.6484375,-510.7421875,-251.46484375,-19.53125
824.21875,858.88671875,973.6328125,13.18359375
684.5703125,999.51171875,999.51171875,-52.734375
400.390625,207.51953125,-7.32421875,-101.5625
309.5703125,-1000.0,-1000.0,-71.2890625
607.421875,-415.52734375,-355.46875,-10.25390625
905.76171875,905.2734375,920.41015625,8.7890625
778.3203125,999.51171875,999.51171875,-25.390625
435.05859375,312.01171875,136.71875,-75.68359375
253.41796875,-990.234375,-1000.0,-94.7265625
500.9765625,-1000.0,-621.58203125,-44.921875
825.68359375,162.59765625,733.88671875,-0.9765625
748.046875,999.51171875,999.51171875,-26.85546875
436.5234375,149.90234375,148.4375,-82.03125
223.6328125,-1000.0,-1000.0,-100.5859375
387.6953125,-1000.0,-811.03515625,-61.5234375
721.6796875,26.85546875,503.90625,11.23046875
728.515625,999.51171875,999.51171875,3.41796875
436.5234375,553.7109375,223.14453125,-62.5
181.640625,-810.05859375,-1000.0,-105.46875
268.5546875,-1000.0,-987.79296875,-67.87109375
604.4921875,-28.80859375,238.76953125,-16.11328125
662.109375,999.51171875,999.51171875,-14.16015625
377.44140625,771.484375,340.8203125,-41.015625
123.046875,-538.57421875,-944.82421875,-73.73046875
192.3828125,-1000.0,-1000.0,-58.10546875
553.7109375,-174.8046875,-14.6484375,-15.625
608.3984375,996.09375,999.51171875,-11.71875
334.47265625,999.51171875,509.27734375,-44.43359375
78.61328125,-81.0546875,-813.96484375,-104.98046875
77.63671875,-1000.0,-1000.0,-82.03125
439.94140625,-271.484375,-152.83203125,-10.25390625
586.42578125,994.62890625,999.51171875,-4.39453125
330.56640625,999.51171875,688.4765625,-61.03515625
38.57421875,-145.99609375,-645.99609375,-102.5390625
-9.765625,-1000.0,-1000.0,-71.2890625
330.56640625,-358.3984375,-181.640625,-30.76171875
516.6015625,912.109375,999.51171875,-19.53125
296.38671875,999.51171875,933.10546875,-40.52734375
10.25390625,89.84375,-299.8046875,-74.21875
-69.3359375,-1000.0,-1000.0,-61.03515625
272.4609375,-223.14453125,-200.68359375,-0.9765625
504.8828125,984.86328125,999.51171875,9.27734375
299.31640625,999.51171875,992.1875,-44.43359375
-3.41796875,182.12890625,-147.4609375,-77.1484375
-136.71875,-1000.0,-1000.0,-87.890625
162.109375,-730.95703125,-346.19140625,-51.7578125
458.984375,639.16015625,928.22265625,5.37109375
287.59765625,999.51171875,999.51171875,-24.4140625
-43.45703125,174.8046875,35.64453125,-92.28515625
-173.33984375,-1000.0,-1000.0,-88.37890625
86.42578125,-844.23828125,-502.44140625,-22.94921875
374.0234375,474.609375,826.171875,19.04296875
273.4375,999.51171875,999.51171875,-19.53125
-35.15625,596.6796875,163.57421875,-79.1015625
-232.91015625,-733.88671875,-1000.0,-87.890625
-50.29296875,-1000.0,-755.859375,-63.4765625
276.85546875,-26.85546875,587.40234375,-18.5546875
258.7890625,999.51171875,999.51171875,-4.8828125
-53.22265625,261.71875,165.0390625,-59.5703125
-247.55859375,-991.2109375,-1000.0,-91.30859375
-73.73046875,-1000.0,-929.19921875,-43.45703125
270.5078125,-136.71875,331.0546875,9.27734375
303.7109375,999.51171875,999.51171875,-6.8359375
-5.859375,492.67578125,229.4921875,-66.40625
-259.27734375,-863.76953125,-1000.0,-94.23828125
-145.5078125,-1000.0,-1000.0,-58.10546875
239.74609375,-226.07421875,79.58984375,-11.71875
335.44921875,999.51171875,999.51171875,7.8125
54.6875,737.79296875,355.46875,-21.484375
-207.03125,-631.8359375,-933.59375,-81.54296875
-161.62109375,-1000.0,-1000.0,-56.15234375
197.265625,-196.77734375,-98.6328125,9.27734375
333.984375,999.51171875,999.51171875,-20.5078125
83.0078125,919.921875,541.50390625,-55.6640625
-207.03125,-361.328125,-797.36328125,-83.984375
-226.07421875,-1000.0,-1000.0,-74.70703125
174.31640625,-178.22265625,-168.9453125,-10.25390625
363.76953125,999.51171875,999.51171875,8.7890625
104.98046875,999.51171875,751.953125,-36.62109375
-175.78125,-118.1640625,-566.89453125,-90.33203125
-223.14453125,-1000.0,-1000.0,-81.0546875
126.46484375,-286.62109375,-194.82421875,-16.6015625
342.7734375,951.66015625,999.51171875,11.71875
125.48828125,999.51171875,926.26953125,-50.29296875
-165.52734375,42.96875,-292.96875,-102.5390625
-249.0234375,-1000.0,-1000.0,-83.984375
60.546875,-789.55078125,-289.0625,-27.34375
312.98828125,528.80859375,941.89453125,-14.16015625
184.08203125,999.51171875,999.51171875,-27.83203125
-112.3046875,191.40625,61.03515625,-73.2421875
-296.875,-1000.0,-1000.0,-102.5390625
-5.37109375,-893.5546875,-411.1328125,-30.2734375
324.21875,434.5703125,898.92578125,14.16015625
203.61328125,999.51171875,999.51171875,-11.71875
-118.1640625,150.87890625,134.27734375,-69.3359375
-282.71484375,-1000.0,-1000.0,-80.56640625
-44.921875,-1000.0,-610.3515625,-37.59765625
270.01953125,112.79296875,742.67578125,13.18359375
203.61328125,999.51171875,999.51171875,-16.11328125
-118.65234375,241.69921875,155.76171875,-97.16796875
-312.01171875,-987.3046875,-1000.0,-107.421875
-122.55859375,-1000.0,-858.88671875,-69.82421875
224.12109375,-93.26171875,442.87109375,-16.11328125
250.48828125,999.51171875,999.51171875,-8.30078125
-41.015625,563.4765625,197.75390625,-72.75390625
-301.7578125,-792.96875,-1000.0,-91.796875
-179.19921875,-1000.0,-1000.0,-184.5703125
187.5,-222.16796875,149.4140625,-318.359375
229.98046875,999.51171875,999.51171875,-282.2265625
-40.0390625,742.1875,283.69140625,-243.1640625
-277.83203125,-629.39453125,-976.5625,-227.5390625
-212.40234375,-1000.0,-1000.0,-198.73046875
146.97265625,-171.875,-31.25,-217.7734375
248.53515625,999.51171875,999.51171875,-259.765625
-12.6953125,958.0078125,467.7734375,-254.39453125
-272.94921875,-286.1328125,-849.12109375,-237.3046875
-264.16015625,-1000.0,-1000.0,-223.14453125
95.703125,-204.1015625,-164.0625,-238.76953125
254.8828125,992.67578125,999.51171875,-229.00390625
11.23046875,999.51171875,684.5703125,-195.3125
-266.6015625,-72.75390625,-652.83203125,-195.80078125
-298.33984375,-1000.0,-1000.0,-186.03515625
50.78125,-337.890625,-182.6171875,-181.15234375
246.09375,912.59765625,999.51171875,-181.15234375
15.13671875,999.51171875,968.75,-173.828125
-293.9453125,242.67578125,-225.09765625,-164.0625
-369.62890625,-1000.0,-1000.0,-162.109375
-19.04296875,-368.65234375,-208.984375,-150.87890625
231.93359375,964.84375,999.51171875,-136.23046875
54.6875,999.51171875,987.3046875,-130.859375
-234.375,39.55078125,-166.9921875,-144.04296875
-333.49609375,-1000.0,-1000.0,-127.44140625
-30.76171875,-637.6953125,-302.734375,-97.65625
256.8359375,714.84375,937.5,-105.95703125
126.46484375,999.51171875,999.51171875,-108.3984375
-164.0625,178.7109375,106.93359375,-85.9375
-289.0625,-1000.0,-1000.0,-70.80078125
-73.73046875,-1000.0,-502.44140625,-96.6796875
204.58984375,179.19921875,834.9609375,-56.640625
132.8125,999.51171875,999.51171875,15.625
-154.78515625,214.84375,167.96875,14.6484375
-344.23828125,-1000.0,-1000.0,21.97265625
-196.2890625,-996.09375,-675.29296875,84.9609375
123.046875,241.69921875,678.7109375,156.25
109.86328125,999.51171875,999.51171875,154.78515625
-179.19921875,440.91796875,191.89453125,88.8671875
-368.1640625,-915.52734375,-1000.0,43.9453125
-214.84375,-1000.0,-906.73828125,88.8671875
159.66796875,127.44140625,375.48828125,152.34375
189.94140625,999.51171875,999.51171875,141.6015625
-141.6015625,555.17578125,249.51171875,81.0546875
-391.6015625,-771.484375,-1000.0,70.3125
-297.8515625,-1000.0,-1000.0,91.796875
47.8515625,-202.63671875,84.9609375,119.62890625
105.95703125,999.51171875,999.51171875,122.0703125
-198.73046875,669.921875,329.58984375,59.5703125
-436.5234375,-706.0546875,-940.4296875,20.99609375
-388.18359375,-1000.0,-1000.0,48.828125
-31.25,-158.203125,-140.625,98.6328125
103.02734375,960.9375,999.51171875,109.375
-142.578125,999.51171875,735.3515625,69.82421875
-423.33984375,219.23828125,-584.47265625,12.6953125
-485.83984375,-1000.0,-1000.0,7.32421875
-137.20703125,-350.5859375,-192.87109375,67.3828125
29.296875,971.19140625,999.51171875,88.8671875
-217.28515625,999.51171875,875.0,26.85546875
-499.0234375,11.23046875,-393.5546875,-25.390625
-553.22265625,-1000.0,-1000.0,-8.30078125
-206.0546875,-435.05859375,-220.703125,59.08203125
70.80078125,885.25390625,999.51171875,74.70703125
-68.359375,999.51171875,999.51171875,33.203125
-375.9765625,134.27734375,-154.78515625,-8.30078125
-489.74609375,-1000.0,-1000.0,-15.625
-144.04296875,-218.75,-255.859375,38.0859375
128.41796875,988.28125,965.8203125,64.94140625
-59.08203125,999.51171875,999.51171875,27.83203125
-364.74609375,194.3359375,62.98828125,-20.99609375
-481.93359375,-1000.0,-1000.0,-48.828125
-215.8203125,-982.91015625,-520.99609375,-1.46484375
107.91015625,275.390625,828.125,62.5
28.80859375,999.51171875,999.51171875,17.578125
-275.390625,206.54296875,91.796875,-51.26953125
-394.53125,-1000.0,-1000.0,-55.6640625
-125.48828125,-832.51953125,-587.890625,-12.6953125
192.87109375,520.99609375,762.6953125,41.015625
115.234375,999.51171875,999.51171875,28.80859375
-207.51953125,178.7109375,147.4609375,-44.921875
-379.8828125,-1000.0,-1000.0,-69.3359375
-240.234375,-1000.0,-851.5625,-1.46484375
-20.01953125,-26.3671875,452.63671875,37.59765625
-144.04296875,999.51171875,999.51171875,1.953125
-524.90234375,513.671875,185.546875,-30.76171875
-717.7734375,-832.51953125,-1000.0,-56.640625
-563.4765625,-1000.0,-996.09375,-44.43359375
-243.1640625,-142.578125,208.0078125,19.53125
-198.2421875,999.51171875,999.51171875,32.2265625
-477.5390625,963.37890625,306.15234375,-39.55078125
-693.359375,-263.671875,-956.54296875,-70.3125
-579.1015625,-1000.0,-1000.0,-27.34375
-219.7265625,-170.8984375,-60.546875,10.25390625
-134.27734375,992.67578125,999.51171875,10.7421875
-391.6015625,999.51171875,450.68359375,-41.015625
-605.46875,7.8125,-866.69921875,-62.98828125
-552.734375,-1000.0,-1000.0,-42.48046875
-184.08203125,-258.7890625,-159.66796875,-0.48828125
-16.6015625,996.58203125,999.51171875,4.8828125
-197.265625,999.51171875,721.19140625,-53.22265625
-404.78515625,-86.42578125,-605.46875,-101.07421875
-385.25390625,-1000.0,-1000.0,-77.63671875
40.0390625,-174.31640625,-177.734375,-26.85546875
316.89453125,990.234375,999.51171875,0.0
169.43359375,999.51171875,911.62109375,-15.625
-84.47265625,125.0,-323.2421875,-59.08203125
-173.33984375,-1000.0,-1000.0,-99.12109375
163.57421875,-454.1015625,-227.5390625,-65.4296875
457.51953125,866.69921875,982.421875,-20.5078125
280.76171875,999.51171875,999.51171875,-69.82421875
-39.0625,375.0,-28.80859375,-126.953125
-192.3828125,-1000.0,-1000.0,-131.34765625
60.05859375,-752.9296875,-363.76953125,-102.5390625
330.56640625,675.78125,925.29296875,-71.77734375
165.52734375,999.51171875,999.51171875,-68.359375
-162.109375,157.2265625,67.87109375,-138.671875
-310.546875,-1000.0,-1000.0,-167.96875
-42.48046875,-883.7890625,-540.52734375,-96.19140625
280.2734375,415.0390625,801.26953125,-53.7109375
175.78125,999.51171875,999.51171875,-84.9609375
-123.046875,350.09765625,142.08984375,-163.0859375
-304.6875,-958.49609375,-1000.0,-162.59765625
-136.23046875,-1000.0,-713.37890625,-90.33203125
189.453125,133.7890625,635.25390625,-83.984375
139.16015625,999.51171875,999.51171875,-100.5859375
-152.83203125,549.31640625,165.52734375,-136.71875
-329.58984375,-773.4375,-1000.0,-152.83203125
-147.94921875,-1000.0,-958.984375,-114.74609375
227.05078125,-210.9375,284.66796875,-52.734375
280.76171875,999.51171875,999.51171875,-59.08203125
-9.765625,487.79296875,202.1484375,-127.9296875
-249.0234375,-887.6953125,-1000.0,-128.41796875
-107.421875,-1000.0,-1000.0,-93.26171875
281.73828125,-201.171875,78.125,-34.66796875
377.9296875,999.51171875,999.51171875,-20.5078125
114.2578125,954.58984375,337.40234375,-65.4296875
-132.32421875,-295.8984375,-952.1484375,-92.28515625
-67.3828125,-1000.0,-1000.0,-68.359375
329.58984375,-178.7109375,-51.7578125,-22.94921875
457.51953125,999.51171875,999.51171875,-18.06640625
200.68359375,999.51171875,585.9375,-67.3828125
-49.31640625,-110.83984375,-745.60546875,-94.7265625
-45.8984375,-1000.0,-1000.0,-45.8984375
322.265625,-226.5625,-184.08203125,13.671875
496.58203125,999.51171875,999.51171875,23.4375
248.046875,997.55859375,700.68359375,-28.3203125
-43.9453125,-185.546875,-637.20703125,-92.28515625
-99.12109375,-1000.0,-1000.0,-82.03125
224.609375,-417.96875,-210.44921875,-14.16015625
443.359375,875.0,999.51171875,14.16015625
237.79296875,999.51171875,921.875,-22.94921875
-66.40625,135.7421875,-313.96484375,-63.96484375
-175.29296875,-1000.0,-1000.0,-70.3125
141.6015625,-528.80859375,-254.39453125,-8.30078125
405.2734375,840.8203125,971.6796875,23.4375
216.30859375,999.51171875,999.51171875,-13.18359375
-88.37890625,171.875,-36.62109375,-74.70703125
-200.1953125,-1000.0,-1000.0,-83.49609375
84.47265625,-950.68359375,-440.4296875,-15.13671875
357.421875,309.08203125,868.1640625,12.20703125
240.234375,999.51171875,999.51171875,-14.16015625
-58.59375,651.3671875,112.79296875,-61.03515625
-221.6796875,-691.89453125,-1000.0,-88.37890625
8.7890625,-1000.0,-652.83203125,-44.921875
323.73046875,37.109375,696.77734375,19.04296875
251.46484375,999.51171875,999.51171875,7.8125
-76.171875,314.453125,145.99609375,-48.33984375
-243.65234375,-968.75,-1000.0,-62.98828125
-62.01171875,-1000.0,-837.890625,-26.3671875
263.18359375,-71.77734375,469.7265625,14.6484375
269.53125,999.51171875,999.51171875,6.34765625
-31.73828125,536.1328125,205.078125,-58.10546875
-271.484375,-889.16015625,-1000.0,-74.70703125
-126.953125,-1000.0,-927.734375,-27.34375
245.60546875,172.8515625,341.796875,23.4375
274.90234375,999.51171875,999.51171875,22.94921875
-27.83203125,561.03515625,261.23046875,-46.38671875
-256.34765625,-759.27734375,-975.09765625,-72.265625
-167.48046875,-1000.0,-1000.0,-34.1796875
187.98828125,-212.40234375,-47.8515625,10.7421875
291.9921875,999.51171875,999.51171875,15.13671875
13.18359375,832.51953125,394.53125,-48.33984375
-247.0703125,-501.46484375,-909.1796875,-62.01171875
-207.03125,-1000.0,-1000.0,-42.96875
157.71484375,-154.296875,-144.53125,-6.8359375
284.66796875,964.84375,999.51171875,4.39453125
34.1796875,999.51171875,782.2265625,-54.6875
-228.02734375,219.7265625,-523.4375,-80.56640625
-254.8828125,-1000.0,-1000.0,-48.33984375
105.95703125,-340.33203125,-196.77734375,-1.46484375
296.38671875,965.8203125,999.51171875,16.11328125
57.12890625,999.51171875,822.75390625,-17.578125
-218.75,83.49609375,-472.65625,-67.87109375
-283.203125,-1000.0,-1000.0,-66.89453125
47.36328125,-492.1875,-222.16796875,-15.13671875
277.83203125,849.12109375,999.51171875,2.9296875
78.125,999.51171875,991.69921875,-32.2265625
-208.0078125,248.046875,-153.80859375,-85.9375
-328.125,-1000.0,-1000.0,-81.54296875
-31.25,-693.84765625,-321.77734375,-3.41796875
239.2578125,704.1015625,942.87109375,32.2265625
75.68359375,999.51171875,999.51171875,-14.16015625
-232.91015625,153.80859375,23.4375,-86.42578125
-363.76953125,-1000.0,-1000.0,-77.63671875
-123.53515625,-1000.0,-523.4375,-31.73828125
169.43359375,175.78125,809.5703125,-12.6953125
75.1953125,999.51171875,999.51171875,-18.5546875
-251.953125,181.15234375,130.37109375,-80.56640625
-405.76171875,-1000.0,-1000.0,-95.21484375
-157.2265625,-906.25,-665.52734375,-19.04296875
175.29296875,381.34765625,683.59375,5.37109375
106.4453125,999.51171875,999.51171875,-22.94921875
-190.4296875,383.30078125,157.2265625,-52.734375
-340.33203125,-912.109375,-1000.0,-79.1015625
-170.41015625,-1000.0,-944.82421875,-59.5703125
187.01171875,-37.59765625,302.734375,-2.44140625
233.3984375,999.51171875,999.51171875,-6.34765625
-65.91796875,712.890625,230.95703125,-85.9375
-291.50390625,-616.2109375,-1000.0,-108.88671875
-177.24609375,-1000.0,-1000.0,-62.98828125
174.8046875,-222.16796875,41.015625,-12.6953125
257.8125,999.51171875,999.51171875,-10.7421875
-25.390625,662.59765625,322.75390625,-72.75390625
-272.94921875,-723.14453125,-951.66015625,-90.8203125
-199.21875,-1000.0,-1000.0,-63.4765625
168.9453125,-185.05859375,-128.41796875,-27.83203125
287.59765625,999.51171875,999.51171875,3.41796875
5.859375,999.51171875,542.48046875,-41.015625
-255.37109375,-172.8515625,-797.8515625,-86.9140625
-212.890625,-1000.0,-1000.0,-79.1015625
152.34375,-160.64453125,-184.5703125,-21.97265625
294.43359375,975.5859375,999.51171875,-4.39453125
50.78125,999.51171875,706.54296875,-44.43359375
-194.82421875,232.421875,-624.51171875,-82.51953125
-257.32421875,-1000.0,-1000.0,-70.80078125
47.36328125,-437.01171875,-203.125,-10.7421875
280.2734375,918.45703125,999.51171875,16.6015625
85.9375,999.51171875,914.55078125,-12.6953125
-185.05859375,106.93359375,-320.3125,-64.94140625
-402.83203125,-1000.0,-1000.0,-62.01171875
-163.57421875,-611.81640625,-268.5546875,16.11328125
-127.44140625,763.18359375,971.19140625,36.62109375
-819.82421875,999.51171875,999.51171875,-64.453125
-1000.0,168.45703125,-64.94140625,-143.06640625
-939.94140625,-1000.0,-1000.0,-119.62890625
-554.19921875,-529.296875,-360.83984375,-58.10546875
-66.40625,847.65625,919.921875,-49.8046875
-25.390625,999.51171875,999.51171875,-77.63671875
-233.3984375,173.33984375,83.984375,-127.9296875
-333.0078125,-1000.0,-1000.0,-137.20703125
-41.015625,-945.3125,-614.74609375,-95.703125
332.51953125,315.4296875,730.95703125,-78.61328125
311.5234375,999.51171875,999.51171875,-89.84375
-12.6953125,370.60546875,149.90234375,-131.34765625
-229.4921875,-944.82421875,-1000.0,-116.69921875
-80.56640625,-1000.0,-836.9140625,-59.5703125
139.6484375,84.9609375,474.609375,-20.01953125
3.90625,999.51171875,999.51171875,-16.6015625
-322.265625,447.265625,194.3359375,-108.3984375
-554.19921875,-872.0703125,-1000.0,-139.6484375
-515.625,-1000.0,-985.3515625,-99.12109375
-266.11328125,-215.8203125,234.86328125,-26.3671875
-228.515625,999.51171875,999.51171875,-42.48046875
-466.30859375,500.0,252.9296875,-241.2109375
-626.953125,-878.41796875,-985.3515625,-284.1796875
-457.51953125,-1000.0,-1000.0,-158.203125
5.37109375,-169.921875,-40.0390625,-109.375
139.16015625,964.84375,999.51171875,-91.796875
-168.9453125,999.51171875,418.45703125,-101.07421875
-398.4375,166.9921875,-888.671875,-113.76953125
-359.375,-1000.0,-1000.0,-61.5234375
-214.35546875,-323.2421875,-173.33984375,5.859375
-654.296875,999.51171875,999.51171875,11.71875
-1000.0,820.80078125,613.28125,-109.86328125
-965.33203125,-524.4140625,-730.95703125,-186.5234375
-1000.0,-1000.0,-1000.0,-100.09765625
-639.6484375,-203.125,-195.3125,-8.7890625
-104.98046875,955.078125,999.51171875,20.5078125
-130.37109375,999.51171875,838.8671875,-13.18359375
-252.44140625,141.6015625,-450.1953125,-64.94140625
-177.24609375,-1000.0,-1000.0,-59.5703125
239.74609375,-194.3359375,-199.21875,25.390625
544.921875,997.55859375,999.51171875,42.96875
405.76171875,999.51171875,970.703125,-14.6484375
147.94921875,210.9375,-202.63671875,-50.78125
96.19140625,-1000.0,-1000.0,-52.734375
434.08203125,-625.48828125,-324.21875,-14.16015625
730.46875,757.8125,929.6875,20.99609375
587.890625,999.51171875,999.51171875,-10.7421875
282.2265625,204.58984375,69.3359375,-52.24609375
137.6953125,-1000.0,-1000.0,-63.4765625
298.33984375,-981.93359375,-520.99609375,-13.671875
527.83203125,275.87890625,812.5,38.0859375
503.41796875,999.51171875,999.51171875,-10.7421875
252.44140625,260.25390625,159.1796875,-81.54296875
-371.58203125,-952.63671875,-1000.0,-74.21875
-950.68359375,-1000.0,-783.69140625,-20.99609375
-1000.0,-234.375,554.19921875,-8.7890625
-984.375,999.51171875,999.51171875,-19.53125
-984.86328125,243.65234375,137.20703125,-46.875
-1000.0,-1000.0,-1000.0,-22.94921875
-717.28515625,-1000.0,-1000.0,24.90234375
-43.9453125,-124.0234375,65.91796875,19.53125
199.21875,999.51171875,999.51171875,-16.6015625
67.3828125,899.90234375,289.0625,-85.44921875
-71.2890625,-358.88671875,-968.26171875,-112.79296875
28.80859375,-1000.0,-1000.0,-60.546875
466.30859375,-215.8203125,-111.328125,7.32421875
617.67578125,999.51171875,999.51171875,7.8125
334.47265625,741.69921875,423.828125,-59.08203125
76.66015625,-627.9296875,-895.01953125,-112.79296875
94.7265625,-1000.0,-1000.0,-95.703125
604.4921875,-182.6171875,-186.03515625,-3.41796875
529.78515625,999.51171875,999.51171875,26.3671875
-76.66015625,999.51171875,707.03125,-24.4140625
-181.640625,-182.12890625,-631.8359375,-82.51953125
-97.65625,-1000.0,-1000.0,-76.171875
329.58984375,-173.33984375,-187.5,0.9765625
592.7734375,995.1171875,999.51171875,-6.34765625
99.609375,999.51171875,912.109375,-14.16015625
-455.078125,2.9296875,-324.21875,-51.26953125
-468.26171875,-1000.0,-1000.0,-71.2890625
-822.75390625,-871.58203125,-243.1640625,-7.8125
-939.453125,443.359375,985.83984375,25.87890625
-804.19921875,999.51171875,999.51171875,-12.6953125
-1000.0,-14.6484375,-92.28515625,-82.03125
-1000.0,-1000.0,-1000.0,-88.37890625
-994.140625,-727.05078125,-341.30859375,-33.203125
-1000.0,607.421875,917.48046875,-2.44140625
-1000.0,999.51171875,999.51171875,-2.9296875
-1000.0,141.6015625,151.3671875,-57.12890625
-1000.0,-1000.0,-1000.0,-97.16796875
-1000.0,-1000.0,-601.07421875,-39.55078125
-1000.0,38.0859375,756.8359375,-6.34765625
-1000.0,999.51171875,999.51171875,-15.625
-1000.0,569.82421875,157.71484375,-55.6640625
-976.5625,-793.45703125,-1000.0,-84.9609375
-1000.0,-1000.0,-822.265625,-51.26953125
-745.60546875,7.32421875,498.046875,2.9296875
-37.109375,999.51171875,999.51171875,-7.32421875
355.95703125,907.71484375,183.59375,-67.87109375
676.26953125,-434.5703125,-1000.0,-82.51953125
957.51953125,-1000.0,-951.171875,-46.38671875
965.33203125,280.76171875,296.38671875,2.9296875
958.49609375,999.51171875,999.51171875,4.39453125
967.28515625,777.83203125,266.6015625,-49.31640625
965.33203125,-485.3515625,-987.3046875,-100.09765625
965.33203125,-1000.0,-1000.0,-79.1015625
965.33203125,-149.4140625,31.25,-10.7421875
965.33203125,999.51171875,999.51171875,1.46484375
965.33203125,999.51171875,522.94921875,-41.50390625
967.28515625,-91.796875,-820.3125,-66.89453125
956.54296875,-1000.0,-1000.0,-63.4765625
962.40234375,-102.05078125,-51.26953125,-12.20703125
895.5078125,999.51171875,999.51171875,-1.46484375
507.32421875,683.10546875,625.0,-49.8046875
-427.734375,-648.92578125,-703.125,-105.46875
-1000.0,-1000.0,-1000.0,-95.703125
-977.5390625,-715.33203125,-190.4296875,-6.34765625
-979.00390625,643.5546875,999.51171875,26.85546875
-989.2578125,999.51171875,868.1640625,-48.33984375
-1000.0,-195.80078125,-409.1796875,-92.28515625
-701.66015625,-1000.0,-1000.0,-88.8671875
-20.99609375,-261.71875,-192.3828125,-29.78515625
496.58203125,939.453125,999.51171875,29.78515625
789.0625,999.51171875,999.51171875,-8.7890625
-70.3125,189.453125,-97.16796875,-78.125
-1000.0,-1000.0,-1000.0,-107.91015625
-1000.0,-974.609375,-318.84765625,-40.0390625
-585.44921875,293.45703125,950.68359375,16.6015625
-466.30859375,999.51171875,999.51171875,-11.71875
-614.2578125,162.109375,2.9296875,-63.4765625
-473.14453125,-1000.0,-1000.0,-83.984375
-528.80859375,-910.15625,-500.9765625,-55.6640625
-626.46484375,399.90234375,834.9609375,-26.85546875
-887.6953125,999.51171875,999.51171875,-28.80859375
-762.6953125,163.0859375,89.84375,-62.98828125
-413.0859375,-1000.0,-1000.0,-73.2421875
155.2734375,-925.78125,-729.4921875,-24.90234375
512.20703125,365.234375,606.4453125,19.04296875
791.015625,999.51171875,999.51171875,-2.9296875
922.8515625,767.578125,153.80859375,-69.82421875
746.09375,-508.7890625,-1000.0,-92.28515625
971.6796875,-1000.0,-965.33203125,-67.87109375
132.32421875,-91.796875,277.34375,0.0
-1000.0,999.51171875,999.51171875,-0.9765625
-985.83984375,194.3359375,178.22265625,-88.37890625
-975.09765625,-1000.0,-1000.0,-133.7890625
-1000.0,-1000.0,-1000.0,-74.70703125
-986.81640625,-221.19140625,78.61328125,1.953125
-1000.0,999.51171875,999.51171875,-5.859375
-884.765625,712.890625,303.7109375,-60.546875
-337.40234375,-655.2734375,-956.54296875,-76.171875
455.56640625,-1000.0,-1000.0,-67.3828125
999.51171875,-214.35546875,-131.8359375,-31.25
551.7578125,999.51171875,999.51171875,-8.30078125
-808.59375,734.375,496.09375,-46.875
-1000.0,-613.76953125,-841.30859375,-85.44921875
-948.2421875,-1000.0,-1000.0,-76.171875
-1000.0,-369.140625,-179.19921875,16.6015625
-1000.0,875.0,999.51171875,24.4140625
-1000.0,999.51171875,850.09765625,-57.12890625
-1000.0,210.44921875,-440.4296875,-84.9609375
-1000.0,-1000.0,-1000.0,-78.61328125
-1000.0,-519.04296875,-191.40625,-23.4375
-1000.0,875.0,999.51171875,7.32421875
-961.42578125,999.51171875,905.76171875,-46.38671875
-1000.0,69.3359375,-341.30859375,-98.14453125
-716.30859375,-1000.0,-1000.0,-88.37890625
471.6796875,-262.20703125,-229.00390625,-16.11328125
999.51171875,964.35546875,992.67578125,37.59765625
929.6875,999.51171875,999.51171875,-23.4375
962.890625,233.88671875,-104.4921875,-87.890625
967.28515625,-1000.0,-1000.0,-91.30859375
965.33203125,-455.56640625,-302.24609375,-60.05859375
965.33203125,893.06640625,943.84765625,4.8828125
965.33203125,999.51171875,999.51171875,-7.32421875
965.33203125,237.3046875,93.75,-71.77734375
965.8203125,-1000.0,-1000.0,-75.68359375
965.33203125,-774.4140625,-473.6328125,-33.203125
965.33203125,579.58984375,854.00390625,-16.11328125
965.33203125,999.51171875,999.51171875,-33.203125
965.33203125,441.40625,169.43359375,-70.3125
965.8203125,-946.2890625,-1000.0,-97.65625
965.33203125,-1000.0,-675.29296875,-64.453125
965.33203125,312.01171875,680.6640625,6.34765625
965.33203125,999.51171875,999.51171875,12.20703125
965.33203125,354.98046875,193.84765625,-82.03125
965.8203125,-924.31640625,-1000.0,-132.8125
965.8203125,-1000.0,-899.4140625,-70.80078125
965.33203125,-67.87109375,383.7890625,-0.48828125
965.33203125,999.51171875,999.51171875,-2.9296875
965.33203125,867.1875,273.4375,-65.91796875
965.8203125,-403.80859375,-1000.0,-81.0546875
965.33203125,-1000.0,-1000.0,-58.10546875
965.33203125,-158.203125,139.16015625,-21.97265625
965.33203125,972.16796875,999.51171875,-2.44140625
965.33203125,999.51171875,541.50390625,-45.8984375
965.8203125,152.34375,-783.203125,-94.7265625
965.8203125,-1000.0,-1000.0,-59.08203125
965.33203125,-233.88671875,-75.1953125,-23.92578125
965.33203125,999.51171875,999.51171875,-28.80859375
965.33203125,925.78125,585.9375,-51.7578125
965.33203125,-335.44921875,-749.0234375,-99.12109375
965.33203125,-1000.0,-1000.0,-82.51953125
965.33203125,-214.35546875,-170.8984375,-8.30078125
965.33203125,975.5859375,999.51171875,-1.953125
965.33203125,999.51171875,774.4140625,-67.3828125
963.37890625,0.0,-544.921875,-92.7734375
964.35546875,-1000.0,-1000.0,-72.265625
965.8203125,-283.203125,-175.78125,-16.11328125
961.9140625,957.03125,999.51171875,-0.9765625
975.5859375,999.51171875,882.32421875,-75.1953125
919.43359375,124.0234375,-369.140625,-105.46875
902.34375,-1000.0,-1000.0,-75.68359375
970.21484375,-394.04296875,-241.69921875,-27.83203125
956.54296875,913.0859375,978.515625,-2.44140625
986.328125,999.51171875,999.51171875,-27.83203125
863.28125,198.2421875,-52.24609375,-76.66015625
706.0546875,-1000.0,-1000.0,-75.68359375
871.58203125,-793.9453125,-386.71875,-20.01953125
976.5625,567.87109375,906.73828125,0.0
961.9140625,999.51171875,999.51171875,-20.5078125
731.4453125,151.85546875,89.84375,-78.61328125
503.90625,-1000.0,-1000.0,-117.67578125
719.7265625,-1000.0,-591.30859375,-48.33984375
971.6796875,194.3359375,755.37109375,20.5078125
918.9453125,999.51171875,999.51171875,-19.04296875
611.328125,167.96875,152.83203125,-80.56640625
386.23046875,-1000.0,-1000.0,-104.98046875
580.078125,-916.50390625,-743.1640625,-42.48046875
915.0390625,382.8125,592.7734375,22.94921875
869.62890625,999.51171875,999.51171875,-10.7421875
544.43359375,810.05859375,233.3984375,-67.3828125
306.640625,-426.7578125,-1000.0,-90.8203125
402.34375,-1000.0,-1000.0,-53.7109375
747.55859375,-222.16796875,203.125,1.46484375
791.50390625,999.51171875,999.51171875,-8.7890625
487.79296875,636.71875,288.0859375,-80.078125
239.2578125,-752.44140625,-973.6328125,-109.86328125
251.953125,-1000.0,-1000.0,-77.1484375
578.125,-187.5,-18.06640625,-21.484375
662.109375,999.51171875,999.51171875,2.44140625
354.00390625,999.51171875,469.23828125,-60.05859375
87.40234375,-197.75390625,-853.02734375,-121.58203125
99.609375,-1000.0,-1000.0,-79.58984375
463.8671875,-197.265625,-121.09375,-16.11328125
625.9765625,999.51171875,999.51171875,6.34765625
336.9140625,737.79296875,573.73046875,-37.59765625
-41.9921875,-597.65625,-762.6953125,-92.7734375
-170.8984375,-1000.0,-1000.0,-83.984375
87.890625,-426.7578125,-202.63671875,-43.9453125
321.2890625,886.71875,999.51171875,-17.08984375
161.1328125,999.51171875,826.171875,-57.12890625
-542.96875,-114.74609375,-466.30859375,-87.40234375
-1000.0,-1000.0,-1000.0,-76.66015625
-915.0390625,-907.2265625,-238.76953125,-19.53125
-675.29296875,347.65625,991.2109375,-18.5546875
-625.9765625,999.51171875,999.51171875,-62.01171875
-788.0859375,52.734375,-141.6015625,-72.265625
-750.9765625,-1000.0,-1000.0,-73.73046875
-707.03125,-871.09375,-348.6328125,-25.390625
-926.7578125,429.6875,924.8046875,22.94921875
-1000.0,999.51171875,999.51171875,-33.203125
-971.6796875,167.48046875,47.8515625,-119.140625
-781.73828125,-1000.0,-1000.0,-113.76953125
-292.48046875,-889.16015625,-564.453125,-41.015625
184.08203125,429.6875,772.94921875,-4.8828125
223.14453125,999.51171875,999.51171875,-29.296875
17.08984375,812.01171875,166.015625,-63.96484375
-128.41796875,-498.046875,-1000.0,-77.63671875
92.28515625,-1000.0,-799.8046875,-69.82421875
520.5078125,141.6015625,524.4140625,-34.1796875
584.47265625,999.51171875,999.51171875,-11.71875
257.32421875,500.9765625,199.21875,-59.08203125
8.7890625,-825.68359375,-1000.0,-99.12109375
145.01953125,-1000.0,-1000.0,-66.89453125
463.8671875,-188.96484375,187.5,7.32421875
-212.40234375,999.51171875,999.51171875,5.37109375
-1000.0,478.515625,302.24609375,-63.4765625
-967.7734375,-904.78515625,-987.3046875,-102.05078125
-1000.0,-1000.0,-1000.0,-83.49609375
-683.10546875,-113.76953125,91.796875,-34.1796875
-154.296875,999.51171875,999.51171875,-27.34375
-341.796875,620.60546875,413.0859375,-70.80078125
-693.359375,-739.74609375,-881.8359375,-108.3984375
-440.91796875,-1000.0,-1000.0,-50.29296875
202.1484375,-186.03515625,-160.64453125,0.48828125
581.54296875,999.51171875,999.51171875,-7.8125
180.6640625,999.51171875,649.4140625,-36.1328125
-606.93359375,-174.8046875,-692.3828125,-91.30859375
-528.80859375,-1000.0,-1000.0,-74.21875
173.828125,-180.6640625,-198.2421875,-1.46484375
509.765625,999.51171875,999.51171875,4.8828125
415.52734375,999.51171875,796.38671875,-41.015625
186.03515625,-70.80078125,-513.18359375,-89.84375
176.7578125,-1000.0,-1000.0,-97.16796875
485.83984375,-370.1171875,-238.76953125,-22.4609375
632.32421875,899.90234375,999.51171875,1.46484375
506.8359375,999.51171875,976.07421875,-36.62109375
343.75,159.1796875,-205.56640625,-79.58984375
-376.953125,-1000.0,-1000.0,-99.12109375
-1000.0,-1000.0,-372.55859375,-41.50390625
-986.328125,46.875,901.85546875,4.39453125
-987.79296875,999.51171875,999.51171875,-13.671875
-1000.0,265.625,90.8203125,-48.33984375
-1000.0,-1000.0,-1000.0,-94.23828125
-1000.0,-1000.0,-533.203125,-77.1484375
-1000.0,132.8125,811.03515625,20.99609375
-1000.0,999.51171875,999.51171875,3.90625
-1000.0,201.66015625,161.1328125,-69.82421875
-1000.0,-1000.0,-1000.0,-96.19140625
-1000.0,-1000.0,-666.015625,-57.12890625
-1000.0,169.921875,688.4765625,1.953125
-984.375,999.51171875,999.51171875,7.8125
-1000.0,347.65625,196.77734375,-46.38671875
-890.13671875,-953.125,-1000.0,-94.23828125
-752.9296875,-1000.0,-861.328125,-56.15234375
-990.72265625,30.2734375,441.89453125,15.13671875
-1000.0,999.51171875,999.51171875,14.16015625
-988.76953125,566.40625,264.16015625,-46.38671875
-1000.0,-771.484375,-999.51171875,-92.7734375
-1000.0,-1000.0,-1000.0,-84.47265625
-1000.0,-185.546875,118.1640625,-10.25390625
-1000.0,999.51171875,999.51171875,-13.18359375
-1000.0,979.98046875,419.43359375,-32.2265625
-964.84375,-242.67578125,-889.6484375,-74.70703125
-1000.0,-1000.0,-1000.0,-105.46875
-653.3203125,-162.109375,-71.2890625,-18.06640625
380.859375,978.02734375,999.51171875,18.06640625
910.15625,999.51171875,622.55859375,-52.24609375
953.125,154.78515625,-712.890625,-77.63671875
956.0546875,-1000.0,-1000.0,-66.40625
967.7734375,-194.82421875,-171.875,-21.97265625
965.8203125,996.58203125,999.51171875,1.953125
965.33203125,999.51171875,885.7421875,-51.7578125
965.33203125,229.4921875,-380.859375,-97.16796875
965.33203125,-1000.0,-1000.0,-91.30859375
965.33203125,-329.58984375,-196.77734375,-1.953125
965.8203125,948.2421875,999.51171875,14.6484375
965.33203125,999.51171875,972.65625,-52.24609375
965.8203125,310.05859375,-200.1953125,-83.49609375
970.21484375,-1000.0,-1000.0,-68.84765625
907.2265625,-589.84375,-270.99609375,-6.8359375
999.51171875,827.63671875,961.9140625,22.4609375
403.3203125,999.51171875,999.51171875,-4.8828125
-656.25,140.13671875,28.80859375,-80.078125
61.5234375,-1000.0,-1000.0,-114.2578125
916.015625,-734.86328125,-407.71484375,-62.98828125
965.8203125,626.46484375,897.4609375,1.953125
942.87109375,999.51171875,999.51171875,-9.27734375
969.7265625,228.515625,142.578125,-73.2421875
965.8203125,-1000.0,-1000.0,-99.12109375
967.28515625,-530.76171875,-540.52734375,-59.5703125
941.40625,853.515625,811.5234375,-20.5078125
999.51171875,999.51171875,999.51171875,-15.625
778.3203125,196.2890625,160.15625,-75.1953125
202.1484375,-1000.0,-1000.0,-123.046875
394.04296875,-1000.0,-851.5625,-57.12890625
911.1328125,31.73828125,456.54296875,-10.7421875
971.6796875,999.51171875,999.51171875,-24.4140625
952.1484375,456.54296875,189.453125,-54.19921875
967.28515625,-879.8828125,-1000.0,-103.515625
965.8203125,-1000.0,-1000.0,-82.03125
965.33203125,-99.609375,163.57421875,-2.44140625
965.33203125,999.51171875,999.51171875,9.27734375
965.33203125,976.5625,357.91015625,-45.41015625
965.33203125,-224.12109375,-928.7109375,-104.4921875
965.8203125,-1000.0,-1000.0,-79.1015625
965.33203125,-196.2890625,-94.23828125,-21.97265625
965.33203125,999.51171875,999.51171875,-28.80859375
965.33203125,937.5,459.47265625,-52.24609375
965.33203125,-323.73046875,-870.60546875,-92.7734375
965.8203125,-1000.0,-1000.0,-88.37890625
965.33203125,-197.265625,-166.9921875,-4.39453125
965.33203125,955.078125,999.51171875,20.99609375
965.33203125,999.51171875,706.54296875,-39.0625
965.33203125,229.98046875,-624.51171875,-100.5859375
965.8203125,-1000.0,-1000.0,-107.91015625
965.33203125,-462.890625,-192.87109375,-40.0390625
964.35546875,891.6015625,999.51171875,-8.30078125
967.7734375,999.51171875,896.484375,-49.8046875
958.49609375,187.5,-349.12109375,-111.81640625
952.63671875,-1000.0,-1000.0,-117.67578125
965.8203125,-860.3515625,-251.953125,-33.203125
958.0078125,475.09765625,976.5625,25.390625
984.375,999.51171875,999.51171875,-13.671875
879.8828125,184.08203125,-70.80078125,-83.984375
743.65234375,-1000.0,-1000.0,-88.8671875
884.765625,-218.26171875,-263.671875,-56.640625
971.6796875,997.0703125,961.42578125,6.8359375
972.65625,999.51171875,999.51171875,-12.6953125
778.3203125,192.87109375,115.234375,-114.74609375
532.2265625,-1000.0,-1000.0,-119.62890625
716.30859375,-1000.0,-567.87109375,-48.828125
970.703125,247.0703125,788.0859375,-36.62109375
918.45703125,999.51171875,999.51171875,-53.7109375
613.28125,170.41015625,131.34765625,-70.3125
399.4140625,-1000.0,-1000.0,-93.75
621.58203125,-885.7421875,-629.8828125,-33.203125
902.34375,421.38671875,729.00390625,5.37109375
814.94140625,999.51171875,999.51171875,-19.53125
487.79296875,264.16015625,158.203125,-73.73046875
285.64453125,-951.171875,-1000.0,-100.5859375
438.4765625,-1000.0,-866.2109375,-33.69140625
739.74609375,-196.77734375,434.5703125,-5.37109375
733.88671875,999.51171875,999.51171875,-28.3203125
408.69140625,406.25,177.24609375,-71.2890625
188.4765625,-949.21875,-1000.0,-84.9609375
321.2890625,-1000.0,-994.140625,-42.96875
654.78515625,-73.2421875,212.40234375,-1.953125
670.41015625,999.51171875,999.51171875,-34.1796875
360.3515625,731.4453125,271.484375,-85.44921875
103.02734375,-592.28515625,-977.5390625,-107.91015625
182.6171875,-1000.0,-1000.0,-72.75390625
544.43359375,-219.23828125,-39.55078125,-9.27734375
605.95703125,999.51171875,999.51171875,-22.4609375
323.2421875,709.47265625,411.62109375,-60.546875
56.640625,-666.50390625,-898.92578125,-79.58984375
83.984375,-1000.0,-1000.0,-50.78125
469.7265625,-176.7578125,-146.484375,-8.7890625
586.9140625,993.65234375,999.51171875,-19.53125
305.6640625,999.51171875,681.15234375,-63.4765625
32.71484375,-88.37890625,-655.76171875,-92.28515625
-7.8125,-1000.0,-1000.0,-74.70703125
334.9609375,-178.7109375,-182.12890625,-28.3203125
540.52734375,997.55859375,999.51171875,-21.97265625
321.77734375,999.51171875,880.859375,-59.08203125
24.4140625,45.8984375,-383.30078125,-90.33203125
-49.8046875,-1000.0,-1000.0,-86.9140625
257.8125,-559.08203125,-228.515625,-41.50390625
486.81640625,799.31640625,999.51171875,-15.13671875
298.33984375,999.51171875,980.46875,-55.6640625
7.8125,148.4375,-188.96484375,-91.30859375
-92.7734375,-1000.0,-1000.0,-73.2421875
192.87109375,-685.546875,-331.0546875,-4.39453125
458.984375,691.40625,921.875,5.37109375
311.03515625,999.51171875,999.51171875,-50.29296875
4.8828125,197.75390625,105.95703125,-101.07421875
-158.69140625,-1000.0,-1000.0,-123.046875
112.3046875,-559.08203125,-458.49609375,-32.71484375
421.875,827.1484375,873.046875,4.39453125
291.50390625,999.51171875,999.51171875,-28.3203125
-25.390625,154.78515625,137.6953125,-81.0546875
-173.828125,-1000.0,-1000.0,-107.91015625
45.8984375,-1000.0,-730.95703125,-76.66015625
371.58203125,88.37890625,611.328125,-17.08984375
320.3125,999.51171875,999.51171875,-3.90625
20.01953125,411.1328125,170.41015625,-63.4765625
-150.390625,-889.16015625,-1000.0,-65.91796875
-22.4609375,-1000.0,-927.734375,-41.015625
286.1328125,-205.56640625,328.61328125,-22.94921875
310.546875,999.51171875,999.51171875,-11.71875
12.20703125,795.8984375,278.80859375,-51.26953125
-216.796875,-549.8046875,-1000.0,-67.87109375
-112.79296875,-1000.0,-1000.0,-33.203125
262.6953125,-187.98828125,178.7109375,-17.08984375
308.10546875,999.51171875,999.51171875,-22.4609375
7.32421875,786.62109375,377.44140625,-54.6875
-226.5625,-559.08203125,-914.0625,-70.3125
-145.01953125,-1000.0,-1000.0,-43.9453125
232.421875,-178.7109375,-65.91796875,20.99609375
360.3515625,999.51171875,999.51171875,26.85546875
98.14453125,962.40234375,578.61328125,-52.24609375
-175.29296875,-262.6953125,-751.953125,-75.68359375
-182.12890625,-1000.0,-1000.0,-38.0859375
139.16015625,-291.9921875,-176.26953125,7.8125
278.3203125,939.453125,999.51171875,-3.41796875
-21.484375,999.51171875,810.546875,-51.26953125
-318.84765625,53.22265625,-489.74609375,-80.56640625
-295.8984375,-1000.0,-1000.0,-91.796875
-595.703125,-702.1484375,-187.01171875,-25.87890625
-1000.0,643.5546875,999.51171875,20.01953125
