TP9,AF7,AF8,TP10
108.88671875,-208.984375,-105.95703125,187.01171875
225.5859375,999.51171875,999.51171875,218.75
0.48828125,918.45703125,357.91015625,176.7578125
-248.046875,-361.328125,-943.84765625,155.76171875
-217.28515625,-1000.0,-1000.0,124.51171875
52.734375,-229.4921875,-169.43359375,-397.4609375
170.41015625,999.51171875,999.51171875,-971.19140625
-26.3671875,472.16796875,541.015625,-1000.0
-261.23046875,-933.59375,-795.8984375,-985.83984375
-251.46484375,-1000.0,-1000.0,-1000.0
2.9296875,-1000.0,-252.9296875,-1000.0
183.10546875,111.328125,999.51171875,-1000.0
71.2890625,999.51171875,830.078125,-1000.0
-201.171875,-93.26171875,-472.65625,-1000.0
-296.38671875,-1000.0,-1000.0,-1000.0
-35.15625,-980.46875,-307.6171875,-1000.0
194.82421875,196.77734375,958.49609375,-1000.0
109.86328125,999.51171875,999.51171875,-1000.0
-186.03515625,166.50390625,-137.6953125,-998.046875
-314.94140625,-1000.0,-1000.0,-1000.0
-57.12890625,-923.828125,-416.015625,-986.81640625
193.84765625,345.21484375,875.48828125,-919.43359375
125.9765625,999.51171875,999.51171875,-866.69921875
-132.8125,586.42578125,68.359375,-828.125
-291.50390625,-743.65234375,-1000.0,-758.30078125
-110.83984375,-1000.0,-670.41015625,-700.68359375
155.76171875,-68.84765625,664.55078125,-665.52734375
143.06640625,999.51171875,999.51171875,-639.6484375
-113.28125,379.39453125,115.72265625,-617.1875
-286.62109375,-965.33203125,-1000.0,-572.75390625
-123.53515625,-1000.0,-813.4765625,-515.625
161.1328125,26.85546875,483.88671875,-471.6796875
169.921875,999.51171875,999.51171875,-446.2890625
-104.00390625,412.109375,128.90625,-424.8046875
-290.0390625,-895.5078125,-1000.0,-389.16015625
-161.1328125,-1000.0,-1000.0,-358.3984375
124.0234375,-201.171875,52.24609375,-356.93359375
193.359375,999.51171875,999.51171875,-352.05078125
-49.8046875,973.6328125,204.58984375,-340.8203125
-261.23046875,-315.4296875,-1000.0,-320.80078125
-175.29296875,-1000.0,-1000.0,-282.2265625
107.91015625,41.9921875,-88.8671875,-266.6015625
215.8203125,999.51171875,999.51171875,-260.25390625
-13.18359375,916.015625,310.546875,-237.3046875
-252.9296875,-270.5078125,-958.984375,-219.23828125
-215.33203125,-1000.0,-1000.0,-207.51953125
77.1484375,-405.76171875,-222.65625,-175.78125
217.28515625,880.37109375,999.51171875,-172.36328125
15.13671875,999.51171875,616.2109375,-182.6171875
-230.95703125,84.9609375,-742.1875,-163.0859375
-256.34765625,-1000.0,-1000.0,-145.5078125
36.62109375,-343.26171875,-176.26953125,-139.6484375
206.54296875,936.5234375,999.51171875,-136.23046875
52.734375,999.51171875,929.6875,-140.13671875
-172.8515625,856.93359375,-292.48046875,-132.32421875
-266.11328125,-687.5,-1000.0,-110.83984375
6.8359375,-488.76953125,-229.00390625,-96.19140625
221.6796875,977.05078125,999.51171875,-89.35546875
68.359375,999.51171875,971.19140625,-99.12109375
-196.2890625,153.80859375,-208.984375,-103.515625
-294.43359375,-1000.0,-1000.0,-17.578125
-74.70703125,-1000.0,-439.453125,-32.71484375
169.43359375,-64.94140625,867.1875,-34.1796875
138.18359375,999.51171875,999.51171875,-11.71875
-145.99609375,214.35546875,-13.18359375,44.921875
-287.59765625,-1000.0,-1000.0,93.26171875
-88.8671875,-1000.0,-645.99609375,105.46875
154.296875,-192.87109375,675.78125,88.37890625
162.109375,999.51171875,999.51171875,138.671875
-95.703125,369.62890625,105.46875,225.09765625
-310.546875,-968.75,-1000.0,258.30078125
-141.6015625,-1000.0,-841.30859375,267.08984375
-44.921875,-67.87109375,312.01171875,174.31640625
-307.6171875,999.51171875,-958.0078125,158.69140625
-241.2109375,482.421875,-1000.0,245.1171875
49.8046875,-918.45703125,-184.08203125,239.2578125
179.19921875,-1000.0,999.51171875,182.12890625
9.27734375,108.3984375,588.37890625,169.921875
-233.88671875,999.51171875,-763.18359375,210.44921875
-257.32421875,617.1875,-1000.0,162.59765625
28.80859375,-700.1953125,-231.93359375,145.99609375
215.33203125,-1000.0,999.51171875,335.9375
76.171875,-216.796875,720.21484375,569.82421875
-178.7109375,999.51171875,-614.74609375,700.1953125
-250.9765625,754.39453125,-1000.0,762.6953125
-6.8359375,-588.37890625,-331.0546875,832.51953125
204.58984375,-1000.0,999.51171875,858.88671875
97.16796875,-322.265625,829.1015625,826.171875
-181.640625,900.390625,-493.1640625,823.2421875
-264.6484375,999.51171875,-1000.0,846.19140625
-33.203125,164.55078125,-453.125,867.1875
184.08203125,-1000.0,894.53125,885.7421875
109.375,-753.90625,990.72265625,828.125
-180.6640625,608.88671875,-275.390625,739.74609375
-306.640625,999.51171875,-1000.0,712.890625
-97.16796875,177.734375,-662.59765625,715.8203125
150.87890625,-1000.0,647.94921875,725.09765625
135.25390625,-790.0390625,999.51171875,689.453125
-136.23046875,577.63671875,28.3203125,601.5625
-307.12890625,999.51171875,-1000.0,565.91796875
-140.625,159.66796875,-867.1875,571.77734375
130.37109375,-1000.0,400.390625,573.73046875
177.734375,-764.6484375,999.51171875,570.80078125
-108.3984375,600.5859375,129.39453125,443.359375
-319.82421875,999.51171875,-1000.0,211.42578125
-166.50390625,150.87890625,-978.02734375,183.10546875
111.328125,-1000.0,229.00390625,102.05078125
188.4765625,-973.14453125,999.51171875,-47.36328125
-84.47265625,351.07421875,154.78515625,2.9296875
-312.01171875,-964.35546875,-1000.0,82.51953125
-179.6875,-1000.0,-1000.0,178.7109375
111.81640625,-178.7109375,-43.9453125,246.09375
212.40234375,962.890625,999.51171875,255.37109375
-13.671875,999.51171875,338.37890625,192.87109375
-239.74609375,215.33203125,-957.51953125,144.04296875
-214.84375,-1000.0,-1000.0,145.5078125
56.15234375,-252.9296875,-102.05078125,187.98828125
186.5234375,999.51171875,999.51171875,201.171875
-37.109375,689.453125,416.50390625,132.32421875
-285.64453125,-654.78515625,-896.97265625,83.49609375
-242.1875,-1000.0,-1000.0,95.703125
46.875,-444.3359375,-209.47265625,148.92578125
195.3125,871.58203125,999.51171875,190.4296875
39.55078125,999.51171875,665.52734375,141.6015625
-217.28515625,-62.01171875,-683.59375,102.5390625
-282.71484375,-1000.0,-1000.0,123.53515625
0.9765625,-460.44921875,-214.35546875,166.015625
206.54296875,876.953125,999.51171875,186.5234375
53.22265625,999.51171875,873.53515625,137.6953125
-222.65625,22.94921875,-397.4609375,80.078125
-279.78515625,-1000.0,-1000.0,90.33203125
6.34765625,-365.234375,-284.66796875,141.11328125
194.3359375,912.109375,965.33203125,150.390625
66.89453125,999.51171875,999.51171875,92.7734375
-187.01171875,223.6328125,-104.00390625,32.2265625
-310.05859375,-1000.0,-1000.0,27.83203125
-102.5390625,-795.8984375,-493.1640625,73.73046875
160.64453125,571.77734375,832.03125,129.39453125
100.09765625,999.51171875,999.51171875,104.00390625
-192.87109375,123.53515625,-0.9765625,40.0390625
-325.68359375,-999.51171875,-1000.0,26.85546875
-133.30078125,-1000.0,-806.15234375,59.08203125
134.27734375,-223.14453125,484.375,97.16796875
133.30078125,999.51171875,999.51171875,81.54296875
-136.23046875,393.5546875,110.83984375,27.34375
-296.38671875,-958.0078125,-1000.0,10.7421875
-141.6015625,-1000.0,-917.96875,44.43359375
127.9296875,-38.0859375,320.80078125,73.73046875
172.8515625,999.51171875,999.51171875,70.80078125
-100.5859375,980.46875,165.0390625,14.6484375
-307.12890625,-186.5234375,-1000.0,-16.6015625
-184.08203125,-1000.0,-1000.0,18.5546875
102.5390625,-233.3984375,-33.203125,56.15234375
179.6875,999.51171875,999.51171875,45.8984375
-68.359375,526.3671875,190.91796875,4.8828125
-299.8046875,-858.3984375,-1000.0,-31.73828125
-211.9140625,-1000.0,-1000.0,-11.23046875
77.63671875,-182.6171875,-184.5703125,46.875
199.21875,987.3046875,999.51171875,47.8515625
14.16015625,999.51171875,378.41796875,-1.953125
-258.7890625,-51.7578125,-934.08203125,-40.52734375
-248.53515625,-1000.0,-1000.0,-15.13671875
67.3828125,-209.47265625,-217.7734375,49.31640625
221.19140625,999.51171875,999.51171875,69.82421875
32.71484375,943.84765625,515.13671875,29.78515625
-244.140625,-290.0390625,-827.63671875,-7.32421875
-262.20703125,-1000.0,-1000.0,13.18359375
19.04296875,-636.23046875,-292.48046875,60.05859375
204.1015625,687.98828125,999.51171875,79.58984375
72.265625,999.51171875,769.53125,54.19921875
-208.49609375,85.44921875,-562.5,14.16015625
-284.1796875,-1000.0,-1000.0,14.16015625
-13.671875,-602.05078125,-331.0546875,51.7578125
199.70703125,766.6015625,955.56640625,77.63671875
94.23828125,999.51171875,999.51171875,61.5234375
-189.94140625,162.109375,-191.89453125,9.27734375
-309.5703125,-1000.0,-1000.0,17.08984375
-59.08203125,-1000.0,-495.1171875,56.640625
164.0625,239.2578125,827.1484375,26.85546875
69.82421875,999.51171875,999.51171875,-29.78515625
-222.16796875,130.37109375,-26.85546875,-89.84375
-374.0234375,-1000.0,-1000.0,-120.1171875
-193.359375,-1000.0,-747.55859375,-90.33203125
51.7578125,-109.375,554.19921875,-44.921875
39.55078125,999.51171875,999.51171875,-84.9609375
-229.98046875,844.23828125,123.046875,-167.48046875
-423.33984375,-446.2890625,-1000.0,-176.26953125
-285.64453125,-1000.0,-967.7734375,-125.0
-0.48828125,-226.07421875,251.46484375,-78.125
66.89453125,999.51171875,999.51171875,-76.66015625
-172.8515625,563.96484375,126.953125,-110.3515625
-365.234375,-828.125,-1000.0,-120.60546875
-229.4921875,-1000.0,-1000.0,-57.6171875
77.63671875,-186.03515625,70.80078125,26.85546875
159.1796875,999.51171875,999.51171875,40.0390625
-87.890625,688.96484375,203.125,-20.99609375
-305.6640625,-686.5234375,-1000.0,-67.3828125
-227.05078125,-1000.0,-1000.0,-43.9453125
78.61328125,-173.33984375,-43.9453125,8.30078125
184.5703125,999.51171875,999.51171875,15.625
-57.12890625,699.70703125,348.14453125,-39.0625
-314.94140625,-640.13671875,-940.91796875,-74.70703125
-254.39453125,-1000.0,-1000.0,-43.45703125
56.15234375,-471.6796875,-181.640625,8.30078125
201.66015625,864.2578125,999.51171875,27.83203125
19.04296875,999.51171875,624.51171875,-3.90625
-262.20703125,-105.46875,-724.12109375,-47.36328125
-285.64453125,-1000.0,-1000.0,-35.15625
17.578125,-523.4375,-206.0546875,30.76171875
205.56640625,813.96484375,999.51171875,83.984375
50.29296875,999.51171875,841.796875,80.078125
-215.8203125,103.515625,-442.87109375,36.62109375
-284.66796875,-1000.0,-1000.0,37.109375
-62.98828125,-994.140625,-345.21484375,89.84375
165.0390625,237.3046875,989.74609375,127.9296875
86.42578125,999.51171875,905.76171875,101.07421875
-188.4765625,138.671875,-376.953125,43.9453125
-288.0859375,-1000.0,-1000.0,44.43359375
-67.3828125,-1000.0,-548.33984375,68.359375
157.2265625,149.90234375,791.015625,78.125
90.33203125,999.51171875,999.51171875,49.8046875
-159.1796875,757.32421875,-137.6953125,1.46484375
-291.9921875,-529.78515625,-1000.0,-12.20703125
-146.484375,-1000.0,-808.59375,27.83203125
115.72265625,-135.7421875,487.3046875,66.89453125
126.953125,999.51171875,999.51171875,52.24609375
-165.52734375,281.73828125,-32.71484375,-5.859375
-340.33203125,-984.375,-1000.0,-24.4140625
-142.578125,-1000.0,-1000.0,25.390625
118.65234375,-245.1171875,107.421875,73.2421875
150.390625,999.51171875,999.51171875,41.015625
-104.98046875,453.61328125,75.68359375,-12.6953125
-303.7109375,-961.9140625,-1000.0,-36.1328125
-152.34375,-1000.0,-1000.0,-8.7890625
116.69921875,137.20703125,10.25390625,54.19921875
169.921875,999.51171875,999.51171875,55.6640625
-54.19921875,860.3515625,151.85546875,-11.71875
-259.765625,-340.8203125,-1000.0,-55.6640625
-218.75,-1000.0,-1000.0,-13.671875
51.7578125,-465.33203125,-230.46875,43.45703125
189.453125,951.171875,999.51171875,38.57421875
-20.99609375,913.57421875,225.5859375,-7.8125
-262.6953125,-471.19140625,-1000.0,-31.25
-228.02734375,-1000.0,-1000.0,-14.6484375
68.84765625,-179.6875,-250.0,32.71484375
215.8203125,999.51171875,999.51171875,49.8046875
0.0,999.51171875,326.66015625,-0.48828125
-253.41796875,-148.92578125,-960.44921875,-39.55078125
-233.3984375,-1000.0,-1000.0,-14.16015625
40.52734375,-610.3515625,-361.328125,35.64453125
192.87109375,714.84375,999.51171875,42.48046875
36.1328125,999.51171875,557.6171875,-3.90625
-231.93359375,172.36328125,-812.5,-69.82421875
-286.62109375,-1000.0,-1000.0,-73.73046875
-38.0859375,-738.76953125,-448.73046875,-7.8125
166.9921875,625.9765625,978.515625,17.578125
60.05859375,999.51171875,774.4140625,-21.97265625
-211.42578125,211.9140625,-596.6796875,-61.03515625
-293.45703125,-1000.0,-1000.0,-60.546875
-64.94140625,-1000.0,-598.14453125,-13.18359375
178.7109375,221.19140625,787.109375,32.71484375
114.74609375,999.51171875,993.1640625,-9.27734375
-174.31640625,128.41796875,-330.56640625,-83.984375
-301.7578125,-1000.0,-1000.0,-104.98046875
-91.30859375,-1000.0,-684.08203125,-81.0546875
168.45703125,92.7734375,615.72265625,-80.078125
146.97265625,999.51171875,999.51171875,-99.609375
-149.90234375,210.9375,53.22265625,-147.4609375
-327.63671875,-1000.0,-1000.0,-150.390625
-117.67578125,-943.84765625,-739.2578125,-84.9609375
153.80859375,347.16796875,574.70703125,-41.015625
146.97265625,999.51171875,999.51171875,-33.203125
-114.2578125,171.875,142.08984375,-74.70703125
-302.24609375,-984.86328125,-1000.0,-83.984375
-159.66796875,-1000.0,-949.70703125,-33.69140625
122.55859375,-231.93359375,278.3203125,16.6015625
190.4296875,999.51171875,999.51171875,17.578125
-56.640625,816.40625,188.4765625,-31.25
-276.85546875,-514.16015625,-1000.0,-43.45703125
-172.36328125,-1000.0,-1000.0,-3.90625
102.05078125,-150.390625,75.68359375,41.015625
158.203125,969.23828125,999.51171875,46.38671875
-31.73828125,999.51171875,397.94921875,3.41796875
-251.953125,191.40625,-903.3203125,-11.23046875
-231.4453125,-1000.0,-1000.0,15.625
60.05859375,-517.08984375,-139.6484375,27.34375
184.5703125,896.97265625,999.51171875,35.15625
-11.71875,999.51171875,557.12890625,-1.953125
-258.7890625,-97.16796875,-792.96875,-61.5234375
-245.1171875,-1000.0,-1000.0,-25.390625
49.8046875,-343.75,-168.9453125,38.57421875
205.078125,910.64453125,999.51171875,41.9921875
48.33984375,999.51171875,769.53125,-9.27734375
-224.609375,226.5625,-544.43359375,-54.6875
-276.3671875,-1000.0,-1000.0,-38.0859375
13.671875,-530.76171875,-193.359375,26.85546875
209.47265625,854.4921875,999.51171875,52.24609375
78.61328125,999.51171875,968.75,1.46484375
-187.01171875,166.50390625,-220.703125,-42.96875
-275.87890625,-1000.0,-1000.0,-46.875
-26.85546875,-932.12890625,-277.83203125,-2.9296875
196.2890625,360.3515625,960.9375,33.69140625
101.07421875,999.51171875,999.51171875,2.44140625
-161.62109375,194.82421875,-12.6953125,-56.640625
-280.76171875,-1000.0,-1000.0,-63.4765625
-29.296875,-471.19140625,-334.9609375,-7.8125
213.37890625,886.23046875,928.22265625,28.3203125
95.21484375,999.51171875,999.51171875,7.32421875
-169.43359375,161.1328125,139.16015625,-41.50390625
-312.5,-1000.0,-1000.0,-62.98828125
-121.58203125,-1000.0,-657.2265625,-18.5546875
141.11328125,95.703125,682.6171875,27.34375
151.3671875,999.51171875,999.51171875,8.30078125
-124.0234375,219.23828125,159.66796875,-64.453125
-323.73046875,-978.02734375,-1000.0,-62.98828125
-151.85546875,-1000.0,-886.71875,-122.0703125
104.4921875,-260.25390625,386.23046875,-536.62109375
148.4375,999.51171875,999.51171875,-562.5
-103.02734375,517.578125,187.01171875,-313.96484375
-308.59375,-867.1875,-1000.0,-237.3046875
-163.0859375,-1000.0,-1000.0,-107.91015625
124.0234375,-206.0546875,62.98828125,-21.484375
197.75390625,999.51171875,999.51171875,2.9296875
-34.66796875,924.8046875,288.0859375,-41.015625
-256.8359375,-359.375,-980.46875,-65.4296875
-200.1953125,-1000.0,-1000.0,-20.5078125
95.703125,-131.8359375,-55.17578125,7.8125
202.1484375,999.51171875,999.51171875,20.5078125
-31.73828125,999.51171875,472.16796875,-21.97265625
-285.15625,-50.78125,-855.95703125,-64.453125
-255.859375,-1000.0,-1000.0,-19.53125
15.625,-861.328125,-158.69140625,-189.453125
160.15625,469.23828125,999.51171875,-432.12890625
30.2734375,999.51171875,683.59375,-303.7109375
-218.75,-121.58203125,-653.3203125,-251.953125
-260.7421875,-1000.0,-1000.0,-315.91796875
15.625,-540.0390625,-208.49609375,-175.78125
225.5859375,787.109375,999.51171875,-16.6015625
97.65625,999.51171875,945.3125,4.39453125
-182.12890625,198.2421875,-279.78515625,-24.90234375
-284.1796875,-1000.0,-1000.0,3.90625
-17.578125,-292.96875,-243.65234375,55.6640625
214.84375,971.6796875,999.0234375,96.19140625
98.6328125,999.51171875,995.1171875,81.0546875
-193.84765625,172.36328125,-156.73828125,6.8359375
-317.87109375,-1000.0,-1000.0,1.953125
-75.1953125,-958.984375,-447.75390625,57.6171875
192.87109375,293.9453125,850.09765625,107.91015625
133.7890625,999.51171875,999.51171875,87.40234375
-165.52734375,274.4140625,85.44921875,15.13671875
-323.2421875,-985.3515625,-1000.0,0.9765625
-127.9296875,-1000.0,-666.9921875,48.828125
144.53125,48.828125,665.0390625,55.6640625
149.90234375,999.51171875,999.51171875,13.18359375
-122.0703125,559.08203125,159.66796875,-38.0859375
-318.84765625,-870.1171875,-1000.0,-57.12890625
-149.90234375,-1000.0,-823.2421875,-12.6953125
137.20703125,269.04296875,485.83984375,54.19921875
160.15625,999.51171875,999.51171875,63.4765625
-86.9140625,572.75390625,158.69140625,-5.37109375
-277.83203125,-738.76953125,-1000.0,-24.4140625
-170.41015625,-1000.0,-1000.0,12.20703125
108.88671875,-159.66796875,77.1484375,20.5078125
181.640625,958.984375,999.51171875,27.34375
-58.10546875,999.51171875,240.234375,-12.20703125
-256.8359375,223.6328125,-995.1171875,-43.45703125
-208.0078125,-1000.0,-1000.0,-12.20703125
71.2890625,-275.87890625,-96.6796875,37.59765625
206.54296875,999.51171875,999.51171875,65.91796875
-17.08984375,830.56640625,377.44140625,7.32421875
-271.97265625,-499.0234375,-934.5703125,-41.9921875
-227.5390625,-1000.0,-1000.0,-8.30078125
61.03515625,-164.0625,-147.94921875,30.2734375
180.17578125,979.00390625,999.51171875,40.52734375
-21.484375,999.51171875,627.9296875,1.953125
-299.8046875,60.05859375,-718.75,-36.62109375
-323.73046875,-1000.0,-1000.0,-21.97265625
-4.8828125,-168.45703125,-157.71484375,27.34375
163.0859375,999.51171875,999.51171875,33.69140625
-12.20703125,999.51171875,877.44140625,-45.8984375
-294.921875,154.296875,-409.1796875,-93.26171875
-338.37890625,-1000.0,-1000.0,-71.2890625
-53.7109375,-662.109375,-163.57421875,-41.015625
127.9296875,680.17578125,960.9375,-29.296875
10.25390625,999.51171875,999.51171875,-54.19921875
-271.484375,143.5546875,-56.640625,-103.02734375
-366.2109375,-1000.0,-1000.0,-119.140625
-104.98046875,-1000.0,-208.984375,-67.3828125
111.328125,34.1796875,971.19140625,-10.7421875
29.78515625,999.51171875,999.51171875,-26.3671875
-222.65625,165.0390625,212.40234375,-119.62890625
-367.1875,-1000.0,-1000.0,-73.73046875
-128.90625,-1000.0,-225.5859375,-187.5
121.58203125,-253.90625,983.3984375,-459.9609375
87.40234375,999.51171875,999.51171875,-367.1875
-187.5,175.78125,377.44140625,-746.09375
-364.2578125,-1000.0,-1000.0,-878.90625
-117.67578125,-1000.0,-286.62109375,-403.80859375
185.05859375,-170.8984375,982.421875,-170.41015625
174.8046875,999.51171875,999.51171875,-72.265625
-49.8046875,503.90625,540.0390625,-41.015625
-273.4375,-859.86328125,-1000.0,-25.390625
-157.2265625,-1000.0,-442.87109375,27.34375
155.2734375,-240.72265625,933.10546875,120.1171875
182.6171875,999.51171875,999.51171875,76.171875
-57.12890625,472.16796875,506.8359375,-87.890625
-288.57421875,-900.390625,-898.4375,-94.7265625
-189.453125,-1000.0,-995.60546875,143.5546875
90.8203125,-844.23828125,307.12890625,-354.00390625
177.734375,690.4296875,999.51171875,-766.6015625
-11.23046875,315.91796875,392.578125,-240.72265625
-265.13671875,-1000.0,-898.4375,-86.42578125
-205.078125,-1000.0,-1000.0,-23.92578125
117.67578125,-292.96875,-100.5859375,31.25
262.6953125,999.51171875,999.51171875,161.62109375
-19.04296875,234.375,431.640625,-398.4375
-315.4296875,-1000.0,-875.0,-850.09765625
-250.48828125,-908.69140625,-1000.0,-286.1328125
12.20703125,-1000.0,-355.95703125,-330.078125
202.63671875,-140.13671875,999.51171875,-144.04296875
74.21875,777.34375,353.02734375,223.14453125
-232.91015625,-743.1640625,-1000.0,138.18359375
-243.65234375,-1000.0,-1000.0,108.88671875
-1.953125,-930.6640625,-1000.0,140.625
173.828125,-1000.0,366.69921875,87.40234375
41.015625,-999.51171875,338.8671875,56.640625
-216.796875,-1000.0,-1000.0,82.51953125
-215.8203125,-925.78125,-984.375,67.87109375
-14.6484375,-1000.0,-993.65234375,50.78125
140.625,-580.078125,-895.99609375,59.5703125
91.796875,999.51171875,-865.234375,65.91796875
-124.51171875,100.5859375,-1000.0,54.19921875
-235.3515625,-1000.0,-998.046875,79.1015625
-56.640625,-1000.0,-998.046875,98.14453125
128.90625,-331.0546875,-1000.0,85.44921875
68.84765625,999.51171875,-1000.0,106.4453125
-153.80859375,-98.14453125,-1000.0,90.8203125
-246.58203125,-1000.0,-1000.0,91.30859375
-71.2890625,-939.94140625,-1000.0,138.18359375
126.46484375,-993.1640625,-1000.0,98.14453125
82.03125,-1000.0,-1000.0,36.62109375
-144.04296875,-1000.0,-1000.0,36.62109375
-254.8828125,-926.26953125,-994.62890625,45.41015625
-79.1015625,-1000.0,-1000.0,71.77734375
143.06640625,-599.609375,-977.5390625,80.56640625
135.7421875,999.51171875,-918.9453125,50.78125
-92.28515625,419.921875,-1000.0,19.04296875
-276.85546875,-983.3984375,-946.2890625,32.71484375
-151.85546875,-1000.0,-1000.0,46.38671875
133.7890625,-233.88671875,-645.99609375,19.53125
202.1484375,999.51171875,217.28515625,87.890625
-85.9375,155.2734375,-698.2421875,-90.33203125
-289.0625,-1000.0,-1000.0,-240.72265625
-159.1796875,-1000.0,-1000.0,3.41796875
102.5390625,-602.5390625,-895.01953125,89.35546875
249.51171875,999.51171875,350.09765625,75.68359375
7.32421875,446.77734375,-250.0,42.48046875
-296.875,-968.26171875,-1000.0,23.4375
-209.9609375,-1000.0,-955.56640625,57.6171875
80.56640625,-720.21484375,-1000.0,120.60546875
270.01953125,615.234375,415.0390625,143.06640625
78.125,999.51171875,201.171875,91.30859375
-252.9296875,-24.90234375,-1000.0,55.17578125
-238.28125,-1000.0,-969.7265625,109.375
20.5078125,-1000.0,-1000.0,139.6484375
218.75,378.41796875,354.00390625,137.6953125
44.921875,969.23828125,283.69140625,97.16796875
-262.20703125,-541.9921875,-1000.0,43.45703125
-269.53125,-1000.0,-969.7265625,65.91796875
-25.390625,-855.95703125,-1000.0,103.02734375
219.23828125,384.765625,330.56640625,127.44140625
97.16796875,999.51171875,422.36328125,101.07421875
-235.83984375,69.82421875,-1000.0,54.6875
-287.109375,-1000.0,-946.2890625,16.11328125
-55.17578125,-1000.0,-1000.0,-70.3125
200.68359375,176.26953125,34.66796875,-18.5546875
152.34375,999.51171875,532.71484375,14.6484375
-194.82421875,131.8359375,-987.79296875,-29.296875
-307.12890625,-1000.0,-977.05078125,19.04296875
-74.21875,-1000.0,-1000.0,64.94140625
208.49609375,-85.9375,-91.30859375,74.70703125
197.75390625,999.51171875,835.44921875,-7.8125
-148.4375,168.9453125,-675.29296875,-102.5390625
-293.45703125,-1000.0,-1000.0,-78.125
-89.35546875,-1000.0,-1000.0,-125.9765625
207.03125,67.3828125,-147.4609375,-140.625
230.95703125,999.51171875,999.51171875,-258.30078125
-143.06640625,180.6640625,-223.6328125,-554.19921875
-343.26171875,-993.65234375,-1000.0,-560.546875
-168.45703125,-1000.0,-1000.0,-781.25
165.52734375,-287.109375,-252.9296875,-837.40234375
299.8046875,999.51171875,999.51171875,-290.0390625
-34.1796875,585.44921875,-8.30078125,-57.6171875
-325.68359375,-811.03515625,-1000.0,32.71484375
-209.47265625,-1000.0,-1000.0,-70.80078125
124.51171875,-166.015625,-314.453125,-115.72265625
249.0234375,965.33203125,999.51171875,51.26953125
-16.11328125,999.51171875,123.53515625,30.2734375
-287.59765625,165.52734375,-1000.0,16.6015625
-242.67578125,-1000.0,-1000.0,12.6953125
43.45703125,-608.88671875,-690.91796875,21.484375
250.9765625,910.64453125,869.140625,17.578125
29.78515625,914.55078125,169.921875,-10.25390625
-297.36328125,-473.6328125,-1000.0,-41.9921875
-264.16015625,-1000.0,-954.1015625,-50.78125
3.90625,-443.84765625,-1000.0,-71.2890625
217.28515625,895.5078125,-21.484375,-89.35546875
46.875,999.51171875,-158.203125,-84.9609375
-275.390625,-243.65234375,-1000.0,-80.56640625
-285.15625,-1000.0,-963.37890625,-90.33203125
-15.625,-1000.0,-993.65234375,-98.6328125
148.92578125,-187.98828125,-1000.0,-113.76953125
36.62109375,999.51171875,-1000.0,-111.81640625
-218.75,-105.46875,-1000.0,-110.3515625
-281.25,-1000.0,-1000.0,-125.0
-49.31640625,-1000.0,-1000.0,-110.3515625
144.04296875,-221.19140625,-1000.0,-111.81640625
72.75390625,999.51171875,-1000.0,-142.08984375
-185.05859375,-77.1484375,-1000.0,-142.08984375
-282.2265625,-1000.0,-1000.0,-119.62890625
-64.453125,-1000.0,-1000.0,-107.91015625
179.19921875,18.5546875,-1000.0,-88.37890625
152.34375,999.51171875,-1000.0,-68.359375
-123.046875,-22.4609375,-1000.0,-57.6171875
-297.8515625,-1000.0,-1000.0,-51.26953125
-121.09375,-1000.0,-1000.0,-48.33984375
129.8828125,-309.5703125,-1000.0,-33.203125
120.60546875,999.51171875,-1000.0,-51.26953125
-146.97265625,174.31640625,-1000.0,-48.828125
-303.7109375,-1000.0,-1000.0,-34.66796875
-130.859375,-1000.0,-1000.0,-47.8515625
139.6484375,-310.05859375,-1000.0,-44.43359375
160.64453125,999.51171875,-1000.0,-34.1796875
-79.58984375,490.72265625,-1000.0,-24.4140625
-276.3671875,-896.97265625,-1000.0,-11.71875
-165.0390625,-1000.0,-1000.0,2.9296875
126.46484375,-237.79296875,-1000.0,81.0546875
191.40625,999.51171875,-1000.0,110.83984375
-33.69140625,598.14453125,-1000.0,72.265625
-253.90625,-782.71484375,-1000.0,54.6875
-181.15234375,-1000.0,-1000.0,68.84765625
102.5390625,-792.48046875,-1000.0,123.53515625
234.86328125,670.41015625,-1000.0,144.53125
55.17578125,876.46484375,-1000.0,118.1640625
-213.8671875,-618.65234375,-1000.0,82.51953125
-198.73046875,-1000.0,-1000.0,84.47265625
97.16796875,-266.6015625,-1000.0,138.671875
229.98046875,974.12109375,-1000.0,141.6015625
52.734375,999.51171875,-1000.0,105.95703125
-195.3125,-151.3671875,-1000.0,69.82421875
-222.16796875,-1000.0,-1000.0,65.4296875
29.296875,-385.7421875,-1000.0,120.60546875
190.4296875,891.6015625,-1000.0,97.16796875
77.1484375,999.51171875,-1000.0,-60.05859375
-174.31640625,142.08984375,-1000.0,-111.328125
-223.6328125,-1000.0,-1000.0,-45.8984375
-93.26171875,-800.78125,-1000.0,20.5078125
-24.90234375,602.05078125,-1000.0,-33.203125
-295.8984375,999.51171875,-1000.0,-151.3671875
-873.046875,-171.38671875,-1000.0,-143.5546875
-1000.0,-1000.0,-1000.0,-87.40234375
-979.98046875,-1000.0,-1000.0,-43.9453125
-1000.0,-213.8671875,-1000.0,86.42578125
-1000.0,999.51171875,-1000.0,127.44140625
-1000.0,291.50390625,-1000.0,15.13671875
-1000.0,-1000.0,-1000.0,16.11328125
-1000.0,-1000.0,-1000.0,99.609375
-1000.0,141.11328125,-1000.0,135.7421875
-1000.0,999.51171875,-1000.0,20.99609375
-1000.0,520.99609375,-1000.0,-131.34765625
-1000.0,-797.36328125,-1000.0,-84.9609375
-1000.0,-1000.0,-1000.0,-15.13671875
-1000.0,-229.98046875,-1000.0,-30.76171875
-1000.0,999.51171875,-1000.0,-80.56640625
-1000.0,653.80859375,-1000.0,-111.81640625
-1000.0,-729.98046875,-986.328125,-69.82421875
-994.140625,-1000.0,-1000.0,-42.96875
-1000.0,-171.38671875,-1000.0,22.4609375
-964.35546875,971.6796875,-630.37109375,57.12890625
-719.23828125,999.51171875,-813.4765625,-7.32421875
-434.08203125,-45.41015625,-989.74609375,-36.62109375
-128.90625,-1000.0,-1000.0,-13.671875
226.5625,279.78515625,-621.58203125,83.984375
327.63671875,999.51171875,981.4453125,128.90625
-265.625,945.80078125,195.3125,28.3203125
-488.28125,-181.15234375,-1000.0,-6.8359375
81.54296875,-1000.0,-1000.0,42.48046875
664.55078125,-163.57421875,-487.79296875,81.54296875
713.8671875,979.98046875,999.51171875,102.05078125
71.2890625,999.51171875,430.6640625,15.13671875
-134.765625,159.66796875,-941.40625,-75.1953125
219.7265625,-1000.0,-1000.0,-57.6171875
683.10546875,-361.328125,-347.65625,-31.73828125
999.51171875,967.28515625,986.328125,-33.69140625
805.17578125,999.51171875,933.10546875,-47.8515625
-563.4765625,-96.19140625,-344.23828125,-70.3125
-1000.0,-1000.0,-1000.0,-74.70703125
-927.24609375,-1000.0,-300.29296875,-83.0078125
-299.8046875,106.4453125,933.10546875,-50.78125
-355.95703125,999.51171875,999.51171875,-23.4375
-1000.0,100.09765625,59.5703125,-82.03125
-993.65234375,-1000.0,-1000.0,-84.47265625
-985.3515625,-1000.0,-333.49609375,-65.91796875
-1000.0,-18.06640625,928.22265625,-92.28515625
-1000.0,999.51171875,999.51171875,-138.671875
-1000.0,800.29296875,208.984375,-142.08984375
-985.83984375,-520.01953125,-1000.0,-99.12109375
-1000.0,-1000.0,-534.66796875,-92.7734375
-904.296875,-19.04296875,811.03515625,-39.55078125
-374.0234375,999.51171875,999.51171875,-13.18359375
76.171875,753.90625,162.109375,-106.93359375
443.359375,-669.921875,-1000.0,-124.51171875
884.27734375,-1000.0,-976.5625,-94.23828125
975.09765625,327.1484375,244.62890625,-92.7734375
953.125,999.51171875,999.51171875,-106.93359375
967.28515625,999.51171875,119.140625,-145.99609375
965.8203125,-160.64453125,-1000.0,-145.99609375
965.33203125,-780.76171875,-1000.0,-106.4453125
968.26171875,801.26953125,-189.94140625,-81.54296875
954.58984375,999.51171875,999.51171875,-95.703125
946.2890625,982.91015625,117.67578125,-120.1171875
999.51171875,-47.8515625,-1000.0,-101.07421875
277.34375,-1000.0,-1000.0,-90.8203125
-287.109375,-422.36328125,-448.73046875,-100.09765625
766.11328125,999.51171875,999.51171875,-99.12109375
234.375,656.73828125,167.48046875,-89.84375
-1000.0,-751.953125,-1000.0,-90.33203125
-1000.0,-1000.0,-1000.0,-82.03125
-837.40234375,-485.83984375,-846.19140625,-27.34375
-139.6484375,818.359375,706.0546875,-22.4609375
465.33203125,999.51171875,266.6015625,-87.890625
720.21484375,139.16015625,-1000.0,-99.12109375
911.62109375,-1000.0,-1000.0,-84.47265625
954.1015625,-448.73046875,-952.1484375,-87.40234375
999.51171875,999.51171875,559.5703125,-60.05859375
-236.328125,877.9296875,365.72265625,-41.015625
-1000.0,-522.94921875,-1000.0,-63.4765625
-790.0390625,-1000.0,-1000.0,-37.109375
-942.3828125,-979.00390625,-964.35546875,29.296875
-1000.0,116.69921875,473.14453125,67.3828125
-836.42578125,999.51171875,761.71875,23.4375
-403.3203125,787.59765625,-771.484375,9.27734375
-159.66796875,-743.1640625,-1000.0,-4.8828125
271.97265625,-716.796875,-881.8359375,-15.13671875
849.609375,812.5,434.5703125,12.20703125
979.98046875,999.51171875,999.51171875,-45.8984375
880.37109375,246.58203125,-354.4921875,-50.78125
788.57421875,-1000.0,-1000.0,-34.1796875
868.65234375,-957.51953125,-850.5859375,3.90625
-17.578125,339.84375,378.90625,50.29296875
-1000.0,999.51171875,999.51171875,28.80859375
-967.7734375,193.84765625,86.42578125,-29.78515625
-989.2578125,-1000.0,-1000.0,-77.63671875
-967.28515625,-1000.0,-878.41796875,-72.265625
24.90234375,152.83203125,391.11328125,-41.015625
-122.55859375,999.51171875,999.51171875,-19.04296875
-585.44921875,928.7109375,195.3125,-17.578125
432.12890625,-263.671875,-1000.0,-2.44140625
609.86328125,-1000.0,-924.8046875,35.64453125
676.26953125,-65.4296875,321.77734375,-42.96875
767.578125,996.58203125,999.51171875,-94.7265625
706.54296875,999.51171875,453.61328125,-89.84375
967.7734375,184.5703125,-955.078125,-121.58203125
952.63671875,-1000.0,-941.40625,-117.67578125
915.0390625,-246.09375,429.19921875,-31.25
423.828125,999.51171875,999.51171875,-14.16015625
-685.05859375,852.5390625,923.828125,6.34765625
-1000.0,-450.68359375,-412.59765625,-6.34765625
-954.58984375,-1000.0,-961.9140625,-37.59765625
-1000.0,-254.39453125,593.75,-43.9453125
-1000.0,964.84375,991.2109375,-49.31640625
-1000.0,999.51171875,999.51171875,-60.05859375
-973.6328125,-58.59375,56.640625,-83.0078125
-1000.0,-1000.0,-669.921875,-67.87109375
-808.10546875,-304.6875,834.9609375,-55.17578125
34.66796875,993.65234375,999.51171875,-59.08203125
756.34765625,971.19140625,905.76171875,-60.05859375
964.35546875,928.22265625,979.4921875,-34.66796875
952.1484375,976.5625,965.8203125,50.29296875
965.8203125,966.796875,965.8203125,114.74609375
953.61328125,903.3203125,966.30859375,168.45703125
981.93359375,999.51171875,966.30859375,51.26953125
955.078125,256.34765625,965.8203125,-105.46875
711.9140625,-1000.0,966.30859375,-35.64453125
869.140625,-635.7421875,966.30859375,0.48828125
999.51171875,733.88671875,965.8203125,27.83203125
947.75390625,999.51171875,966.30859375,116.69921875
970.21484375,627.44140625,966.30859375,177.734375
965.33203125,-940.91796875,965.8203125,225.09765625
965.33203125,-287.59765625,966.30859375,270.99609375
965.8203125,999.51171875,965.8203125,267.578125
966.30859375,905.2734375,965.8203125,279.78515625
902.83203125,931.640625,966.30859375,205.56640625
999.51171875,999.51171875,966.30859375,185.05859375
186.03515625,-354.98046875,966.30859375,256.34765625
-1000.0,-359.375,966.30859375,276.3671875
-983.88671875,999.51171875,965.8203125,217.7734375
-973.14453125,440.4296875,965.8203125,94.7265625
-1000.0,-916.9921875,966.30859375,21.97265625
-1000.0,-1000.0,965.8203125,-54.19921875
-981.93359375,-122.0703125,965.8203125,-127.9296875
-1000.0,989.2578125,966.30859375,-161.1328125
-924.8046875,999.51171875,965.8203125,-193.359375
-700.68359375,70.80078125,965.8203125,-195.80078125
-228.515625,-1000.0,966.30859375,-153.3203125
-356.93359375,-209.47265625,966.30859375,-112.3046875
-739.2578125,999.51171875,965.8203125,-109.86328125
-607.421875,943.359375,966.30859375,-200.1953125
-978.515625,-282.2265625,966.30859375,-275.87890625
-985.3515625,-1000.0,966.30859375,-265.625
-977.05078125,-422.36328125,966.30859375,-255.37109375
-1000.0,854.4921875,966.30859375,-236.81640625
-998.046875,999.51171875,966.30859375,-238.28125
-1000.0,211.42578125,965.8203125,-256.34765625
-990.72265625,-1000.0,966.30859375,-246.58203125
-1000.0,-451.66015625,971.19140625,-222.65625
-890.625,899.90234375,931.15234375,-208.984375
-829.58984375,999.51171875,999.51171875,-210.9375
-1000.0,189.453125,694.82421875,-185.546875
-1000.0,-1000.0,394.04296875,-159.1796875
-997.0703125,-594.7265625,953.61328125,-71.77734375
-998.046875,784.1796875,932.12890625,-38.57421875
-977.05078125,999.51171875,999.51171875,-122.0703125
-997.55859375,225.09765625,600.5859375,-131.8359375
-993.1640625,-1000.0,-451.171875,-122.0703125
-986.81640625,-196.2890625,518.5546875,-61.5234375
-953.61328125,999.51171875,999.51171875,9.27734375
-348.14453125,999.51171875,999.51171875,-7.32421875
622.55859375,831.0546875,631.34765625,-45.41015625
999.51171875,-744.140625,-790.0390625,-42.48046875
767.578125,-359.86328125,126.953125,11.23046875
714.84375,999.51171875,999.51171875,48.33984375
152.34375,999.51171875,946.2890625,34.1796875
-845.703125,235.83984375,902.34375,-36.62109375
-1000.0,-982.421875,-114.2578125,-58.10546875
-960.44921875,-1000.0,299.31640625,-4.8828125
-985.83984375,-111.81640625,999.51171875,25.87890625
-1000.0,999.51171875,913.57421875,23.92578125
95.21484375,999.51171875,999.51171875,-22.4609375
702.1484375,-55.6640625,454.58984375,-60.05859375
687.5,-1000.0,506.34765625,-27.83203125
999.51171875,142.578125,999.51171875,10.7421875
-353.02734375,999.51171875,929.6875,1.46484375
-1000.0,566.40625,999.51171875,-48.828125
-123.53515625,-798.33984375,557.12890625,-47.8515625
500.9765625,-1000.0,526.85546875,-67.3828125
681.640625,103.02734375,999.51171875,-98.14453125
997.55859375,999.51171875,920.8984375,-84.9609375
870.60546875,999.51171875,999.51171875,-91.30859375
-321.77734375,16.11328125,476.07421875,-82.51953125
-1000.0,-1000.0,290.52734375,-34.1796875
-954.1015625,-745.1171875,999.51171875,26.3671875
-997.0703125,808.10546875,897.4609375,27.34375
-1000.0,744.62890625,999.51171875,-25.87890625
-1000.0,-754.39453125,91.796875,-62.98828125
-1000.0,-1000.0,-521.97265625,-31.73828125
-1000.0,-726.07421875,926.7578125,20.01953125
-1000.0,606.4453125,947.265625,41.9921875
-986.81640625,999.51171875,999.51171875,8.7890625
-965.8203125,-97.65625,173.828125,-38.57421875
-1000.0,-1000.0,-882.32421875,-59.5703125
-14.16015625,-169.43359375,572.265625,14.16015625
999.51171875,982.421875,999.51171875,12.20703125
876.953125,999.51171875,999.51171875,-63.4765625
942.87109375,216.796875,256.34765625,-76.66015625
946.77734375,-1000.0,-1000.0,-67.87109375
999.51171875,-668.45703125,73.2421875,14.6484375
756.34765625,713.37890625,999.51171875,49.31640625
439.94140625,999.51171875,999.51171875,-13.671875
999.51171875,169.43359375,358.3984375,-62.98828125
641.6015625,-1000.0,-1000.0,-75.1953125
183.59375,-1000.0,-136.71875,-39.0625
873.53515625,21.97265625,999.51171875,-74.70703125
-277.34375,999.51171875,999.51171875,-158.69140625
-1000.0,150.390625,475.09765625,-149.4140625
-1000.0,-1000.0,-1000.0,-125.0
-363.76953125,-1000.0,-195.80078125,-66.89453125
763.671875,134.27734375,999.51171875,-12.20703125
330.56640625,999.51171875,973.6328125,-0.48828125
-257.8125,138.18359375,871.58203125,-31.73828125
650.87890625,-1000.0,-636.71875,-57.6171875
999.51171875,-1000.0,-294.43359375,-1.953125
904.78515625,-45.41015625,999.51171875,39.0625
974.12109375,999.51171875,909.66796875,14.16015625
965.33203125,958.49609375,999.51171875,-15.625
965.33203125,-225.5859375,-213.8671875,-23.92578125
965.33203125,-1000.0,-316.89453125,-14.6484375
978.515625,-219.23828125,999.51171875,34.66796875
885.25390625,999.51171875,926.26953125,38.0859375
999.51171875,742.1875,999.51171875,-15.625
306.15234375,-626.953125,-259.27734375,-65.4296875
-163.57421875,-1000.0,-519.53125,-26.3671875
533.69140625,-181.640625,995.60546875,40.0390625
340.33203125,999.51171875,934.5703125,33.203125
943.359375,999.51171875,999.51171875,-13.671875
991.2109375,-167.48046875,-60.546875,-53.7109375
942.3828125,-1000.0,-883.30078125,-18.06640625
968.75,-187.98828125,651.85546875,37.59765625
965.33203125,999.51171875,999.51171875,34.66796875
965.33203125,999.51171875,999.51171875,-0.9765625
965.33203125,-152.34375,56.640625,-45.41015625
965.8203125,-1000.0,-1000.0,-50.78125
965.33203125,-458.0078125,287.59765625,9.765625
965.33203125,844.7265625,999.51171875,32.71484375
965.33203125,999.51171875,999.51171875,-2.9296875
979.4921875,187.98828125,177.734375,-39.0625
902.34375,-1000.0,-1000.0,-49.8046875
999.51171875,-758.7890625,-3.90625,9.765625
686.03515625,611.328125,999.51171875,47.8515625
-733.3984375,999.51171875,999.51171875,0.48828125
-1000.0,128.41796875,227.5390625,-53.22265625
-898.4375,-1000.0,-1000.0,-62.01171875
-1000.0,-1000.0,-181.640625,-25.87890625
-527.83203125,-148.92578125,999.51171875,-3.90625
-40.0390625,999.51171875,999.51171875,-54.6875
-187.01171875,183.59375,221.19140625,-122.55859375
653.80859375,-1000.0,-1000.0,-110.83984375
999.51171875,-1000.0,-460.44921875,-48.33984375
930.6640625,153.80859375,877.44140625,16.11328125
957.51953125,999.51171875,999.51171875,-19.04296875
999.51171875,178.7109375,125.48828125,-86.42578125
743.65234375,-991.69921875,-1000.0,-86.42578125
744.62890625,-1000.0,-960.9375,-55.17578125
999.51171875,-240.72265625,263.18359375,-5.37109375
890.625,999.51171875,999.51171875,-7.8125
999.51171875,254.39453125,88.8671875,-83.49609375
752.44140625,-999.51171875,-1000.0,-103.02734375
-838.8671875,-1000.0,-1000.0,-47.8515625
-410.64453125,-301.26953125,-88.8671875,-8.30078125
978.02734375,999.51171875,999.51171875,-9.765625
840.33203125,555.17578125,163.57421875,-75.68359375
887.20703125,-833.984375,-1000.0,-100.09765625
-87.890625,-1000.0,-1000.0,-52.24609375
-1000.0,-328.61328125,-187.5,-4.39453125
-922.36328125,999.51171875,999.51171875,7.8125
-1000.0,454.58984375,282.2265625,-52.24609375
-630.37109375,-926.26953125,-985.3515625,-84.47265625
500.48828125,-1000.0,-1000.0,-42.96875
943.359375,-246.09375,-221.6796875,6.8359375
999.51171875,999.51171875,999.51171875,0.0
149.90234375,433.10546875,500.9765625,-65.91796875
-1000.0,-931.640625,-850.09765625,-114.2578125
-979.98046875,-1000.0,-1000.0,-87.890625
-977.5390625,-865.234375,-195.80078125,-22.4609375
-996.58203125,381.34765625,999.51171875,-6.34765625
-991.69921875,999.51171875,907.2265625,-43.45703125
-986.81640625,167.96875,-344.7265625,-84.47265625
-593.26171875,-1000.0,-1000.0,-77.63671875
369.140625,-332.03125,-203.125,-32.71484375
992.1875,936.5234375,999.51171875,-3.41796875
939.453125,999.51171875,999.51171875,-8.30078125
992.67578125,435.05859375,-129.39453125,-75.68359375
721.19140625,-1000.0,-1000.0,-99.609375
821.2890625,-720.21484375,-303.22265625,-45.41015625
568.359375,724.12109375,933.59375,63.4765625
404.78515625,999.51171875,999.51171875,-198.2421875
750.0,190.4296875,137.20703125,-726.07421875
736.328125,-1000.0,-1000.0,-581.54296875
994.62890625,-235.83984375,-287.109375,-269.04296875
917.48046875,975.5859375,959.47265625,-147.4609375
999.51171875,999.51171875,999.51171875,-75.68359375
558.59375,412.59765625,219.7265625,-66.89453125
-527.83203125,-893.06640625,-1000.0,-36.1328125
-908.203125,-1000.0,-439.94140625,11.23046875
-1000.0,-215.8203125,876.46484375,62.01171875
-437.01171875,999.51171875,999.51171875,89.84375
191.40625,822.265625,328.125,29.78515625
-803.7109375,-556.640625,-1000.0,10.25390625
-1000.0,-1000.0,-651.85546875,99.609375
-939.94140625,-7.8125,721.19140625,134.765625
-1000.0,999.51171875,999.51171875,69.3359375
-852.05078125,503.41796875,417.96875,6.34765625
-654.78515625,-854.98046875,-1000.0,-29.296875
-639.16015625,-1000.0,-856.4453125,63.4765625
-102.05078125,-115.72265625,510.7421875,65.91796875
-704.1015625,999.51171875,999.51171875,-48.828125
-1000.0,704.58984375,566.40625,-56.15234375
-242.1875,-645.99609375,-792.96875,-48.33984375
778.3203125,-1000.0,-1000.0,21.97265625
780.2734375,-178.7109375,163.0859375,156.73828125
-597.65625,998.046875,999.51171875,155.76171875
-1000.0,999.51171875,761.71875,8.30078125
-1000.0,-110.3515625,-522.94921875,-54.6875
-572.265625,-1000.0,-1000.0,2.44140625
688.96484375,-342.28515625,-94.23828125,81.0546875
102.5390625,999.51171875,999.51171875,83.984375
-971.19140625,694.82421875,832.51953125,7.32421875
-507.8125,-684.5703125,-451.171875,-40.0390625
169.43359375,-1000.0,-1000.0,19.04296875
971.6796875,-521.97265625,-166.015625,160.64453125
140.625,895.01953125,999.51171875,213.37890625
-1000.0,964.35546875,999.51171875,145.99609375
-1000.0,-385.7421875,-145.99609375,57.12890625
-667.48046875,-1000.0,-1000.0,66.40625
370.1171875,-361.81640625,-174.31640625,163.0859375
310.05859375,910.64453125,991.2109375,194.3359375
-668.45703125,999.51171875,999.51171875,126.46484375
-1000.0,-45.8984375,93.26171875,1.46484375
-1000.0,-1000.0,-1000.0,-22.94921875
-353.02734375,-1000.0,-344.7265625,9.27734375
818.359375,55.6640625,930.17578125,-47.36328125
912.109375,999.51171875,999.51171875,-127.9296875
992.1875,210.9375,176.7578125,-184.08203125
241.2109375,-987.79296875,-1000.0,-201.171875
-1000.0,-1000.0,-589.84375,-128.41796875
-436.03515625,-215.33203125,765.625,-71.2890625
999.51171875,999.51171875,999.51171875,-110.3515625
407.2265625,164.55078125,160.15625,-191.89453125
104.4921875,-1000.0,-1000.0,-191.40625
999.51171875,-1000.0,-760.25390625,-133.7890625
605.46875,-266.6015625,570.80078125,-100.5859375
-349.12109375,999.51171875,999.51171875,-76.66015625
575.68359375,381.8359375,182.12890625,-148.92578125
882.8125,-949.70703125,-1000.0,-200.68359375
850.09765625,-1000.0,-965.8203125,-140.625
997.55859375,-233.88671875,262.20703125,-66.89453125
952.63671875,999.51171875,999.51171875,-71.2890625
968.75,757.32421875,240.72265625,-155.2734375
965.8203125,-582.03125,-980.46875,-178.22265625
965.33203125,-1000.0,-1000.0,-126.953125
965.33203125,-688.4765625,-102.5390625,-58.10546875
965.33203125,760.7421875,999.51171875,-46.875
965.33203125,929.6875,370.1171875,-115.234375
965.33203125,-514.6484375,-945.80078125,-144.04296875
965.8203125,-1000.0,-1000.0,-113.76953125
965.8203125,-255.859375,-67.3828125,-28.80859375
970.21484375,926.7578125,999.51171875,31.25
898.4375,999.51171875,878.90625,-41.015625
999.51171875,213.8671875,-403.80859375,-137.6953125
283.203125,-1000.0,-1000.0,-116.69921875
-1000.0,-754.39453125,91.30859375,-36.1328125
-1000.0,664.55078125,999.51171875,-25.87890625
-965.33203125,999.51171875,999.51171875,-64.453125
-1000.0,-95.21484375,-7.8125,-115.72265625
-1000.0,-1000.0,-1000.0,-104.4921875
-1000.0,-861.328125,-118.65234375,-26.3671875
-1000.0,409.66796875,999.51171875,-3.41796875
-1000.0,999.51171875,999.51171875,-55.17578125
-1000.0,162.59765625,105.46875,-119.62890625
-1000.0,-1000.0,-1000.0,-115.72265625
-1000.0,-746.58203125,-188.96484375,-70.3125
-1000.0,624.51171875,993.65234375,-14.6484375
-1000.0,999.51171875,999.51171875,-17.578125
-958.984375,171.875,213.37890625,-107.421875
-1000.0,-1000.0,-1000.0,-135.7421875
-724.12109375,-876.46484375,-208.0078125,-68.359375
337.40234375,438.4765625,988.28125,-16.11328125
-46.38671875,999.51171875,999.51171875,-46.875
-1000.0,236.81640625,407.2265625,-93.26171875
-1000.0,-960.9375,-1000.0,-124.0234375
-852.05078125,-1000.0,-264.6484375,-73.2421875
-875.9765625,-198.73046875,999.51171875,-0.48828125
-858.3984375,999.51171875,999.51171875,-22.4609375
-874.0234375,629.39453125,772.4609375,-70.3125
-1000.0,-755.859375,-792.48046875,-97.16796875
-990.234375,-1000.0,-422.36328125,-18.06640625
-996.09375,-176.7578125,999.51171875,20.99609375
-1000.0,999.51171875,954.58984375,-26.85546875
-1000.0,246.09375,997.55859375,-81.0546875
-999.51171875,-1000.0,-429.6875,-120.60546875
-1000.0,-1000.0,-491.69921875,-69.3359375
-998.53515625,-228.515625,999.51171875,8.30078125
-995.60546875,999.51171875,917.48046875,8.30078125
-994.140625,914.0625,999.51171875,-55.17578125
-990.72265625,-377.44140625,-53.7109375,-95.703125
-988.76953125,-1000.0,-440.91796875,-82.51953125
-1000.0,-149.90234375,999.51171875,-37.59765625
-911.1328125,999.51171875,916.9921875,-22.94921875
-852.5390625,980.46875,999.51171875,-78.61328125
-1000.0,-233.88671875,129.39453125,-106.93359375
-980.95703125,-1000.0,-426.7578125,-76.66015625
-996.09375,-144.53125,975.09765625,-79.58984375
-971.19140625,961.42578125,990.234375,-126.953125
-227.5390625,999.51171875,966.796875,-93.26171875
634.765625,545.8984375,831.54296875,-97.65625
-111.328125,-1000.0,654.78515625,-81.54296875
-1000.0,-457.03125,963.8671875,-6.34765625
-747.0703125,948.73046875,980.95703125,-22.94921875
-73.2421875,999.51171875,952.63671875,-71.77734375
-558.10546875,209.47265625,968.26171875,-86.42578125
-1000.0,-1000.0,966.30859375,-57.6171875
74.70703125,-205.078125,965.8203125,16.11328125
956.0546875,999.51171875,966.30859375,21.484375
894.53125,942.87109375,966.30859375,-32.71484375
919.921875,938.96484375,965.8203125,-80.56640625
961.42578125,972.65625,966.30859375,-85.9375
969.7265625,966.30859375,965.8203125,-25.390625
962.890625,967.28515625,965.8203125,7.8125
965.8203125,960.9375,966.30859375,-24.4140625
965.33203125,981.93359375,966.30859375,-83.49609375
965.8203125,909.1796875,965.8203125,-81.0546875
963.8671875,887.20703125,966.30859375,-28.3203125
967.28515625,971.6796875,966.30859375,49.31640625
971.19140625,909.1796875,966.30859375,7.32421875
870.1171875,999.51171875,965.8203125,-14.16015625
999.51171875,170.8984375,966.30859375,-235.3515625
222.16796875,-1000.0,966.30859375,-882.8125
-324.70703125,-147.94921875,965.8203125,-1000.0
970.21484375,999.51171875,966.30859375,-973.14453125
999.51171875,938.4765625,966.30859375,-1000.0
924.8046875,942.3828125,966.30859375,-1000.0
905.76171875,971.6796875,966.30859375,-1000.0
999.51171875,966.30859375,966.30859375,-1000.0
342.7734375,966.30859375,966.30859375,-1000.0
-1000.0,966.30859375,966.30859375,-1000.0
-220.21484375,966.30859375,966.30859375,-1000.0
999.51171875,966.30859375,966.30859375,-1000.0
946.2890625,966.30859375,966.30859375,-1000.0
937.5,966.30859375,966.30859375,-998.046875
972.65625,966.30859375,965.8203125,-998.53515625
965.33203125,966.30859375,965.8203125,-991.69921875
963.8671875,966.30859375,966.30859375,-860.83984375
967.7734375,966.30859375,966.30859375,-694.82421875
964.35546875,966.30859375,965.8203125,-738.76953125
932.6171875,966.30859375,966.30859375,-780.2734375
954.58984375,966.30859375,966.30859375,-705.078125
970.703125,966.30859375,966.30859375,-705.56640625
962.890625,966.30859375,966.30859375,-659.66796875
966.30859375,966.30859375,966.30859375,-480.46875
971.19140625,966.30859375,966.30859375,-513.671875
923.33984375,966.30859375,966.30859375,-574.21875
999.51171875,966.30859375,966.30859375,-534.1796875
712.890625,965.8203125,966.30859375,-392.578125
-621.09375,966.30859375,966.30859375,58.59375
-470.703125,966.30859375,966.30859375,174.8046875
897.4609375,965.8203125,966.30859375,147.94921875
856.93359375,966.30859375,966.30859375,463.8671875
809.5703125,966.30859375,966.30859375,681.640625
998.046875,966.30859375,966.30859375,800.29296875
969.7265625,966.30859375,966.30859375,856.4453125
901.3671875,966.30859375,966.30859375,835.9375
999.51171875,966.30859375,966.30859375,850.09765625
431.15234375,966.30859375,966.30859375,922.8515625
-464.84375,966.30859375,965.8203125,925.29296875
-210.44921875,966.30859375,966.30859375,802.734375
-853.02734375,966.30859375,966.30859375,859.375
-173.33984375,966.30859375,966.30859375,374.51171875
999.51171875,965.8203125,966.30859375,-437.5
949.70703125,966.30859375,966.30859375,-541.015625
942.3828125,966.30859375,965.8203125,-782.2265625
985.3515625,966.30859375,965.8203125,-600.5859375
909.1796875,966.30859375,965.8203125,-379.39453125
999.51171875,966.30859375,966.30859375,-502.44140625
812.98828125,965.8203125,965.8203125,-113.28125
-576.66015625,966.30859375,966.30859375,256.8359375
-1000.0,966.30859375,966.30859375,393.5546875
-278.3203125,966.30859375,965.8203125,348.14453125
730.95703125,966.30859375,966.30859375,291.9921875
985.83984375,966.30859375,966.30859375,196.77734375
936.5234375,966.30859375,966.30859375,-27.83203125
967.7734375,966.30859375,965.8203125,164.0625
966.30859375,965.8203125,965.8203125,354.98046875
965.33203125,966.30859375,966.30859375,468.26171875
965.33203125,966.30859375,966.30859375,605.46875
965.33203125,965.8203125,965.8203125,650.87890625
965.33203125,966.30859375,965.8203125,612.79296875
965.33203125,965.8203125,965.8203125,564.94140625
965.33203125,966.30859375,965.8203125,536.1328125
965.33203125,965.8203125,965.8203125,557.6171875
965.33203125,966.30859375,965.8203125,555.17578125
965.33203125,966.30859375,965.8203125,512.6953125
965.33203125,965.8203125,966.30859375,467.7734375
965.33203125,966.30859375,966.30859375,433.10546875
965.33203125,979.00390625,975.5859375,458.0078125
964.84375,892.08984375,895.01953125,473.6328125
965.33203125,999.51171875,999.51171875,414.0625
965.33203125,520.01953125,444.3359375,339.35546875
965.8203125,-1000.0,-1000.0,314.94140625
965.8203125,-804.19921875,-238.28125,355.46875
965.33203125,649.4140625,999.51171875,367.67578125
965.33203125,999.51171875,999.51171875,308.59375
965.33203125,138.671875,47.8515625,257.32421875
965.8203125,-1000.0,-1000.0,252.44140625
965.33203125,-334.47265625,-197.75390625,292.48046875
965.33203125,999.51171875,999.51171875,326.66015625
965.33203125,893.06640625,915.0390625,305.6640625
965.33203125,999.51171875,999.51171875,225.09765625
965.33203125,96.6796875,-25.390625,171.38671875
965.33203125,-464.84375,-89.84375,231.4453125
965.33203125,981.4453125,999.51171875,256.34765625
965.33203125,927.24609375,893.06640625,198.73046875
965.33203125,999.51171875,999.51171875,148.4375
965.33203125,212.890625,4.8828125,103.02734375
965.33203125,-668.45703125,-222.65625,67.3828125
965.33203125,797.8515625,999.51171875,70.3125
965.33203125,999.51171875,932.6171875,62.5
965.33203125,999.51171875,999.51171875,167.48046875
965.33203125,257.32421875,-198.2421875,-172.8515625
965.8203125,-1000.0,-1000.0,-971.19140625
964.84375,-229.00390625,446.2890625,-766.11328125
961.42578125,999.51171875,999.51171875,-378.90625
980.46875,999.51171875,240.72265625,-333.49609375
881.34765625,-224.12109375,-937.98828125,-137.6953125
865.72265625,-1000.0,-1000.0,7.32421875
966.30859375,-941.40625,-497.0703125,130.859375
977.5390625,-999.0234375,321.2890625,185.546875
856.4453125,-1000.0,-769.53125,145.5078125
585.44921875,-1000.0,-1000.0,104.4921875
500.48828125,-1000.0,-935.546875,111.81640625
744.62890625,-1000.0,-1000.0,166.50390625
847.16796875,-1000.0,-1000.0,187.5
618.65234375,-1000.0,-1000.0,140.625
439.94140625,-1000.0,-1000.0,73.73046875
458.0078125,-1000.0,-1000.0,187.01171875
766.6015625,-1000.0,-1000.0,-337.890625
904.78515625,-1000.0,-1000.0,-1000.0
684.08203125,-1000.0,-1000.0,-785.64453125
478.02734375,-1000.0,-1000.0,-448.73046875
409.1796875,-1000.0,-1000.0,-774.4140625
692.3828125,-1000.0,-1000.0,-481.93359375
920.41015625,-1000.0,-1000.0,204.1015625
687.98828125,-1000.0,-1000.0,75.1953125
448.73046875,-1000.0,-1000.0,-37.109375
400.390625,-1000.0,-1000.0,144.53125
630.37109375,-1000.0,-1000.0,257.8125
837.40234375,-1000.0,-1000.0,257.32421875
667.96875,-1000.0,-1000.0,241.69921875
425.78125,-1000.0,-1000.0,239.2578125
319.82421875,-1000.0,-977.5390625,255.859375
519.53125,-1000.0,-1000.0,292.48046875
756.34765625,-1000.0,-843.75,232.91015625
599.12109375,-1000.0,-672.8515625,125.9765625
349.12109375,-1000.0,-956.0546875,132.32421875
229.98046875,-927.734375,-1000.0,138.671875
358.3984375,-1000.0,-930.6640625,85.44921875
673.33984375,-491.69921875,296.875,104.00390625
643.06640625,999.51171875,999.51171875,142.578125
288.57421875,184.5703125,333.49609375,175.29296875
3.41796875,-1000.0,-1000.0,126.46484375
115.234375,-1000.0,-750.0,56.640625
513.671875,-368.1640625,661.1328125,99.12109375
527.34375,999.51171875,999.51171875,124.51171875
199.70703125,179.19921875,849.12109375,123.046875
-83.49609375,-1000.0,-527.34375,161.1328125
-17.578125,-1000.0,-886.71875,183.59375
437.01171875,-406.73828125,687.01171875,72.265625
509.765625,923.33984375,976.5625,-57.12890625
234.86328125,999.51171875,999.51171875,-35.15625
1.953125,-103.515625,107.91015625,48.33984375
11.23046875,-1000.0,-492.1875,136.23046875
522.94921875,-149.4140625,946.77734375,205.56640625
729.4921875,978.02734375,999.51171875,147.4609375
394.53125,999.51171875,917.96875,-459.47265625
113.28125,281.73828125,972.16796875,-720.703125
-13.671875,-1000.0,937.01171875,-242.67578125
203.61328125,-45.41015625,970.21484375,-322.265625
304.6875,999.51171875,920.8984375,-558.10546875
66.89453125,999.51171875,999.51171875,-369.62890625
-70.3125,458.49609375,845.703125,-52.24609375
-167.96875,-1000.0,-118.65234375,-20.01953125
195.3125,-393.06640625,511.23046875,-80.56640625
484.375,945.3125,999.51171875,-28.3203125
258.30078125,999.51171875,995.1171875,5.37109375
56.15234375,494.140625,757.8125,-2.9296875
-89.84375,-1000.0,-808.10546875,79.58984375
222.16796875,-423.33984375,-118.65234375,210.9375
508.7890625,945.3125,999.51171875,204.58984375
190.91796875,999.51171875,957.03125,165.52734375
-131.8359375,673.33984375,902.34375,173.828125
-330.56640625,-901.85546875,-613.76953125,108.3984375
-77.63671875,-671.875,-263.18359375,105.95703125
337.890625,884.765625,999.51171875,132.8125
190.4296875,952.1484375,914.55078125,110.83984375
-37.59765625,999.51171875,999.51171875,35.64453125
-227.5390625,-148.4375,-278.3203125,-2.44140625
-38.57421875,-643.06640625,-308.59375,22.4609375
389.6484375,946.2890625,999.51171875,41.015625
239.74609375,999.51171875,894.04296875,36.62109375
-17.578125,912.109375,999.51171875,19.04296875
-160.15625,980.95703125,78.61328125,15.13671875
-10.7421875,966.30859375,-210.9375,212.890625
332.03125,968.26171875,999.51171875,-88.8671875
217.7734375,889.16015625,909.66796875,-597.16796875
-15.13671875,999.51171875,999.51171875,-367.1875
-197.75390625,172.8515625,293.9453125,-228.515625
-136.71875,-963.37890625,-62.01171875,-174.31640625
294.921875,501.46484375,999.51171875,-205.56640625
282.2265625,999.51171875,909.66796875,-256.8359375
26.3671875,999.51171875,999.51171875,-161.62109375
-131.8359375,457.03125,395.99609375,-194.82421875
-225.09765625,-1000.0,-245.1171875,-239.2578125
162.109375,73.73046875,912.59765625,-224.609375
262.20703125,999.51171875,970.703125,-300.78125
-18.06640625,999.51171875,999.51171875,-457.51953125
-239.2578125,218.26171875,215.33203125,-469.23828125
-325.68359375,-1000.0,-1000.0,-385.25390625
115.72265625,-242.1875,-166.9921875,-410.15625
352.05078125,993.65234375,999.51171875,-249.0234375
19.04296875,999.51171875,699.21875,-136.23046875
-258.30078125,151.3671875,-623.53515625,-313.96484375
-309.5703125,-1000.0,-1000.0,-367.67578125
39.55078125,-638.18359375,-855.95703125,-421.875
381.34765625,739.74609375,641.11328125,-417.96875
122.55859375,999.51171875,342.28515625,-499.0234375
-221.6796875,147.94921875,-1000.0,-500.0
-249.51171875,-1000.0,-983.88671875,-321.77734375
37.59765625,-1000.0,-968.75,-14.16015625
304.19921875,310.05859375,-1000.0,312.98828125
129.8828125,999.51171875,-1000.0,425.29296875
-165.52734375,-437.5,-1000.0,303.7109375
-253.41796875,-1000.0,-1000.0,163.0859375
-6.8359375,-934.5703125,-1000.0,252.44140625
264.6484375,-1000.0,-1000.0,110.83984375
146.484375,-1000.0,-1000.0,-176.7578125
-69.3359375,-1000.0,-1000.0,-144.04296875
-180.6640625,-1000.0,-1000.0,-175.29296875
-11.71875,-1000.0,-1000.0,-234.375
294.43359375,-1000.0,-1000.0,9.765625
217.28515625,-1000.0,-1000.0,33.203125
-1.953125,-1000.0,-1000.0,-176.7578125
-156.73828125,-1000.0,-1000.0,-237.3046875
-97.16796875,-1000.0,-1000.0,-262.6953125
200.68359375,-1000.0,-1000.0,-375.48828125
179.19921875,-1000.0,-1000.0,-303.22265625
-36.62109375,-1000.0,-1000.0,-216.796875
-173.828125,-937.5,-1000.0,-95.703125
-85.44921875,-1000.0,-1000.0,102.5390625
285.15625,-283.203125,-1000.0,254.39453125
310.05859375,999.51171875,-1000.0,368.65234375
-0.9765625,165.52734375,-1000.0,363.76953125
-208.49609375,-1000.0,-1000.0,376.953125
-148.92578125,-976.5625,-1000.0,441.89453125
187.01171875,-973.6328125,-1000.0,545.8984375
250.48828125,-1000.0,-1000.0,575.1953125
3.41796875,-1000.0,-1000.0,511.71875
-205.56640625,-1000.0,-1000.0,446.2890625
-250.0,-1000.0,-1000.0,389.6484375
49.31640625,-1000.0,-1000.0,390.625
204.1015625,-1000.0,-1000.0,391.6015625
-36.1328125,-1000.0,-1000.0,360.3515625
-285.64453125,-1000.0,-1000.0,277.34375
-370.60546875,-1000.0,-1000.0,246.58203125
-91.796875,-1000.0,-1000.0,334.47265625
129.39453125,-1000.0,-1000.0,388.18359375
-66.89453125,-1000.0,-1000.0,215.33203125
-270.99609375,-1000.0,-1000.0,120.60546875
-303.22265625,-1000.0,-1000.0,145.01953125
-19.53125,-1000.0,-1000.0,181.640625
236.328125,-1000.0,-1000.0,267.08984375
62.5,-1000.0,-1000.0,217.28515625
-176.26953125,-1000.0,-1000.0,103.02734375
-297.8515625,-1000.0,-1000.0,90.33203125
-74.21875,-1000.0,-1000.0,208.49609375
207.51953125,-1000.0,-1000.0,285.64453125
65.4296875,-1000.0,-1000.0,281.73828125
-168.45703125,-1000.0,-1000.0,257.8125
-354.4921875,-1000.0,-1000.0,176.26953125
-173.828125,-1000.0,-1000.0,163.57421875
202.63671875,-1000.0,-1000.0,285.15625
127.9296875,-1000.0,-1000.0,357.421875
-123.046875,-1000.0,-1000.0,221.6796875
-315.91796875,-1000.0,-1000.0,85.9375
-214.35546875,-1000.0,-1000.0,118.65234375
195.80078125,-1000.0,-1000.0,238.76953125
208.49609375,-1000.0,-999.0234375,282.71484375
-47.36328125,-1000.0,-1000.0,96.19140625
-274.90234375,-1000.0,-960.44921875,-103.515625
-250.0,-1000.0,-1000.0,-84.9609375
169.43359375,-1000.0,-991.2109375,32.71484375
326.66015625,-1000.0,372.55859375,91.30859375
20.99609375,-1000.0,7.32421875,110.83984375
-301.26953125,-1000.0,-1000.0,27.83203125
-314.94140625,-1000.0,-1000.0,-112.3046875
69.82421875,-1000.0,-750.48828125,-137.20703125
317.3828125,-1000.0,847.65625,-141.11328125
62.01171875,-1000.0,288.57421875,-111.81640625
-255.37109375,-1000.0,-1000.0,-128.90625
-267.08984375,-1000.0,-1000.0,-99.609375
153.3203125,-1000.0,-486.81640625,62.01171875
395.5078125,-1000.0,999.51171875,59.08203125
121.09375,-1000.0,558.59375,-119.140625
-212.890625,-961.9140625,-839.84375,-283.69140625
-276.85546875,-1000.0,-1000.0,-270.01953125
142.578125,-993.1640625,-505.37109375,-82.51953125
501.953125,271.484375,878.41796875,38.57421875
294.43359375,999.51171875,987.3046875,29.78515625
-130.37109375,131.34765625,-295.8984375,-49.8046875
-302.734375,-1000.0,-1000.0,-66.89453125
95.21484375,-711.9140625,-499.0234375,59.5703125
479.4921875,640.625,809.08203125,186.03515625
295.41015625,999.51171875,999.51171875,159.66796875
-77.1484375,360.83984375,101.07421875,56.640625
-309.08203125,-1000.0,-1000.0,-15.625
11.23046875,-719.7265625,-577.1484375,42.96875
455.56640625,710.44921875,764.6484375,-106.93359375
331.54296875,999.51171875,999.51171875,-405.76171875
-35.64453125,836.42578125,249.51171875,-540.0390625
-287.109375,-514.16015625,-1000.0,-493.65234375
-61.03515625,-1000.0,-784.1796875,-396.97265625
388.18359375,339.35546875,566.40625,-416.9921875
341.30859375,999.51171875,999.51171875,-461.9140625
-12.6953125,846.19140625,304.19921875,-451.171875
-317.87109375,-446.77734375,-1000.0,-397.4609375
-193.84765625,-1000.0,-983.88671875,-331.54296875
300.78125,181.640625,280.76171875,-303.22265625
321.77734375,999.51171875,999.51171875,-336.42578125
-27.83203125,999.51171875,490.72265625,-356.4453125
-317.87109375,27.34375,-855.46875,-322.75390625
-258.30078125,-1000.0,-1000.0,-207.51953125
270.5078125,95.21484375,161.62109375,65.91796875
367.67578125,999.51171875,999.51171875,98.6328125
24.90234375,999.51171875,871.09375,-67.87109375
-321.2890625,241.69921875,-358.88671875,-123.046875
-377.44140625,-1000.0,-1000.0,-126.953125
126.46484375,-210.9375,-17.08984375,-45.8984375
313.96484375,999.51171875,999.51171875,16.6015625
15.13671875,999.51171875,970.21484375,-10.7421875
-329.58984375,114.2578125,-168.45703125,-75.68359375
-427.734375,-1000.0,-1000.0,-16.6015625
62.98828125,-310.546875,-146.484375,266.11328125
314.94140625,999.51171875,999.51171875,484.86328125
-44.921875,937.5,999.51171875,392.08984375
-453.61328125,-332.51953125,-109.86328125,78.61328125
-565.91796875,-1000.0,-1000.0,-82.51953125
-140.13671875,-738.76953125,-177.734375,-111.81640625
175.29296875,576.66015625,980.46875,-218.75
-59.5703125,999.51171875,999.51171875,-226.07421875
-403.80859375,-12.20703125,188.96484375,-184.08203125
-576.66015625,-1000.0,-1000.0,-155.76171875
-217.7734375,-963.37890625,-187.01171875,-83.984375
153.80859375,282.71484375,993.65234375,12.6953125
-41.50390625,999.51171875,999.51171875,-50.29296875
-428.7109375,69.3359375,606.4453125,-272.4609375
-698.2421875,-1000.0,-968.75,-403.80859375
-372.0703125,-778.80859375,-244.140625,-394.53125
71.77734375,535.64453125,999.51171875,-292.48046875
-77.1484375,999.51171875,931.640625,-233.3984375
-370.1171875,464.35546875,941.40625,-304.6875
-538.57421875,-986.328125,972.16796875,-384.765625
-307.12890625,-877.9296875,966.30859375,-292.96875
107.91015625,589.84375,965.8203125,-81.0546875
42.48046875,999.51171875,966.30859375,-2.44140625
-258.30078125,999.51171875,966.30859375,25.87890625
-465.8203125,-141.6015625,966.30859375,-8.7890625
-310.05859375,-928.22265625,966.30859375,36.62109375
127.44140625,682.12890625,966.30859375,240.72265625
120.1171875,985.83984375,966.30859375,282.71484375
-144.04296875,999.51171875,966.30859375,146.97265625
-314.453125,506.34765625,966.30859375,103.02734375
-186.03515625,-402.83203125,966.30859375,179.19921875
255.859375,793.45703125,966.30859375,239.74609375
309.08203125,999.51171875,966.30859375,172.36328125
39.55078125,895.5078125,966.30859375,121.09375
-183.59375,981.4453125,966.30859375,-346.6796875
-116.2109375,966.30859375,966.30859375,-518.06640625
286.1328125,966.30859375,965.8203125,-542.96875
388.671875,966.30859375,966.30859375,-792.96875
147.4609375,966.30859375,966.30859375,-412.59765625
-74.21875,966.30859375,965.8203125,-206.54296875
-62.01171875,966.30859375,965.8203125,-170.8984375
274.90234375,966.30859375,965.8203125,-34.66796875
427.24609375,966.30859375,965.8203125,-20.5078125
167.96875,966.30859375,966.30859375,-110.83984375
-95.21484375,966.30859375,966.30859375,-169.43359375
-118.1640625,966.30859375,966.30859375,-170.8984375
224.12109375,965.8203125,965.8203125,-116.2109375
437.98828125,965.8203125,965.8203125,-106.93359375
205.078125,965.8203125,966.30859375,-155.76171875
-62.5,966.30859375,966.30859375,-163.0859375
-125.9765625,966.30859375,965.8203125,-216.796875
189.453125,965.8203125,965.8203125,-282.2265625
448.73046875,965.8203125,965.8203125,-278.80859375
280.2734375,966.30859375,966.30859375,-192.3828125
14.16015625,965.8203125,966.30859375,-106.4453125
-96.6796875,966.30859375,966.30859375,-63.4765625
187.98828125,966.30859375,965.8203125,47.36328125
494.62890625,966.30859375,965.8203125,137.6953125
357.91015625,966.30859375,966.30859375,149.90234375
70.80078125,966.30859375,966.30859375,-0.9765625
-75.68359375,966.30859375,966.30859375,-181.640625
147.4609375,966.30859375,966.30859375,-88.8671875
495.1171875,966.30859375,966.30859375,-47.36328125
394.53125,965.8203125,966.30859375,-172.8515625
69.3359375,965.8203125,965.8203125,-133.30078125
-114.74609375,965.8203125,965.8203125,-109.375
51.26953125,966.30859375,965.8203125,-115.234375
386.23046875,965.8203125,966.30859375,-66.89453125
318.359375,965.8203125,966.30859375,-2.9296875
-15.13671875,966.30859375,966.30859375,-4.39453125
-243.65234375,966.30859375,966.30859375,-76.66015625
-140.625,965.8203125,965.8203125,-108.88671875
197.265625,966.30859375,971.6796875,-144.04296875
193.359375,966.30859375,941.40625,-175.78125
-117.1875,966.30859375,999.51171875,-216.796875
-369.140625,966.30859375,815.4296875,-229.98046875
-334.9609375,966.30859375,621.09375,-166.015625
15.13671875,968.75,903.3203125,-172.36328125
66.40625,898.92578125,999.51171875,-200.68359375
-218.26171875,999.51171875,772.94921875,-239.74609375
-539.0625,271.97265625,-505.859375,-295.41015625
-594.7265625,-1000.0,-1000.0,-276.3671875
-126.953125,-24.4140625,-502.44140625,-199.21875
129.8828125,999.51171875,999.51171875,-225.09765625
-183.10546875,999.51171875,188.4765625,-327.1484375
-504.8828125,231.4453125,-1000.0,-321.77734375
-507.32421875,-1000.0,-1000.0,-274.4140625
-48.828125,-153.80859375,-852.05078125,-228.02734375
315.91796875,999.51171875,620.1171875,-193.84765625
121.09375,936.03515625,882.32421875,-168.45703125
-174.8046875,942.87109375,-602.05078125,-164.0625
-187.98828125,971.6796875,-1000.0,-150.87890625
247.0703125,966.30859375,-128.41796875,-90.8203125
610.3515625,966.30859375,999.51171875,-67.3828125
503.90625,966.30859375,945.3125,-109.86328125
409.1796875,965.8203125,941.40625,-153.3203125
669.921875,966.30859375,972.16796875,-158.69140625
956.0546875,966.30859375,966.30859375,-115.72265625
962.40234375,966.30859375,966.30859375,-77.1484375
955.078125,966.30859375,965.8203125,-94.7265625
728.515625,965.8203125,966.30859375,-93.26171875
490.234375,965.8203125,966.30859375,-81.54296875
704.1015625,966.30859375,966.30859375,-103.02734375
980.46875,965.8203125,966.30859375,-66.40625
895.99609375,965.8203125,965.8203125,-8.7890625
554.19921875,966.30859375,966.30859375,18.5546875
274.4140625,965.8203125,965.8203125,82.03125
365.234375,966.30859375,965.8203125,112.79296875
557.12890625,966.30859375,966.30859375,51.26953125
416.50390625,965.8203125,966.30859375,-3.41796875
104.4921875,965.8203125,966.30859375,14.6484375
-107.91015625,966.30859375,965.8203125,47.36328125
19.53125,966.30859375,965.8203125,59.5703125
364.74609375,966.30859375,966.30859375,120.1171875
358.3984375,966.30859375,966.30859375,86.9140625
63.96484375,966.30859375,965.8203125,-1.953125
-144.04296875,965.8203125,965.8203125,0.48828125
-86.9140625,966.30859375,965.8203125,58.59375
246.09375,966.30859375,966.30859375,149.4140625
282.71484375,965.8203125,966.30859375,171.875
-27.83203125,965.8203125,965.8203125,137.20703125
-269.53125,966.30859375,966.30859375,137.20703125
-257.8125,966.30859375,966.30859375,120.60546875
93.26171875,965.8203125,966.30859375,161.62109375
197.265625,965.8203125,965.8203125,174.31640625
-121.58203125,965.8203125,966.30859375,1.953125
-387.6953125,965.8203125,966.30859375,-148.92578125
-384.27734375,966.30859375,966.30859375,-93.75
-43.9453125,966.796875,978.02734375,76.66015625
83.49609375,903.80859375,893.5546875,163.57421875
-167.96875,999.51171875,999.51171875,121.58203125
-484.86328125,248.046875,521.97265625,49.31640625
-656.25,-1000.0,-1000.0,29.296875
-269.53125,-827.1484375,-239.2578125,136.71875
61.5234375,761.71875,999.51171875,184.5703125
-212.890625,776.3671875,999.51171875,62.01171875
-630.37109375,-807.12890625,16.11328125,-45.8984375
-672.8515625,-1000.0,-1000.0,-106.93359375
-755.37109375,-937.5,-1000.0,-80.56640625
-1000.0,-1000.0,240.234375,11.71875
-1000.0,-1000.0,776.3671875,69.3359375
-976.5625,-1000.0,-822.75390625,39.55078125
-1000.0,-1000.0,-1000.0,-42.48046875
-847.16796875,-1000.0,-938.4765625,-92.28515625
-435.546875,-1000.0,-1000.0,-69.82421875
-688.4765625,-1000.0,-1000.0,-105.95703125
-1000.0,-1000.0,-1000.0,-147.94921875
-990.72265625,-1000.0,-1000.0,-136.71875
-994.140625,-1000.0,-1000.0,-48.33984375
-1000.0,-1000.0,-1000.0,25.87890625
-1000.0,-1000.0,-1000.0,83.49609375
-1000.0,-1000.0,-1000.0,70.80078125
-1000.0,-1000.0,-1000.0,2.44140625
-1000.0,-1000.0,-1000.0,104.4921875
-1000.0,-1000.0,-1000.0,205.56640625
-1000.0,-1000.0,-1000.0,185.546875
-999.51171875,-1000.0,-1000.0,79.1015625
-1000.0,-1000.0,-1000.0,2.44140625
-1000.0,-1000.0,-1000.0,15.625
-978.02734375,-1000.0,-1000.0,124.0234375
-990.234375,-1000.0,-1000.0,176.26953125
-1000.0,-1000.0,-1000.0,87.40234375
-998.53515625,-1000.0,-1000.0,-56.15234375
-1000.0,-1000.0,-1000.0,-35.15625
-1000.0,-1000.0,-1000.0,87.40234375
-1000.0,-1000.0,-1000.0,138.18359375
-1000.0,-1000.0,-1000.0,103.515625
-973.14453125,-1000.0,-1000.0,74.21875
-1000.0,-1000.0,-1000.0,109.375
-716.30859375,-1000.0,-1000.0,147.94921875
109.375,-1000.0,-1000.0,87.890625
43.45703125,-1000.0,-1000.0,-60.05859375
-840.33203125,-1000.0,-1000.0,-86.9140625
-1000.0,-1000.0,-1000.0,-26.85546875
-989.74609375,-1000.0,-1000.0,65.4296875
-479.4921875,-1000.0,-1000.0,190.91796875
-208.49609375,-1000.0,-1000.0,129.8828125
-907.2265625,-928.22265625,-991.2109375,-26.3671875
-888.18359375,-1000.0,-944.82421875,-17.578125
150.87890625,-396.484375,-1000.0,115.234375
951.171875,923.828125,-65.4296875,123.53515625
961.42578125,995.1171875,999.51171875,-120.1171875
892.578125,963.37890625,-320.80078125,-279.78515625
779.296875,-516.6015625,-1000.0,-219.7265625
838.8671875,-373.046875,-1000.0,27.83203125
958.49609375,999.51171875,53.22265625,115.234375
999.51171875,999.51171875,999.51171875,28.3203125
836.9140625,669.921875,-35.15625,-30.2734375
601.07421875,-671.38671875,-1000.0,-74.21875
846.19140625,-1000.0,-1000.0,-2.9296875
928.7109375,-166.015625,-226.5625,124.0234375
999.51171875,999.51171875,999.51171875,146.484375
297.36328125,250.9765625,136.23046875,42.48046875
-898.92578125,-998.53515625,-1000.0,-25.87890625
-520.99609375,-1000.0,-1000.0,14.16015625
-257.8125,-254.8828125,-224.609375,133.30078125
-630.37109375,999.51171875,999.51171875,-265.625
-931.640625,734.86328125,499.51171875,-629.39453125
-1000.0,-638.671875,-866.2109375,-401.3671875
-988.76953125,-1000.0,-1000.0,-212.890625
-1000.0,-164.0625,-146.97265625,-54.19921875
-1000.0,973.14453125,999.51171875,-5.37109375
-1000.0,999.51171875,577.63671875,-33.203125
-1000.0,88.8671875,-753.90625,-43.9453125
-1000.0,-1000.0,-1000.0,-13.671875
-1000.0,-243.1640625,-487.79296875,27.34375
-1000.0,979.4921875,999.51171875,-117.67578125
-1000.0,999.51171875,235.83984375,-295.41015625
-1000.0,134.765625,-1000.0,-314.453125
-1000.0,-1000.0,-925.29296875,-304.19921875
-1000.0,-863.28125,-1000.0,-296.875
-1000.0,453.61328125,65.4296875,-274.90234375
-1000.0,999.51171875,315.4296875,-269.04296875
-1000.0,173.33984375,-1000.0,-211.9140625
-1000.0,-1000.0,-1000.0,-181.640625
-1000.0,-326.66015625,-871.58203125,-214.84375
-1000.0,999.51171875,467.7734375,-211.42578125
-1000.0,918.9453125,999.51171875,-191.40625
-1000.0,999.51171875,-225.09765625,-141.6015625
-1000.0,-121.58203125,-1000.0,-75.68359375
-1000.0,-317.87109375,-919.921875,34.1796875
-1000.0,999.51171875,462.40234375,158.69140625
-1000.0,999.51171875,959.9609375,124.51171875
-1000.0,540.0390625,-584.47265625,9.27734375
-1000.0,-1000.0,-1000.0,-29.78515625
-1000.0,-613.76953125,-1000.0,83.0078125
-1000.0,898.4375,-200.1953125,-67.3828125
-1000.0,952.1484375,999.51171875,-750.9765625
-1000.0,999.51171875,-198.73046875,-1000.0
-1000.0,-183.10546875,-1000.0,-987.3046875
-1000.0,-580.078125,-1000.0,-713.37890625
-1000.0,986.328125,-186.5234375,-174.8046875
-1000.0,940.4296875,999.51171875,37.59765625
-1000.0,999.51171875,-36.62109375,45.8984375
-1000.0,232.91015625,-1000.0,8.30078125
-1000.0,-1000.0,-954.1015625,74.70703125
-1000.0,-261.71875,-987.3046875,144.04296875
-1000.0,999.51171875,-1000.0,44.921875
-1000.0,148.92578125,-1000.0,-53.22265625
-1000.0,-1000.0,-1000.0,-67.3828125
-1000.0,-975.09765625,-1000.0,-6.34765625
-1000.0,-974.12109375,-1000.0,168.45703125
-1000.0,-1000.0,-1000.0,266.6015625
-1000.0,-1000.0,-1000.0,196.2890625
-1000.0,-1000.0,-1000.0,126.46484375
-1000.0,-1000.0,-1000.0,154.78515625
-1000.0,-1000.0,-1000.0,83.49609375
-1000.0,-1000.0,-1000.0,23.4375
-1000.0,-1000.0,-1000.0,39.55078125
-947.75390625,-1000.0,-1000.0,7.8125
-1000.0,-1000.0,-1000.0,8.7890625
-525.390625,-1000.0,-1000.0,187.5
-155.76171875,-1000.0,-1000.0,320.80078125
-1000.0,-1000.0,-1000.0,125.9765625
-1000.0,-1000.0,-1000.0,58.10546875
-968.75,-1000.0,-1000.0,135.7421875
-1000.0,-1000.0,-1000.0,209.9609375
-1000.0,-1000.0,-1000.0,297.36328125
-1000.0,-1000.0,-1000.0,259.27734375
-1000.0,-1000.0,-1000.0,205.56640625
-1000.0,-1000.0,-1000.0,199.21875
-1000.0,-1000.0,-1000.0,282.71484375
-1000.0,-1000.0,-1000.0,301.7578125
-1000.0,-1000.0,-1000.0,209.47265625
-1000.0,-1000.0,-1000.0,148.4375
-1000.0,-1000.0,-1000.0,88.8671875
-1000.0,-1000.0,-1000.0,66.89453125
-1000.0,-1000.0,-1000.0,147.4609375
-1000.0,-1000.0,-1000.0,183.10546875
-1000.0,-1000.0,-1000.0,126.46484375
-999.51171875,-1000.0,-1000.0,-20.99609375
-1000.0,-1000.0,-1000.0,-149.4140625
-1000.0,-1000.0,-1000.0,-146.97265625
-982.91015625,-1000.0,-1000.0,-152.34375
-991.2109375,-1000.0,-1000.0,-232.91015625
-1000.0,-924.31640625,-1000.0,-228.515625
-994.140625,-1000.0,-1000.0,-163.57421875
-969.23828125,-574.21875,-1000.0,-233.3984375
-984.86328125,999.51171875,-1000.0,-307.6171875
-1000.0,10.7421875,-1000.0,-298.828125
-950.1953125,-1000.0,-1000.0,-291.9921875
-881.34765625,-941.40625,-1000.0,-223.6328125
-989.2578125,-988.76953125,-1000.0,-15.625
-1000.0,-1000.0,-1000.0,102.05078125
-972.65625,-1000.0,-1000.0,41.9921875
-991.2109375,-928.22265625,-998.046875,-35.15625
-968.75,-1000.0,-1000.0,39.55078125
125.0,-448.2421875,-1000.0,270.5078125
881.8359375,948.73046875,-937.01171875,348.6328125
915.0390625,999.51171875,-969.23828125,251.953125
178.22265625,-224.12109375,-994.140625,133.30078125
-1000.0,-1000.0,-964.35546875,134.27734375
-984.375,-433.10546875,-1000.0,272.4609375
-1000.0,984.86328125,189.94140625,361.328125
-764.16015625,877.9296875,299.31640625,279.78515625
-926.26953125,-521.484375,-1000.0,134.27734375
-367.1875,-1000.0,-963.37890625,78.125
999.51171875,-937.01171875,-1000.0,181.15234375
917.48046875,291.9921875,257.8125,224.609375
770.5078125,999.51171875,614.74609375,76.66015625
516.11328125,-136.71875,-948.2421875,3.41796875
324.21875,-1000.0,-1000.0,34.1796875
959.47265625,-1000.0,-1000.0,-76.66015625
457.03125,-27.83203125,141.11328125,-142.08984375
606.93359375,999.51171875,908.69140625,-134.765625
230.95703125,134.765625,-649.90234375,-214.84375
-83.0078125,-1000.0,-1000.0,-160.64453125
999.51171875,-1000.0,-1000.0,-37.59765625
934.5703125,-240.72265625,-145.99609375,41.50390625
999.51171875,999.51171875,985.3515625,10.25390625
566.89453125,82.03125,-462.40234375,-191.89453125
-12.20703125,-1000.0,-1000.0,-357.421875
588.37890625,-1000.0,-1000.0,-379.39453125
853.515625,-265.13671875,-254.39453125,-241.69921875
23.92578125,999.51171875,999.51171875,-145.5078125
-940.4296875,88.37890625,-0.48828125,-202.63671875
-714.35546875,-1000.0,-1000.0,-196.2890625
646.97265625,-1000.0,-1000.0,-87.890625
988.76953125,-266.6015625,-215.8203125,-41.50390625
974.12109375,999.51171875,999.51171875,-170.41015625
833.984375,616.69921875,264.16015625,-261.71875
12.6953125,-774.4140625,-1000.0,-271.97265625
399.90234375,-1000.0,-1000.0,-171.38671875
999.51171875,-169.43359375,21.484375,17.578125
160.15625,973.6328125,999.51171875,67.3828125
94.23828125,999.51171875,990.234375,-16.11328125
999.51171875,63.96484375,-257.32421875,-77.1484375
364.74609375,-1000.0,-1000.0,-42.48046875
-366.2109375,-213.37890625,343.26171875,41.9921875
-287.59765625,999.51171875,999.51171875,106.93359375
-802.734375,989.74609375,999.51171875,80.078125
-923.828125,-220.703125,167.96875,-3.41796875
332.51953125,-1000.0,-1000.0,3.90625
955.078125,-168.45703125,242.1875,141.11328125
356.4453125,988.28125,999.51171875,176.7578125
417.96875,999.51171875,999.51171875,105.95703125
876.46484375,4.39453125,242.1875,30.2734375
999.51171875,-1000.0,-1000.0,26.3671875
337.890625,-1000.0,-135.7421875,212.890625
446.77734375,-162.109375,999.51171875,354.4921875
999.51171875,999.51171875,999.51171875,267.578125
944.3359375,11.71875,222.16796875,97.65625
960.9375,-1000.0,-1000.0,50.78125
966.30859375,-959.9609375,-419.921875,157.2265625
965.33203125,-983.88671875,917.96875,213.8671875
965.33203125,-1000.0,999.51171875,129.8828125
965.33203125,-1000.0,113.76953125,37.109375
965.8203125,-1000.0,-1000.0,20.5078125
965.8203125,-1000.0,-670.8984375,154.296875
965.33203125,-1000.0,677.734375,244.62890625
978.515625,-1000.0,999.51171875,199.70703125
899.4140625,-1000.0,163.0859375,101.5625
999.51171875,-1000.0,-1000.0,34.1796875
604.4921875,-1000.0,-853.515625,64.94140625
-803.22265625,-1000.0,452.63671875,126.953125
-1000.0,-1000.0,999.51171875,88.37890625
-943.84765625,-1000.0,139.6484375,0.48828125
-1000.0,-1000.0,-1000.0,-31.73828125
-1000.0,-1000.0,-1000.0,-37.109375
-1000.0,-1000.0,-70.3125,16.6015625
-1000.0,-1000.0,999.51171875,-4.8828125
-1000.0,-1000.0,192.3828125,-101.07421875
-1000.0,-1000.0,-1000.0,-142.08984375
-990.72265625,-1000.0,-1000.0,-87.890625
-1000.0,-1000.0,-218.75,40.52734375
-920.41015625,-1000.0,999.51171875,65.4296875
-860.3515625,-1000.0,193.84765625,-52.24609375
-1000.0,-1000.0,-1000.0,-114.2578125
-974.609375,-1000.0,-1000.0,-40.0390625
-1000.0,-1000.0,-589.35546875,40.0390625
-806.640625,-1000.0,965.33203125,94.23828125
-218.75,-1000.0,166.50390625,14.6484375
-697.265625,-1000.0,-1000.0,-218.26171875
-1000.0,-1000.0,-961.42578125,-203.61328125
-971.19140625,-1000.0,-978.02734375,-99.12109375
-974.609375,-1000.0,-1000.0,-154.296875
-1000.0,-1000.0,-1000.0,-191.40625
-940.91796875,-1000.0,-1000.0,-248.046875
219.23828125,-1000.0,-1000.0,-258.7890625
999.51171875,-1000.0,-1000.0,-187.5
926.26953125,-1000.0,-1000.0,-142.578125
954.58984375,-1000.0,-1000.0,-156.25
972.65625,-1000.0,-1000.0,-202.63671875
964.35546875,-1000.0,-1000.0,-172.36328125
841.796875,-1000.0,-1000.0,-90.33203125
999.51171875,-1000.0,-1000.0,-45.41015625
543.45703125,-1000.0,-1000.0,-118.65234375
379.8828125,-1000.0,-1000.0,-250.0
999.51171875,-1000.0,-1000.0,-225.5859375
967.7734375,-1000.0,-1000.0,-154.78515625
951.66015625,-1000.0,-1000.0,-83.984375
956.54296875,-1000.0,-1000.0,-75.1953125
999.51171875,-1000.0,-1000.0,-143.06640625
784.1796875,-1000.0,-1000.0,-106.93359375
737.3046875,-1000.0,-1000.0,6.34765625
963.37890625,-1000.0,-1000.0,-37.59765625
954.1015625,-1000.0,-1000.0,-94.23828125
868.1640625,-1000.0,-1000.0,-123.53515625
915.52734375,-1000.0,-1000.0,-133.30078125
984.86328125,-1000.0,-1000.0,-61.03515625
958.0078125,-1000.0,-1000.0,31.25
965.8203125,-1000.0,-1000.0,39.0625
960.9375,-1000.0,-1000.0,-54.6875
986.328125,-1000.0,-1000.0,-99.609375
772.94921875,-1000.0,-1000.0,-25.87890625
985.3515625,-1000.0,-1000.0,54.6875
179.19921875,-1000.0,-1000.0,39.0625
-817.3828125,-1000.0,-1000.0,-46.38671875
449.21875,-1000.0,-1000.0,-66.40625
999.51171875,-1000.0,-1000.0,8.7890625
918.9453125,-1000.0,-1000.0,81.54296875
963.37890625,-1000.0,-1000.0,73.73046875
967.7734375,-1000.0,-1000.0,47.36328125
965.33203125,-1000.0,-1000.0,-32.2265625
965.8203125,-1000.0,-1000.0,-5.859375
965.8203125,-1000.0,-1000.0,95.703125
965.33203125,-1000.0,-1000.0,114.2578125
965.8203125,-1000.0,-1000.0,60.05859375
965.8203125,-1000.0,-929.19921875,20.5078125
965.8203125,-916.9921875,-1000.0,56.15234375
966.796875,-1000.0,-407.2265625,119.140625
937.01171875,-549.31640625,895.5078125,153.80859375
999.51171875,532.71484375,999.51171875,110.83984375
573.2421875,-655.2734375,177.734375,22.94921875
433.10546875,-1000.0,-1000.0,-17.08984375
999.51171875,-1000.0,-25.87890625,70.3125
922.36328125,-129.8828125,999.51171875,104.00390625
442.3828125,999.51171875,925.29296875,39.0625
-236.328125,-372.55859375,949.21875,-12.6953125
-854.00390625,-1000.0,903.3203125,-49.8046875
-1000.0,-1000.0,944.3359375,10.7421875
-577.1484375,-293.45703125,976.5625,107.421875
181.15234375,999.51171875,960.9375,64.453125
622.55859375,531.73828125,967.7734375,-52.734375
975.09765625,-1000.0,965.8203125,-182.12890625
956.0546875,-744.62890625,966.30859375,-121.09375
914.55078125,687.01171875,965.8203125,-59.5703125
999.51171875,999.51171875,965.8203125,-224.609375
214.35546875,562.5,966.30859375,-308.59375
-984.375,-854.4921875,966.30859375,-253.90625
-982.91015625,-1000.0,966.30859375,-155.76171875
-945.3125,395.01953125,966.30859375,-17.08984375
-1000.0,999.51171875,966.30859375,-57.12890625
-1000.0,999.51171875,966.30859375,-202.63671875
-1000.0,-34.66796875,965.8203125,-197.265625
-1000.0,-969.23828125,966.30859375,-109.375
-1000.0,578.125,966.30859375,9.27734375
-1000.0,999.51171875,966.30859375,18.06640625
-1000.0,896.97265625,966.30859375,-37.59765625
-1000.0,977.5390625,966.30859375,-65.4296875
-1000.0,966.30859375,966.30859375,-44.921875
-1000.0,966.30859375,966.30859375,34.1796875
-1000.0,966.30859375,965.8203125,23.4375
-997.55859375,966.30859375,965.8203125,-17.08984375
-947.75390625,966.30859375,966.30859375,-24.4140625
-1000.0,966.30859375,966.30859375,-19.04296875
-231.93359375,966.30859375,966.30859375,19.04296875
994.140625,966.30859375,966.30859375,66.89453125
119.62890625,966.30859375,966.30859375,17.08984375
-1000.0,966.30859375,966.30859375,-125.48828125
-775.390625,966.30859375,965.8203125,-85.9375
-673.33984375,966.30859375,966.30859375,17.578125
-819.82421875,966.30859375,966.30859375,-10.7421875
-880.859375,966.30859375,966.30859375,-13.671875
-1000.0,966.30859375,966.30859375,-41.50390625
-987.79296875,966.30859375,966.30859375,-71.2890625
-1000.0,966.30859375,966.30859375,-25.87890625
-1000.0,966.30859375,966.30859375,-15.625
-1000.0,966.30859375,966.30859375,-110.3515625
-1000.0,966.30859375,965.8203125,-194.82421875
-1000.0,966.30859375,965.8203125,-320.3125
-1000.0,966.30859375,966.30859375,-282.2265625
-989.74609375,966.30859375,965.8203125,44.921875
-996.09375,965.8203125,966.30859375,90.8203125
-1000.0,966.30859375,966.30859375,-13.18359375
-999.51171875,966.30859375,965.8203125,77.63671875
-1000.0,966.30859375,966.30859375,295.8984375
-1000.0,966.30859375,966.30859375,475.5859375
-1000.0,966.30859375,966.30859375,467.7734375
-1000.0,966.30859375,966.30859375,350.09765625
-1000.0,966.30859375,966.30859375,280.76171875
-1000.0,966.30859375,966.796875,151.3671875
-999.0234375,966.30859375,965.33203125,169.921875
-1000.0,966.30859375,902.34375,-25.87890625
-1000.0,966.30859375,999.51171875,-300.78125
-971.6796875,966.30859375,26.85546875,-153.3203125
-986.81640625,966.30859375,-340.33203125,15.625
-1000.0,966.30859375,999.51171875,250.0
-998.046875,966.30859375,979.98046875,297.36328125
-1000.0,966.30859375,937.98828125,225.5859375
-1000.0,966.30859375,939.94140625,208.49609375
-1000.0,966.30859375,921.38671875,272.94921875
-1000.0,966.30859375,972.65625,407.2265625
-1000.0,966.30859375,965.33203125,457.03125
-996.58203125,966.30859375,965.33203125,143.06640625
-947.265625,966.30859375,965.8203125,-126.46484375
-1000.0,966.30859375,965.8203125,1.46484375
-165.52734375,966.30859375,966.30859375,202.1484375
999.51171875,966.30859375,966.30859375,189.453125
930.17578125,966.30859375,966.30859375,65.91796875
947.265625,966.30859375,965.8203125,83.984375
969.23828125,966.30859375,966.30859375,172.8515625
966.30859375,966.30859375,966.30859375,305.17578125
965.33203125,965.8203125,965.8203125,344.7265625
965.33203125,966.30859375,965.8203125,256.34765625
965.33203125,966.30859375,965.8203125,173.828125
968.26171875,965.8203125,966.30859375,193.359375
951.171875,965.8203125,966.30859375,309.5703125
996.58203125,966.30859375,966.30859375,362.3046875
880.37109375,966.30859375,966.30859375,247.0703125
758.7890625,966.30859375,966.30859375,90.8203125
895.99609375,965.8203125,966.30859375,63.96484375
999.51171875,965.8203125,966.30859375,9.27734375
132.32421875,966.30859375,966.30859375,-318.84765625
-1000.0,966.30859375,965.8203125,-335.44921875
-1000.0,966.30859375,966.30859375,-207.51953125
-681.640625,965.8203125,966.30859375,-175.29296875
-651.3671875,966.30859375,965.8203125,-29.296875
-496.09375,966.30859375,966.30859375,85.9375
578.125,966.30859375,966.30859375,68.84765625
999.51171875,966.30859375,966.30859375,-83.0078125
364.2578125,965.8203125,966.30859375,-192.3828125
47.8515625,965.8203125,965.8203125,-168.45703125
816.89453125,966.30859375,965.8203125,-251.46484375
990.72265625,966.30859375,966.30859375,-298.33984375
947.75390625,966.30859375,966.30859375,-281.73828125
951.171875,966.30859375,966.30859375,-257.32421875
949.21875,965.8203125,966.30859375,-110.83984375
986.81640625,966.30859375,966.30859375,82.03125
230.95703125,966.30859375,966.30859375,104.00390625
-815.91796875,966.30859375,966.30859375,-14.16015625
-1000.0,966.30859375,966.30859375,-31.73828125
178.7109375,966.30859375,966.30859375,-9.765625
-52.24609375,967.7734375,966.30859375,-77.63671875
-1000.0,956.54296875,966.30859375,-114.74609375
-959.47265625,919.43359375,966.30859375,-181.640625
-47.8515625,999.51171875,966.30859375,-307.12890625
-400.390625,-109.375,967.28515625,-582.51953125
-744.62890625,-313.4765625,961.42578125,-632.8125
579.1015625,999.51171875,911.1328125,-551.26953125
58.10546875,999.51171875,999.51171875,-793.9453125
-659.66796875,74.70703125,170.41015625,-751.46484375
864.2578125,-1000.0,-1000.0,-652.83203125
302.734375,-423.828125,-331.54296875,-666.50390625
-1000.0,999.51171875,999.51171875,-574.21875
-689.94140625,862.79296875,267.08984375,-556.15234375
-760.7421875,-569.3359375,-1000.0,-612.3046875
-641.6015625,-1000.0,-990.234375,-520.01953125
453.125,-1000.0,-965.8203125,-211.42578125
999.51171875,38.57421875,-1000.0,41.50390625
306.640625,531.73828125,-1000.0,90.8203125
80.56640625,-1000.0,-1000.0,-113.76953125
992.1875,-1000.0,-1000.0,-373.53515625
991.2109375,-949.70703125,-1000.0,-246.58203125
920.8984375,-1000.0,-1000.0,-27.83203125
-324.21875,-1000.0,-1000.0,-202.1484375
-103.02734375,-1000.0,-1000.0,-406.73828125
999.51171875,-926.26953125,-919.921875,-483.88671875
944.82421875,-1000.0,-1000.0,-491.69921875
937.98828125,-627.44140625,-459.47265625,-291.9921875
987.3046875,997.0703125,666.015625,-147.4609375
844.23828125,151.85546875,-530.2734375,-219.23828125
779.296875,-1000.0,-1000.0,-373.046875
166.50390625,-1000.0,-873.53515625,-422.36328125
-646.97265625,-611.328125,291.015625,-462.40234375
180.6640625,914.0625,999.51171875,-490.72265625
928.22265625,874.0234375,789.0625,-458.49609375
917.48046875,-791.50390625,-730.95703125,-429.19921875
968.26171875,-833.984375,-421.38671875,-410.15625
941.40625,725.5859375,999.51171875,-322.265625
965.33203125,984.86328125,892.08984375,-256.8359375
897.4609375,999.51171875,999.51171875,-332.03125
-308.10546875,16.11328125,-0.48828125,-335.9375
-302.734375,-1000.0,-477.5390625,-102.05078125
999.51171875,352.05078125,991.69921875,-104.4921875
976.5625,999.51171875,925.78125,-230.95703125
929.19921875,999.51171875,999.51171875,-72.75390625
973.6328125,662.109375,122.55859375,128.41796875
965.8203125,-980.95703125,-814.453125,207.51953125
965.33203125,-286.62109375,684.08203125,206.0546875
965.33203125,999.51171875,999.51171875,255.37109375
965.33203125,999.51171875,999.51171875,211.9140625
965.33203125,92.7734375,185.546875,134.27734375
965.8203125,-1000.0,-1000.0,144.04296875
971.6796875,-528.3203125,207.03125,259.27734375
939.453125,871.09375,999.51171875,333.984375
950.1953125,999.51171875,999.51171875,257.8125
999.51171875,-144.04296875,164.55078125,140.13671875
-200.1953125,-1000.0,-1000.0,126.953125
-1000.0,-949.70703125,-385.7421875,225.5859375
-944.3359375,-993.1640625,999.51171875,259.765625
-998.046875,-1000.0,341.30859375,131.8359375
-1000.0,-1000.0,-1000.0,-10.7421875
-1000.0,-1000.0,-1000.0,-42.48046875
-1000.0,-1000.0,-960.44921875,-13.671875
-1000.0,-1000.0,-1000.0,0.0
-1000.0,-1000.0,-1000.0,-19.53125
-1000.0,-1000.0,-1000.0,-102.5390625
-1000.0,-1000.0,-1000.0,-173.828125
-1000.0,-1000.0,-1000.0,-161.1328125
-1000.0,-1000.0,-1000.0,-139.6484375
-1000.0,-1000.0,-1000.0,-149.90234375
-1000.0,-1000.0,-1000.0,-157.71484375
-1000.0,-1000.0,-1000.0,-177.734375
-1000.0,-1000.0,-1000.0,-98.14453125
-1000.0,-1000.0,-1000.0,-2.44140625
-1000.0,-1000.0,-1000.0,-92.7734375
-1000.0,-1000.0,-1000.0,-167.96875
-1000.0,-1000.0,-1000.0,-118.1640625
-1000.0,-1000.0,-1000.0,-97.16796875
-1000.0,-1000.0,-1000.0,-65.91796875
-1000.0,-1000.0,-1000.0,10.7421875
-1000.0,-1000.0,-1000.0,-8.7890625
-1000.0,-1000.0,-1000.0,-53.22265625
-1000.0,-937.01171875,-1000.0,-60.546875
-1000.0,-1000.0,-1000.0,1.46484375
-1000.0,-81.0546875,-1000.0,58.59375
-1000.0,258.30078125,-1000.0,-14.16015625
-1000.0,-1000.0,-1000.0,-85.9375
-974.609375,-1000.0,-1000.0,-26.3671875
-997.0703125,-966.30859375,-1000.0,43.45703125
-975.09765625,-1000.0,-1000.0,47.8515625
156.73828125,-1000.0,-1000.0,67.87109375
999.51171875,-927.734375,-1000.0,34.1796875
919.43359375,-1000.0,-1000.0,-23.92578125
933.10546875,-656.73828125,-1000.0,-39.55078125
986.81640625,930.17578125,-1000.0,-60.546875
814.94140625,755.859375,-1000.0,-46.875
41.015625,-783.203125,-1000.0,-23.4375
-519.53125,-1000.0,-1000.0,46.38671875
-746.09375,-1000.0,-1000.0,188.96484375
-732.91015625,-288.57421875,-1000.0,254.39453125
-199.70703125,999.51171875,-1000.0,219.7265625
181.640625,238.76953125,-1000.0,147.94921875
332.03125,-1000.0,-1000.0,74.21875
130.859375,-633.7890625,-1000.0,177.24609375
-642.08984375,744.140625,-1000.0,284.66796875
-986.328125,999.51171875,-1000.0,230.95703125
-1000.0,255.37109375,-1000.0,166.50390625
-351.07421875,-1000.0,-922.8515625,78.61328125
837.40234375,-234.86328125,-1000.0,73.73046875
999.51171875,999.51171875,-258.30078125,158.203125
648.92578125,935.05859375,395.5078125,176.7578125
599.609375,999.51171875,-943.84765625,150.390625
991.2109375,-395.99609375,-1000.0,140.13671875
965.33203125,-897.4609375,-1000.0,198.2421875
957.51953125,711.42578125,-168.45703125,219.23828125
966.30859375,991.2109375,999.51171875,217.28515625
965.33203125,999.51171875,106.4453125,206.0546875
965.8203125,-73.73046875,-1000.0,104.00390625
965.8203125,-854.00390625,-877.44140625,26.85546875
965.33203125,724.609375,371.58203125,25.390625
962.40234375,999.51171875,999.51171875,-94.7265625
967.7734375,999.51171875,627.9296875,-236.328125
969.7265625,125.9765625,-809.08203125,-207.03125
890.13671875,-1000.0,-948.2421875,-108.3984375
928.7109375,-56.640625,483.88671875,-107.91015625
979.4921875,999.51171875,999.51171875,-132.8125
959.47265625,999.51171875,830.078125,-115.234375
967.28515625,203.61328125,-469.7265625,-63.4765625
965.8203125,-1000.0,-1000.0,71.2890625
965.33203125,-165.52734375,251.953125,191.89453125
965.33203125,999.51171875,999.51171875,123.53515625
965.33203125,999.51171875,978.515625,-34.1796875
965.33203125,234.86328125,-132.8125,-84.47265625
965.8203125,-1000.0,-1000.0,-75.1953125
965.33203125,-439.453125,17.578125,-87.40234375
965.33203125,942.87109375,999.51171875,-46.38671875
965.33203125,999.51171875,999.51171875,-60.546875
965.33203125,-68.84765625,85.9375,-163.0859375
965.8203125,-1000.0,-1000.0,-195.80078125
965.33203125,-578.125,5.859375,-13.18359375
965.8203125,761.71875,999.51171875,140.625
965.33203125,999.51171875,999.51171875,55.17578125
968.26171875,161.1328125,275.390625,41.50390625
936.5234375,-1000.0,-1000.0,-83.984375
999.51171875,-372.55859375,48.828125,-102.05078125
658.203125,933.10546875,999.51171875,117.1875
505.859375,999.51171875,999.51171875,80.56640625
-5.37109375,154.296875,670.41015625,-11.71875
-391.6015625,-1000.0,-902.34375,-42.96875
772.94921875,-1000.0,-168.45703125,28.80859375
999.51171875,112.79296875,999.51171875,24.90234375
927.734375,999.51171875,932.6171875,-184.5703125
969.23828125,136.23046875,984.86328125,-448.73046875
965.8203125,-1000.0,-453.125,-571.77734375
965.8203125,-1000.0,-284.66796875,-538.0859375
965.8203125,-128.41796875,999.51171875,-513.18359375
965.8203125,999.51171875,931.640625,-549.8046875
965.33203125,432.12890625,999.51171875,-534.1796875
965.33203125,-911.1328125,-361.328125,-375.0
965.8203125,-1000.0,-359.375,-132.8125
965.33203125,-174.31640625,999.51171875,76.66015625
965.33203125,999.51171875,994.62890625,59.08203125
965.33203125,446.2890625,846.19140625,15.625
965.33203125,-924.31640625,-641.11328125,44.921875
965.33203125,-1000.0,-795.41015625,132.8125
965.33203125,-88.8671875,702.1484375,264.16015625
965.33203125,999.51171875,999.51171875,229.00390625
965.33203125,537.109375,455.078125,81.0546875
965.33203125,-814.453125,-823.73046875,30.76171875
979.4921875,-1000.0,-1000.0,148.92578125
894.53125,-252.44140625,-202.1484375,309.08203125
999.51171875,999.51171875,999.51171875,317.3828125
638.18359375,711.9140625,218.75,206.54296875
-864.74609375,-647.94921875,-1000.0,112.79296875
-253.41796875,-1000.0,-1000.0,74.70703125
770.5078125,-474.609375,-563.4765625,128.90625
-513.18359375,999.51171875,997.55859375,70.3125
-1000.0,602.5390625,224.609375,-141.11328125
-942.87109375,-826.66015625,-1000.0,-253.90625
-1000.0,-1000.0,-1000.0,-203.125
-790.52734375,-397.4609375,-885.25390625,-94.23828125
-911.1328125,900.87890625,652.34375,-81.0546875
-1000.0,999.51171875,346.6796875,-153.3203125
-977.05078125,-88.8671875,-1000.0,-120.1171875
-1000.0,-1000.0,-1000.0,-185.05859375
-1000.0,-820.80078125,-959.9609375,-343.75
-942.3828125,468.75,492.1875,-267.578125
-947.265625,999.51171875,740.234375,-244.140625
-1000.0,104.4921875,-791.9921875,-325.1953125
-1000.0,-1000.0,-1000.0,-333.984375
-999.0234375,-1000.0,-808.10546875,-407.2265625
-953.61328125,163.0859375,469.7265625,-462.890625
-982.91015625,999.51171875,999.51171875,-495.1171875
-1000.0,175.78125,-11.71875,-496.09375
-997.0703125,-1000.0,-1000.0,-357.421875
-1000.0,-875.9765625,-698.73046875,-228.02734375
-1000.0,444.3359375,625.48828125,-181.640625
-1000.0,999.51171875,999.51171875,-133.30078125
-1000.0,185.546875,163.57421875,-144.53125
-1000.0,-982.421875,-1000.0,-163.57421875
-1000.0,-1000.0,-833.984375,-83.49609375
-1000.0,-197.75390625,469.23828125,-39.0625
-1000.0,999.51171875,999.51171875,-50.78125
-1000.0,541.50390625,300.78125,-107.421875
-1000.0,-832.51953125,-1000.0,-257.32421875
-1000.0,-1000.0,-951.171875,-268.06640625
-1000.0,-225.5859375,325.68359375,-148.4375
-1000.0,999.51171875,999.51171875,-124.51171875
-1000.0,642.08984375,411.62109375,-123.53515625
-1000.0,-744.140625,-908.69140625,-111.328125
-994.140625,-1000.0,-1000.0,-104.98046875
-985.83984375,-163.0859375,83.0078125,-77.1484375
-1000.0,965.33203125,999.51171875,0.9765625
-474.609375,999.51171875,782.2265625,30.2734375
-316.89453125,152.34375,-538.0859375,-18.5546875
-941.40625,-1000.0,-1000.0,-82.03125
-1000.0,-186.03515625,125.9765625,-20.5078125
-983.3984375,998.53515625,999.51171875,70.3125
-997.0703125,999.51171875,999.51171875,13.18359375
-1000.0,222.65625,90.33203125,-164.0625
-865.72265625,-1000.0,-1000.0,-278.3203125
-884.27734375,-201.66015625,163.57421875,-173.33984375
-1000.0,998.53515625,999.51171875,-81.54296875
-973.14453125,999.51171875,999.51171875,-141.6015625
-1000.0,263.671875,287.59765625,-267.08984375
-981.93359375,-1000.0,-1000.0,-291.9921875
-529.78515625,-175.78125,217.28515625,-202.1484375
-782.71484375,999.51171875,999.51171875,-234.375
-1000.0,999.51171875,999.51171875,-274.4140625
-968.26171875,512.20703125,605.46875,-259.27734375
-1000.0,-1000.0,-967.28515625,-298.33984375
-979.98046875,-365.72265625,-100.5859375,-116.2109375
-979.98046875,973.14453125,999.51171875,41.015625
-855.95703125,999.51171875,986.81640625,-70.80078125
-749.51171875,353.02734375,789.55078125,-188.96484375
-959.9609375,-1000.0,-760.7421875,-256.34765625
-1000.0,-729.00390625,-218.75,-164.55078125
-750.9765625,674.31640625,999.51171875,-122.0703125
-255.37109375,999.51171875,909.1796875,-179.19921875
-563.4765625,744.62890625,999.51171875,-137.6953125
-791.9921875,-805.17578125,-239.2578125,-139.6484375
321.77734375,-311.03515625,-231.93359375,-63.96484375
999.51171875,999.51171875,999.51171875,51.26953125
919.43359375,954.1015625,919.921875,41.50390625
958.49609375,917.48046875,999.51171875,-58.10546875
968.26171875,-367.67578125,-291.50390625,-115.72265625
965.8203125,-1000.0,-459.9609375,-21.97265625
961.42578125,86.42578125,994.62890625,85.9375
971.6796875,999.51171875,988.76953125,100.09765625
958.0078125,976.5625,919.921875,55.6640625
900.87890625,-239.2578125,-468.26171875,9.765625
951.171875,-1000.0,-920.8984375,50.29296875
973.6328125,136.71875,578.61328125,118.1640625
963.37890625,999.51171875,999.51171875,102.5390625
953.125,999.51171875,717.7734375,78.61328125
929.19921875,-9.27734375,-558.10546875,29.78515625
999.51171875,-1000.0,-1000.0,20.5078125
-151.3671875,-268.5546875,-99.12109375,108.3984375
-344.7265625,999.51171875,999.51171875,105.95703125
-46.38671875,846.19140625,580.078125,55.6640625
-917.96875,-466.796875,-750.9765625,-0.9765625
-927.734375,-1000.0,-1000.0,-28.80859375
-987.79296875,-393.06640625,-241.2109375,59.5703125
-992.67578125,865.72265625,999.51171875,126.46484375
-972.65625,999.51171875,800.29296875,55.6640625
-946.77734375,214.35546875,-507.32421875,-43.9453125
-1000.0,-1000.0,-1000.0,-39.55078125
-1000.0,-467.28515625,-325.68359375,42.96875
-999.0234375,873.046875,979.4921875,63.96484375
-1000.0,999.51171875,956.0546875,-27.83203125
-1000.0,436.03515625,-279.296875,-91.30859375
-1000.0,-1000.0,-1000.0,-49.31640625
-1000.0,-632.8125,-369.62890625,-142.08984375
-1000.0,801.26953125,892.08984375,-337.40234375
-992.1875,999.51171875,999.51171875,-378.41796875
-957.51953125,724.12109375,133.30078125,-329.1015625
-1000.0,-829.1015625,-1000.0,-208.984375
-111.328125,-304.19921875,-330.56640625,-214.84375
593.26171875,999.51171875,930.17578125,-323.73046875
115.234375,886.23046875,999.51171875,-304.19921875
-101.5625,999.51171875,362.79296875,-257.32421875
-960.9375,-154.296875,-1000.0,-145.5078125
-1000.0,-478.02734375,-288.57421875,-32.2265625
-1000.0,999.51171875,999.51171875,9.27734375
-276.85546875,985.83984375,909.1796875,9.765625
-162.59765625,925.29296875,999.51171875,27.83203125
-1000.0,977.05078125,-140.13671875,65.4296875
-990.72265625,966.30859375,-309.08203125,55.6640625
-983.88671875,966.30859375,999.51171875,63.96484375
-1000.0,966.30859375,909.1796875,62.98828125
-972.16796875,966.30859375,999.51171875,60.05859375
-1000.0,966.30859375,270.99609375,47.8515625
-893.5546875,966.30859375,-14.16015625,51.26953125
34.1796875,966.30859375,999.51171875,105.46875
118.65234375,966.30859375,913.57421875,58.59375
-918.9453125,966.30859375,999.51171875,-58.10546875
-807.6171875,966.30859375,330.078125,-116.69921875
-658.203125,966.30859375,-100.5859375,-93.26171875
-1000.0,966.796875,997.55859375,38.57421875
-911.1328125,961.42578125,946.2890625,88.8671875
-920.41015625,923.33984375,999.51171875,32.71484375
-234.375,999.51171875,602.5390625,-20.5078125
569.3359375,42.48046875,127.44140625,16.6015625
937.01171875,-27.34375,919.43359375,131.8359375
919.43359375,999.51171875,999.51171875,127.44140625
978.515625,999.51171875,946.2890625,72.75390625
738.76953125,701.171875,933.10546875,62.01171875
-501.953125,-929.6875,833.49609375,62.98828125
-1000.0,-343.75,956.0546875,134.27734375
-604.4921875,999.51171875,976.5625,145.99609375
-235.83984375,919.43359375,958.984375,49.31640625
161.1328125,999.51171875,967.28515625,-51.26953125
485.3515625,-301.7578125,965.8203125,-147.4609375
-789.0625,-390.625,966.30859375,-72.265625
-1000.0,999.51171875,966.30859375,30.76171875
-16.11328125,999.51171875,966.30859375,-17.08984375
232.91015625,618.65234375,965.8203125,-47.8515625
-8.7890625,-978.515625,965.8203125,0.0
-290.0390625,-605.46875,966.30859375,-32.2265625
-1000.0,944.3359375,966.30859375,-132.8125
-991.2109375,994.62890625,966.30859375,-257.32421875
-645.99609375,912.59765625,966.30859375,-223.14453125
368.65234375,981.4453125,966.30859375,-123.046875
253.41796875,973.6328125,966.30859375,-42.96875
413.0859375,935.546875,966.30859375,15.625
999.51171875,945.3125,965.8203125,-49.8046875
-258.30078125,999.51171875,965.8203125,-88.37890625
-1000.0,-319.82421875,966.30859375,-70.3125
-918.9453125,-970.703125,966.30859375,4.8828125
-1000.0,625.9765625,966.30859375,0.9765625
-962.890625,999.51171875,966.30859375,-187.5
109.375,899.90234375,965.8203125,-211.9140625
999.51171875,978.02734375,965.8203125,-111.328125
165.52734375,966.30859375,965.8203125,-10.7421875
-1000.0,966.30859375,966.30859375,75.68359375
-876.953125,966.30859375,965.8203125,-26.3671875
-860.3515625,966.30859375,965.8203125,-261.71875
-965.8203125,966.30859375,965.8203125,-221.19140625
-1000.0,966.30859375,965.8203125,-86.42578125
-609.86328125,966.30859375,965.8203125,-177.734375
604.4921875,966.30859375,965.8203125,-294.921875
582.51953125,965.8203125,966.30859375,-268.5546875
-444.3359375,966.30859375,966.30859375,-257.8125
-902.83203125,966.30859375,965.8203125,-276.85546875
-95.21484375,965.8203125,965.8203125,-182.6171875
438.96484375,965.8203125,966.30859375,-91.796875
529.296875,966.30859375,965.8203125,-130.37109375
-68.84765625,966.30859375,965.8203125,-178.22265625
-813.96484375,966.30859375,966.30859375,-175.29296875
311.5234375,966.30859375,966.30859375,-137.20703125
833.49609375,965.8203125,965.8203125,-150.390625
538.57421875,965.8203125,965.8203125,-173.33984375
999.51171875,966.30859375,966.30859375,-171.38671875
690.4296875,966.30859375,966.30859375,-183.59375
-679.19921875,966.30859375,966.30859375,-75.1953125
-734.86328125,966.30859375,965.8203125,58.10546875
-775.390625,965.8203125,965.8203125,-37.59765625
-1000.0,966.30859375,966.30859375,-169.43359375
-1000.0,966.30859375,966.30859375,-215.33203125
-926.7578125,966.30859375,966.30859375,-208.0078125
-882.8125,966.30859375,965.8203125,-196.2890625
-1000.0,966.30859375,966.30859375,-246.09375
-1000.0,966.30859375,965.8203125,-231.93359375
-997.0703125,966.30859375,965.8203125,-195.3125
-1000.0,966.30859375,966.30859375,-149.4140625
-1000.0,966.30859375,965.8203125,-130.37109375
-1000.0,966.30859375,966.30859375,-162.59765625
-1000.0,966.30859375,966.30859375,-182.12890625
-999.51171875,966.30859375,966.30859375,-158.203125
-1000.0,966.30859375,965.8203125,-127.44140625
-1000.0,966.30859375,965.8203125,-127.9296875
-923.33984375,966.30859375,965.8203125,-135.25390625
-1000.0,966.30859375,966.30859375,-141.6015625
-583.49609375,966.30859375,965.8203125,-94.23828125
788.57421875,966.30859375,965.8203125,-61.03515625
999.51171875,965.8203125,965.8203125,-102.5390625
766.6015625,966.30859375,965.8203125,-109.375
829.1015625,966.30859375,965.8203125,-90.33203125
992.67578125,966.30859375,965.8203125,-79.58984375
958.984375,966.30859375,966.30859375,-64.453125
964.35546875,966.30859375,966.30859375,-79.1015625
965.33203125,966.30859375,966.30859375,-114.74609375
965.33203125,966.30859375,965.8203125,-97.16796875
967.28515625,965.8203125,965.8203125,-83.0078125
957.03125,965.8203125,965.8203125,-62.5
916.9921875,965.8203125,965.8203125,-45.41015625
999.51171875,966.30859375,966.30859375,-92.7734375
63.96484375,966.30859375,966.30859375,-122.55859375
-1000.0,966.30859375,966.30859375,-106.4453125
-708.0078125,966.30859375,966.30859375,-71.2890625
-302.734375,966.30859375,966.30859375,-57.6171875
196.2890625,966.30859375,966.30859375,-54.19921875
980.95703125,966.30859375,965.8203125,-37.59765625
822.265625,966.30859375,966.30859375,-24.90234375
192.87109375,966.30859375,966.30859375,-25.390625
-42.96875,966.30859375,966.30859375,-33.69140625
-863.28125,966.30859375,966.30859375,-72.265625
-1000.0,966.30859375,966.30859375,-98.6328125
-934.5703125,966.30859375,966.30859375,-89.84375
-863.28125,966.30859375,965.8203125,-94.23828125
-916.015625,966.30859375,965.8203125,-63.96484375
-1000.0,966.30859375,966.30859375,-57.12890625
-990.72265625,966.30859375,965.8203125,-72.265625
-1000.0,966.30859375,966.30859375,-53.7109375
-1000.0,966.30859375,966.30859375,-32.71484375
-946.2890625,966.30859375,979.00390625,-43.9453125
-1000.0,966.796875,894.53125,-82.03125
-665.0390625,903.3203125,999.51171875,-92.7734375
680.6640625,999.51171875,500.48828125,-82.03125
507.8125,260.25390625,-826.66015625,-59.08203125
-941.89453125,-1000.0,-1000.0,-66.40625
-644.53125,-491.2109375,-180.17578125,-46.38671875
745.1171875,999.51171875,598.14453125,-25.390625
963.37890625,198.73046875,-810.546875,-75.68359375
631.8359375,-1000.0,-1000.0,-78.61328125
-504.8828125,-970.703125,-935.05859375,-64.94140625
-358.3984375,-973.14453125,-1000.0,-21.97265625
936.5234375,-1000.0,-1000.0,35.15625
-40.52734375,-1000.0,-1000.0,3.90625
-1000.0,-1000.0,-1000.0,-54.19921875
-1000.0,-1000.0,-1000.0,-53.7109375
-8.30078125,-1000.0,-1000.0,-18.5546875
-202.63671875,-1000.0,-1000.0,-23.92578125
-1000.0,-1000.0,-1000.0,-58.10546875
222.65625,-1000.0,-1000.0,-60.05859375
999.51171875,-1000.0,-1000.0,-40.52734375
918.45703125,-1000.0,-1000.0,-10.25390625
939.94140625,-1000.0,-1000.0,-13.671875
960.44921875,-1000.0,-1000.0,-44.921875
970.703125,-1000.0,-1000.0,-41.50390625
954.58984375,-1000.0,-1000.0,-12.20703125
944.82421875,-1000.0,-1000.0,-14.16015625
999.51171875,-1000.0,-1000.0,-19.04296875
354.98046875,-1000.0,-1000.0,6.34765625
-568.359375,-1000.0,-1000.0,-46.875
-956.54296875,-1000.0,-1000.0,-74.70703125
-1000.0,-1000.0,-1000.0,-4.39453125
-984.375,-1000.0,-1000.0,-23.4375
-1000.0,-1000.0,-1000.0,-58.59375
-997.0703125,-1000.0,-1000.0,-40.0390625
-1000.0,-1000.0,-1000.0,-62.5
-931.640625,-1000.0,-1000.0,-84.9609375
-996.58203125,-1000.0,-1000.0,-79.1015625
-72.75390625,-1000.0,-1000.0,-41.015625
999.51171875,-1000.0,-1000.0,-38.57421875
237.79296875,-1000.0,-1000.0,-81.54296875
-872.55859375,-1000.0,-1000.0,-74.70703125
-17.578125,-1000.0,-1000.0,-57.6171875
-433.10546875,-1000.0,-1000.0,-45.41015625
-239.74609375,-1000.0,-1000.0,-42.96875
999.51171875,-1000.0,-1000.0,-50.78125
953.61328125,-1000.0,-1000.0,-18.5546875
939.453125,-1000.0,-1000.0,-10.25390625
972.16796875,-1000.0,-1000.0,-65.91796875
965.33203125,-1000.0,-1000.0,-69.82421875
965.33203125,-1000.0,-1000.0,-52.24609375
965.33203125,-1000.0,-1000.0,-44.43359375
965.8203125,-1000.0,-1000.0,-46.875
965.33203125,-1000.0,-1000.0,-59.5703125
965.8203125,-1000.0,-1000.0,-25.390625
965.8203125,-1000.0,-1000.0,-14.6484375
965.33203125,-1000.0,-1000.0,-44.43359375
965.8203125,-1000.0,-1000.0,-49.8046875
968.75,-1000.0,-1000.0,-28.80859375
900.390625,-1000.0,-1000.0,-22.94921875
999.51171875,-1000.0,-1000.0,-39.0625
236.81640625,-1000.0,-1000.0,-19.04296875
-1000.0,-1000.0,-1000.0,0.9765625
-992.67578125,-1000.0,-1000.0,-17.08984375
-969.23828125,-1000.0,-1000.0,-49.8046875
-1000.0,-1000.0,-1000.0,-16.11328125
-1000.0,-1000.0,-1000.0,8.7890625
-1000.0,-1000.0,-1000.0,11.23046875
-1000.0,-1000.0,-1000.0,13.671875
-1000.0,-1000.0,-1000.0,-9.27734375
-961.42578125,-1000.0,-1000.0,-41.015625
-1000.0,-1000.0,-1000.0,-19.53125
-880.37109375,-1000.0,-1000.0,29.78515625
365.72265625,-1000.0,-1000.0,38.0859375
999.51171875,-1000.0,-1000.0,-17.08984375
917.96875,-1000.0,-1000.0,-42.96875
902.83203125,-1000.0,-1000.0,-29.296875
999.51171875,-1000.0,-1000.0,-15.625
186.5234375,-1000.0,-1000.0,-41.9921875
-1000.0,-1000.0,-1000.0,-62.5
-983.88671875,-1000.0,-1000.0,-51.26953125
-973.14453125,-1000.0,-1000.0,-40.52734375
-1000.0,-1000.0,-1000.0,-8.30078125
-1000.0,-1000.0,-1000.0,-2.9296875
-999.51171875,-1000.0,-1000.0,-72.75390625
-1000.0,-1000.0,-1000.0,-116.69921875
-970.703125,-1000.0,-1000.0,-100.09765625
-1000.0,-1000.0,-1000.0,-75.1953125
-871.58203125,-1000.0,-1000.0,-67.87109375
-35.15625,-1000.0,-1000.0,-106.93359375
-0.48828125,-1000.0,-1000.0,-135.25390625
-912.59765625,-1000.0,-1000.0,-141.11328125
-638.18359375,-1000.0,-1000.0,-142.578125
-454.1015625,-1000.0,-1000.0,-165.52734375
-1000.0,-1000.0,-1000.0,-224.12109375
-1000.0,-1000.0,-1000.0,-274.4140625
-926.7578125,-999.0234375,-1000.0,-256.8359375
-1000.0,-947.75390625,-1000.0,-259.27734375
-667.96875,-1000.0,-1000.0,-301.7578125
513.671875,-100.09765625,-1000.0,-314.453125
27.34375,84.47265625,-1000.0,-308.59375
47.36328125,-1000.0,-1000.0,-303.7109375
568.84765625,-988.28125,-1000.0,-266.6015625
775.87890625,-979.00390625,-1000.0,-219.7265625
393.06640625,-1000.0,-1000.0,-210.44921875
445.3125,-1000.0,-1000.0,-240.234375
-74.21875,-1000.0,-1000.0,-251.46484375
-633.7890625,-1000.0,-1000.0,-265.625
844.7265625,-1000.0,-1000.0,-254.8828125
986.81640625,-1000.0,-1000.0,-229.98046875
839.35546875,-1000.0,-1000.0,-198.73046875
670.41015625,-1000.0,-1000.0,-146.484375
-597.16796875,-1000.0,-1000.0,-133.7890625
-1000.0,-1000.0,-1000.0,-92.28515625
-926.26953125,-1000.0,-1000.0,-56.15234375
-1000.0,-1000.0,-1000.0,-73.2421875
-886.71875,-1000.0,-1000.0,-92.7734375
-755.37109375,-1000.0,-1000.0,-43.9453125
-971.19140625,-1000.0,-1000.0,-32.2265625
-1000.0,-1000.0,-1000.0,-55.17578125
-990.234375,-1000.0,-1000.0,-17.578125
-1000.0,-1000.0,-1000.0,-4.8828125
-1000.0,-1000.0,-963.8671875,0.0
-1000.0,-1000.0,-1000.0,24.90234375
-1000.0,-1000.0,-661.62109375,38.57421875
-1000.0,-1000.0,-404.78515625,31.73828125
-1000.0,-1000.0,-1000.0,5.859375
-1000.0,-953.61328125,-962.890625,-1.953125
-1000.0,-1000.0,-1000.0,-9.27734375
-1000.0,-974.609375,-191.89453125,-6.8359375
-985.83984375,573.2421875,999.51171875,12.20703125
-997.0703125,260.25390625,16.6015625,10.7421875
-1000.0,-1000.0,-1000.0,7.32421875
-305.6640625,-1000.0,-999.51171875,10.25390625
-81.54296875,-242.1875,104.98046875,6.8359375
-235.3515625,999.51171875,999.51171875,2.9296875
250.48828125,884.27734375,499.0234375,4.8828125
-480.46875,-425.29296875,-929.19921875,5.37109375
107.421875,-1000.0,-954.58984375,-4.8828125
999.51171875,-213.8671875,433.59375,8.7890625
918.45703125,999.51171875,999.51171875,38.0859375
960.9375,746.58203125,894.04296875,9.27734375
963.37890625,-614.74609375,-416.9921875,7.32421875
955.56640625,-1000.0,-1000.0,14.6484375
965.8203125,-229.98046875,433.59375,2.44140625
965.8203125,998.53515625,999.51171875,19.04296875
963.37890625,989.2578125,999.51171875,26.85546875
955.078125,-202.1484375,58.10546875,30.76171875
999.51171875,-1000.0,-1000.0,43.9453125
717.7734375,-542.96875,309.5703125,18.5546875
724.12109375,804.19921875,999.51171875,-27.34375
999.51171875,999.51171875,999.51171875,-21.97265625
954.1015625,-53.22265625,208.0078125,5.859375
964.84375,-1000.0,-1000.0,7.32421875
968.26171875,-496.09375,196.2890625,32.2265625
901.85546875,835.9375,999.51171875,39.55078125
999.51171875,999.51171875,999.51171875,-7.32421875
238.28125,185.546875,580.56640625,-29.78515625
-1000.0,-1000.0,-680.6640625,-24.4140625
-994.62890625,-733.3984375,366.2109375,-7.32421875
-970.703125,643.5546875,999.51171875,-17.578125
-997.55859375,999.51171875,920.41015625,4.39453125
-1000.0,153.3203125,974.609375,25.87890625
-973.6328125,-1000.0,-150.87890625,19.04296875
-585.9375,-960.44921875,224.12109375,14.16015625
-515.625,318.84765625,999.51171875,-13.18359375
-925.78125,999.51171875,948.2421875,-12.20703125
-951.171875,118.65234375,932.12890625,12.20703125
-1000.0,-1000.0,-603.02734375,-27.34375
-302.24609375,-1000.0,-323.73046875,-23.92578125
981.4453125,51.7578125,999.51171875,-8.30078125
975.09765625,999.51171875,999.51171875,-25.390625
876.953125,369.62890625,410.64453125,-0.9765625
324.21875,-975.5859375,-940.91796875,22.94921875
-382.8125,-965.8203125,-1000.0,77.63671875
-957.03125,-1000.0,117.67578125,146.484375
-993.1640625,-51.7578125,999.51171875,112.3046875
-1000.0,266.6015625,44.43359375,56.640625
-885.25390625,-1000.0,-1000.0,67.87109375
-277.34375,-1000.0,-1000.0,80.56640625
1.46484375,-250.48828125,-423.828125,139.16015625
441.89453125,999.51171875,736.81640625,169.43359375
999.51171875,170.41015625,-490.72265625,9.765625
-129.39453125,-1000.0,-1000.0,-71.77734375
-770.5078125,-977.05078125,-927.734375,-26.85546875
741.69921875,-973.14453125,-1000.0,-53.22265625
911.1328125,-1000.0,-1000.0,-15.625
604.4921875,-1000.0,-1000.0,-34.66796875
922.36328125,-996.58203125,-1000.0,-42.48046875
820.3125,-935.05859375,-1000.0,66.89453125
835.44921875,-1000.0,-1000.0,123.53515625
999.51171875,-17.08984375,-1000.0,164.55078125
954.1015625,433.10546875,-1000.0,126.953125
967.28515625,-976.07421875,-995.1171875,111.328125
965.8203125,-1000.0,-961.42578125,134.765625
965.8203125,-895.99609375,-1000.0,187.5
965.8203125,623.046875,-182.6171875,234.375
965.8203125,679.19921875,-63.96484375,166.50390625
965.8203125,-935.546875,-1000.0,78.61328125
965.8203125,-967.7734375,-929.19921875,88.37890625
969.23828125,-1000.0,-1000.0,133.30078125
922.36328125,-155.76171875,20.5078125,107.421875
999.51171875,815.91796875,406.25,-13.671875
555.17578125,-700.68359375,-1000.0,-130.859375
-266.6015625,-1000.0,-970.21484375,-118.65234375
-28.3203125,-889.6484375,-1000.0,-99.12109375
-477.05078125,-1000.0,-13.671875,-99.12109375
-1000.0,106.93359375,948.73046875,-93.75
-979.4921875,218.26171875,-543.9453125,-116.2109375
-993.65234375,-1000.0,-1000.0,-115.234375
-1000.0,-1000.0,-1000.0,-56.15234375
-1000.0,-254.8828125,-53.7109375,-35.15625
-1000.0,999.51171875,999.51171875,-63.4765625
-969.7265625,156.25,-209.9609375,-115.234375
-1000.0,-1000.0,-1000.0,-113.28125
-735.3515625,-1000.0,-1000.0,-55.17578125
-514.6484375,-239.2578125,-195.3125,11.23046875
-1000.0,999.51171875,999.51171875,-22.4609375
-1000.0,266.11328125,30.76171875,-127.44140625
-981.4453125,-991.69921875,-1000.0,-139.6484375
-1000.0,-1000.0,-1000.0,-115.234375
-1000.0,-332.03125,-268.5546875,-124.51171875
-1000.0,999.51171875,999.51171875,-152.83203125
-1000.0,561.03515625,122.0703125,-149.4140625
-1000.0,-839.35546875,-1000.0,-139.16015625
-1000.0,-1000.0,-1000.0,-110.83984375
-1000.0,-274.90234375,-375.0,-103.515625
-997.0703125,999.51171875,999.51171875,-104.00390625
-959.47265625,692.87109375,163.0859375,-111.81640625
-1000.0,-698.73046875,-1000.0,-108.3984375
-282.71484375,-1000.0,-1000.0,-60.05859375
47.8515625,-196.2890625,-582.51953125,-38.57421875
-503.41796875,999.51171875,986.328125,-62.5
-554.6875,916.015625,221.19140625,-76.171875
-910.15625,-336.42578125,-1000.0,-76.66015625
-993.1640625,-1000.0,-991.2109375,-70.3125
-1000.0,-660.64453125,-976.07421875,-61.03515625
-865.234375,661.1328125,510.7421875,-55.6640625
-1000.0,999.51171875,335.44921875,-62.98828125
-464.35546875,22.94921875,-1000.0,-88.37890625
657.2265625,-1000.0,-944.3359375,-68.359375
-168.9453125,-1000.0,-1000.0,-4.8828125
-1000.0,128.90625,173.33984375,-13.18359375
-913.57421875,999.51171875,494.62890625,-48.33984375
-444.3359375,208.984375,-1000.0,-49.31640625
678.7109375,-1000.0,-969.23828125,-34.1796875
999.51171875,-860.83984375,-1000.0,4.8828125
319.82421875,484.86328125,35.15625,10.7421875
-296.38671875,999.51171875,692.87109375,-1.953125
-670.41015625,145.99609375,-856.4453125,-14.16015625
106.4453125,-1000.0,-1000.0,-17.578125
461.9140625,-1000.0,-1000.0,7.32421875
578.61328125,133.30078125,-91.796875,-23.92578125
234.86328125,999.51171875,999.51171875,-64.94140625
-982.91015625,147.94921875,-419.43359375,-69.82421875
-895.99609375,-1000.0,-1000.0,-81.54296875
-969.7265625,-1000.0,-1000.0,-68.359375
-651.3671875,56.640625,-151.3671875,-21.97265625
-186.5234375,999.51171875,999.51171875,-0.9765625
-378.90625,293.45703125,4.39453125,-65.91796875
-736.328125,-951.171875,-1000.0,-56.640625
-1000.0,-1000.0,-1000.0,11.23046875
-960.9375,-217.28515625,-181.15234375,-7.32421875
-999.51171875,999.51171875,999.51171875,-32.71484375
-940.91796875,968.26171875,208.49609375,-9.765625
307.12890625,-342.28515625,-1000.0,-35.15625
910.64453125,-1000.0,-1000.0,-14.16015625
-109.375,75.1953125,-83.49609375,61.5234375
571.2890625,999.51171875,999.51171875,-9.765625
176.7578125,599.12109375,487.3046875,-95.703125
-1000.0,-731.93359375,-847.16796875,-84.9609375
-1000.0,-1000.0,-1000.0,-66.89453125
6.34765625,-166.50390625,-114.74609375,-49.8046875
999.51171875,970.703125,999.51171875,-63.96484375
929.19921875,999.51171875,890.625,-83.49609375
951.171875,106.93359375,-367.1875,-55.17578125
979.00390625,-1000.0,-1000.0,-23.92578125
901.3671875,-301.26953125,-95.21484375,-7.8125
999.51171875,974.609375,996.09375,-14.6484375
518.5546875,999.51171875,999.51171875,-72.265625
-848.6328125,-6.8359375,109.86328125,-108.3984375
-1000.0,-1000.0,-1000.0,-115.72265625
-1000.0,-960.44921875,-152.34375,-80.078125
-687.5,259.27734375,999.51171875,-84.47265625
-599.609375,999.51171875,999.51171875,-95.21484375
-1000.0,169.43359375,263.671875,-83.0078125
-997.0703125,-1000.0,-1000.0,-55.6640625
-932.12890625,-901.3671875,-187.01171875,-27.83203125
-983.3984375,416.9921875,999.51171875,-46.38671875
-998.53515625,999.51171875,999.51171875,-34.66796875
-964.84375,137.20703125,410.64453125,-15.625
-974.12109375,-1000.0,-1000.0,-6.34765625
-936.5234375,-1000.0,-223.14453125,24.4140625
-991.69921875,6.8359375,999.51171875,85.9375
-1000.0,999.51171875,999.51171875,89.35546875
-996.58203125,282.2265625,674.31640625,41.015625
-1000.0,-984.375,-907.71484375,137.6953125
-1000.0,-1000.0,-341.30859375,291.50390625
-1000.0,-48.828125,999.51171875,144.53125
-1000.0,999.51171875,970.21484375,-106.4453125
-1000.0,751.953125,909.66796875,-128.41796875
-1000.0,-597.16796875,-593.75,-93.26171875
-1000.0,-1000.0,-579.58984375,-62.5
-1000.0,-42.96875,930.6640625,-39.0625
-1000.0,999.51171875,999.51171875,-9.27734375
-1000.0,616.69921875,865.72265625,-7.32421875
-1000.0,-732.91015625,-535.64453125,-31.25
-1000.0,-1000.0,-935.546875,139.6484375
-1000.0,-229.98046875,569.82421875,-192.3828125
-1000.0,999.51171875,999.51171875,-933.59375
-999.0234375,589.84375,875.9765625,-1000.0
-993.65234375,-788.0859375,-372.55859375,-977.05078125
-1000.0,-1000.0,-1000.0,-1000.0
-841.30859375,-277.34375,167.48046875,-1000.0
-703.61328125,907.71484375,999.51171875,-1000.0
-700.1953125,999.51171875,991.69921875,-1000.0
201.66015625,335.9375,-86.9140625,-1000.0
207.03125,-1000.0,-1000.0,-980.46875
-509.27734375,-525.87890625,-101.5625,-991.2109375
-667.96875,862.3046875,999.51171875,-750.9765625
-583.49609375,999.51171875,999.51171875,50.78125
437.5,365.72265625,-64.453125,616.2109375
421.875,-1000.0,-1000.0,331.54296875
-370.60546875,-543.45703125,-176.7578125,-64.453125
-638.18359375,875.0,998.046875,-51.26953125
-789.0625,999.51171875,999.51171875,-27.83203125
-936.5234375,190.91796875,83.0078125,-69.3359375
-996.09375,-1000.0,-1000.0,-5.859375
-779.78515625,-669.921875,-278.80859375,294.921875
-618.65234375,718.75,962.890625,312.98828125
-723.14453125,999.51171875,999.51171875,116.2109375
-855.95703125,166.015625,160.15625,-14.6484375
-812.5,-1000.0,-1000.0,19.53125
-563.96484375,-879.39453125,-450.68359375,248.53515625
-421.38671875,423.33984375,874.0234375,439.94140625
-486.328125,999.51171875,999.51171875,433.59375
-686.03515625,368.65234375,218.26171875,268.06640625
-652.34375,-1000.0,-1000.0,230.95703125
-235.3515625,-924.31640625,-600.09765625,211.42578125
-193.84765625,421.875,759.765625,112.3046875
56.15234375,999.51171875,999.51171875,33.203125
208.49609375,425.78125,282.2265625,-53.7109375
-62.5,-895.01953125,-1000.0,-144.53125
592.28515625,-1000.0,-831.0546875,-139.16015625
999.51171875,17.08984375,499.0234375,-107.91015625
780.76171875,999.51171875,999.51171875,-40.0390625
120.60546875,750.9765625,479.00390625,131.34765625
-10.25390625,-561.5234375,-901.3671875,246.09375
451.66015625,-1000.0,-1000.0,319.82421875
377.9296875,-123.53515625,305.6640625,387.20703125
-271.97265625,999.51171875,999.51171875,422.36328125
-683.10546875,999.51171875,747.55859375,375.48828125
-677.734375,-86.9140625,-555.17578125,323.73046875
-262.6953125,-1000.0,-1000.0,367.1875
609.375,-169.43359375,62.5,414.55078125
999.51171875,983.3984375,999.51171875,307.6171875
937.01171875,999.51171875,913.0859375,214.35546875
964.84375,185.05859375,-296.38671875,288.0859375
967.28515625,-1000.0,-1000.0,40.52734375
965.33203125,-264.16015625,-75.68359375,-218.75
