TP9,AF7,AF8,TP10
231.93359375,956.0546875,999.51171875,-55.6640625
43.45703125,999.51171875,862.3046875,-43.45703125
-226.07421875,-93.75,-410.64453125,-36.62109375
-318.359375,-1000.0,-1000.0,-45.8984375
20.5078125,-280.76171875,-177.734375,-45.41015625
252.9296875,938.4765625,999.51171875,-37.59765625
64.94140625,999.51171875,997.55859375,-41.015625
-204.58984375,212.40234375,-150.390625,-41.015625
-296.875,-1000.0,-1000.0,-42.96875
-27.34375,-643.5546875,-244.140625,-45.8984375
226.5625,746.58203125,976.5625,-50.78125
91.796875,999.51171875,999.51171875,-40.52734375
-183.59375,172.8515625,22.4609375,-34.66796875
-312.5,-1000.0,-1000.0,-28.80859375
-61.5234375,-894.53125,-399.4140625,-39.55078125
234.86328125,393.5546875,896.484375,-52.734375
146.97265625,999.51171875,999.51171875,-40.0390625
-125.48828125,513.671875,170.8984375,-34.66796875
-283.203125,-867.1875,-1000.0,-38.57421875
-114.74609375,-1000.0,-596.6796875,-51.26953125
184.08203125,193.359375,763.671875,-49.31640625
164.55078125,999.51171875,999.51171875,-40.52734375
-134.27734375,136.71875,157.71484375,-49.8046875
-321.2890625,-1000.0,-1000.0,-46.875
-150.390625,-1000.0,-849.609375,-41.015625
170.41015625,-80.56640625,457.03125,-40.52734375
207.03125,999.51171875,999.51171875,-45.8984375
-65.4296875,471.19140625,196.77734375,-54.19921875
-317.87109375,-907.2265625,-1000.0,-47.8515625
-199.70703125,-1000.0,-989.74609375,-40.0390625
147.4609375,13.18359375,225.5859375,-33.203125
212.40234375,999.51171875,999.51171875,-44.921875
-56.15234375,624.51171875,281.73828125,-64.94140625
-296.875,-711.42578125,-967.7734375,-59.5703125
-213.8671875,-1000.0,-1000.0,-59.08203125
125.0,-185.05859375,-71.2890625,-16.11328125
219.7265625,999.51171875,999.51171875,32.71484375
-23.92578125,999.51171875,494.62890625,-16.11328125
-266.11328125,-166.9921875,-837.890625,-53.22265625
-249.0234375,-1000.0,-1000.0,-26.3671875
98.14453125,-196.2890625,-180.6640625,44.921875
246.58203125,999.51171875,999.51171875,58.59375
23.92578125,969.7265625,676.7578125,6.34765625
-249.0234375,-274.4140625,-671.38671875,-20.99609375
-294.921875,-1000.0,-1000.0,-40.52734375
62.5,-162.109375,-189.94140625,1.953125
251.46484375,979.98046875,999.51171875,47.8515625
53.22265625,999.51171875,891.11328125,13.671875
-213.37890625,132.8125,-365.72265625,-44.43359375
-321.77734375,-1000.0,-1000.0,-51.26953125
-12.6953125,-568.84765625,-235.83984375,6.34765625
247.0703125,790.0390625,984.86328125,44.43359375
80.078125,999.51171875,999.51171875,-1.46484375
-208.49609375,283.203125,-81.0546875,-77.1484375
-316.89453125,-1000.0,-1000.0,-72.265625
-46.38671875,-875.48828125,-363.76953125,-1.46484375
220.21484375,487.3046875,923.828125,27.83203125
112.3046875,999.51171875,999.51171875,9.765625
-186.03515625,154.296875,38.0859375,-39.55078125
-324.70703125,-1000.0,-1000.0,-68.359375
-76.66015625,-974.12109375,-559.08203125,-16.6015625
193.84765625,285.64453125,778.3203125,5.37109375
125.9765625,999.51171875,999.51171875,-86.42578125
-147.4609375,231.4453125,155.2734375,-125.9765625
-317.3828125,-1000.0,-1000.0,-107.91015625
-126.953125,-780.76171875,-704.1015625,-54.19921875
196.2890625,574.70703125,644.04296875,25.87890625
171.875,999.51171875,999.51171875,24.90234375
-114.2578125,584.9609375,187.01171875,-36.1328125
-328.125,-763.18359375,-1000.0,-67.3828125
-194.82421875,-1000.0,-973.6328125,-31.25
155.2734375,35.64453125,270.99609375,7.8125
207.03125,999.51171875,999.51171875,5.859375
-74.70703125,395.99609375,210.44921875,-24.4140625
-298.828125,-906.25,-1000.0,-58.10546875
-197.265625,-1000.0,-1000.0,-34.66796875
140.625,-228.02734375,-5.37109375,28.3203125
229.4921875,999.51171875,999.51171875,28.80859375
-39.55078125,757.8125,354.98046875,-27.83203125
-286.1328125,-603.515625,-933.10546875,-84.9609375
-239.74609375,-1000.0,-1000.0,-79.58984375
83.49609375,-188.96484375,-166.9921875,1.953125
211.42578125,999.51171875,999.51171875,23.4375
11.23046875,999.51171875,637.20703125,-22.94921875
-252.9296875,-160.64453125,-715.8203125,-61.03515625
-275.390625,-1000.0,-1000.0,-58.10546875
78.61328125,-236.81640625,-186.03515625,-14.6484375
254.39453125,948.73046875,999.51171875,0.0
41.50390625,999.51171875,856.93359375,-38.0859375
-242.67578125,224.609375,-416.9921875,-73.2421875
-308.10546875,-1000.0,-1000.0,-83.984375
9.765625,-611.328125,-217.28515625,-22.4609375
226.5625,785.64453125,999.51171875,21.484375
61.03515625,999.51171875,968.26171875,-25.390625
-225.5859375,146.97265625,-224.12109375,-81.54296875
-331.0546875,-1000.0,-1000.0,-77.63671875
-31.73828125,-622.55859375,-309.5703125,-23.4375
244.62890625,759.765625,942.3828125,2.44140625
107.421875,999.51171875,999.51171875,-9.765625
-189.94140625,201.66015625,23.4375,-76.171875
-308.10546875,-1000.0,-1000.0,-87.890625
-64.94140625,-510.7421875,-413.57421875,-34.1796875
228.02734375,864.2578125,895.99609375,-8.30078125
125.48828125,999.51171875,999.51171875,-27.83203125
-173.33984375,148.92578125,122.55859375,-63.4765625
-305.6640625,-1000.0,-1000.0,-73.73046875
-127.44140625,-1000.0,-724.609375,-60.546875
177.734375,-28.80859375,617.1875,-8.7890625
161.62109375,999.51171875,999.51171875,4.39453125
-133.7890625,315.91796875,160.15625,-59.5703125
-338.37890625,-971.6796875,-1000.0,-108.3984375
-186.03515625,-1000.0,-910.15625,-71.2890625
150.390625,-42.48046875,362.79296875,-7.32421875
174.31640625,999.51171875,999.51171875,-13.671875
-87.40234375,880.859375,226.07421875,-59.08203125
-296.875,-371.09375,-1000.0,-88.8671875
-190.91796875,-1000.0,-1000.0,-79.58984375
143.06640625,-225.09765625,83.0078125,-33.69140625
185.546875,999.51171875,999.51171875,-8.7890625
-99.12109375,613.76953125,290.52734375,-67.3828125
-325.1953125,-777.83203125,-966.796875,-119.62890625
-235.83984375,-1000.0,-1000.0,-82.03125
118.65234375,-215.8203125,-112.79296875,-13.671875
228.02734375,999.51171875,999.51171875,6.8359375
-57.12890625,788.0859375,308.59375,-56.15234375
-288.57421875,-554.19921875,-969.7265625,-84.47265625
-208.0078125,-1000.0,-1000.0,-61.03515625
83.49609375,-247.0703125,-175.29296875,-30.76171875
190.4296875,999.51171875,999.51171875,-15.13671875
-21.484375,895.99609375,481.4453125,-69.82421875
-259.27734375,-409.1796875,-855.95703125,-93.26171875
-250.9765625,-1000.0,-1000.0,-64.94140625
90.33203125,-217.28515625,-213.8671875,-22.94921875
244.140625,953.125,999.51171875,-21.484375
9.765625,999.51171875,738.76953125,-64.94140625
-245.60546875,139.6484375,-593.75,-86.42578125
-298.33984375,-1000.0,-1000.0,-82.03125
37.109375,-197.75390625,-196.2890625,-25.390625
243.1640625,999.51171875,999.51171875,-0.48828125
34.66796875,999.51171875,913.0859375,-35.64453125
-223.14453125,150.87890625,-319.3359375,-77.1484375
-303.22265625,-1000.0,-1000.0,-86.9140625
-25.87890625,-732.91015625,-294.43359375,-29.296875
250.0,629.39453125,954.58984375,-6.34765625
111.81640625,999.51171875,999.51171875,-46.875
-191.89453125,160.15625,-40.0390625,-58.59375
-310.05859375,-1000.0,-1000.0,-71.77734375
-73.2421875,-972.16796875,-461.9140625,-41.9921875
210.44921875,274.90234375,846.19140625,17.578125
132.32421875,999.51171875,999.51171875,-11.23046875
-150.390625,314.94140625,153.3203125,-79.1015625
-317.3828125,-970.21484375,-1000.0,-102.5390625
-124.0234375,-1000.0,-693.84765625,-55.17578125
198.73046875,68.84765625,660.15625,4.8828125
158.203125,999.51171875,999.51171875,-17.578125
-151.85546875,284.1796875,148.4375,-84.9609375
-323.73046875,-983.3984375,-1000.0,-91.796875
-164.55078125,-1000.0,-908.69140625,-42.96875
159.66796875,-32.71484375,368.65234375,10.7421875
171.875,999.51171875,999.51171875,-3.90625
-113.76953125,395.5078125,183.10546875,-67.87109375
-303.7109375,-912.59765625,-1000.0,-93.26171875
-190.4296875,-1000.0,-1000.0,-42.48046875
159.1796875,-219.7265625,124.0234375,2.44140625
215.33203125,999.51171875,999.51171875,-24.90234375
-82.03125,801.7578125,297.36328125,-63.96484375
-300.78125,-541.50390625,-963.8671875,-72.75390625
-231.93359375,-1000.0,-1000.0,-59.08203125
110.3515625,-182.6171875,-77.63671875,-17.08984375
216.796875,999.51171875,999.51171875,-14.6484375
-28.80859375,999.51171875,513.18359375,-51.26953125
-260.25390625,-191.89453125,-823.2421875,-84.47265625
-252.9296875,-1000.0,-1000.0,-60.05859375
90.8203125,-183.59375,-148.4375,7.8125
235.83984375,999.51171875,999.51171875,11.71875
-14.16015625,999.51171875,686.5234375,-51.26953125
-257.32421875,-120.60546875,-648.4375,-92.28515625
-281.73828125,-1000.0,-1000.0,-65.4296875
43.9453125,-429.6875,-202.1484375,-25.87890625
240.234375,890.13671875,999.51171875,-15.13671875
37.109375,999.51171875,862.3046875,-39.0625
-229.00390625,10.7421875,-414.55078125,-85.44921875
-300.29296875,-1000.0,-1000.0,-79.1015625
3.41796875,-504.39453125,-233.88671875,-15.625
238.28125,837.40234375,973.6328125,1.953125
74.70703125,999.51171875,999.51171875,-40.52734375
-203.125,206.0546875,-23.4375,-71.77734375
-305.17578125,-1000.0,-1000.0,-74.70703125
-26.3671875,-432.6171875,-322.265625,-25.87890625
235.83984375,907.71484375,945.3125,22.4609375
99.12109375,999.51171875,999.51171875,-29.296875
-180.17578125,177.24609375,67.3828125,-86.42578125
-306.15234375,-1000.0,-1000.0,-73.73046875
-89.35546875,-984.86328125,-559.08203125,-22.4609375
208.0078125,262.6953125,781.25,12.6953125
131.8359375,999.51171875,999.51171875,-25.390625
-140.13671875,234.375,142.08984375,-67.3828125
-277.34375,-1000.0,-1000.0,-66.89453125
-104.00390625,-1000.0,-756.34765625,-28.3203125
197.75390625,87.890625,579.1015625,26.3671875
176.26953125,999.51171875,999.51171875,1.46484375
-88.8671875,401.3671875,177.734375,-62.98828125
-273.4375,-898.4375,-1000.0,-64.453125
-144.04296875,-1000.0,-958.49609375,-27.34375
182.6171875,-197.265625,279.78515625,21.97265625
224.609375,999.51171875,999.51171875,25.87890625
-49.31640625,681.640625,249.0234375,-22.94921875
-261.23046875,-709.9609375,-999.0234375,-61.03515625
-178.7109375,-1000.0,-1000.0,-35.15625
168.45703125,-89.84375,49.8046875,30.76171875
245.1171875,999.51171875,999.51171875,19.04296875
-47.36328125,736.81640625,367.1875,-46.38671875
-276.3671875,-599.609375,-919.43359375,-66.89453125
-213.37890625,-1000.0,-1000.0,-61.5234375
135.25390625,-193.359375,-149.4140625,0.9765625
273.4375,999.51171875,999.51171875,24.90234375
3.41796875,937.98828125,567.87109375,-25.390625
-273.4375,-316.40625,-777.34375,-74.21875
-270.01953125,-1000.0,-1000.0,-50.78125
62.5,-263.18359375,-179.19921875,2.44140625
241.69921875,929.19921875,999.51171875,19.53125
37.109375,999.51171875,911.1328125,-29.78515625
-218.75,222.65625,-331.0546875,-78.61328125
-278.3203125,-1000.0,-1000.0,-60.546875
37.59765625,-601.07421875,-207.03125,-10.7421875
249.51171875,789.0625,999.51171875,17.578125
76.66015625,999.51171875,999.51171875,-18.06640625
-173.828125,182.12890625,-109.375,-62.98828125
-280.76171875,-1000.0,-1000.0,-58.59375
-14.16015625,-844.7265625,-317.87109375,-4.39453125
234.375,498.046875,952.1484375,22.94921875
96.19140625,999.51171875,999.51171875,-27.34375
-183.59375,194.82421875,-1.46484375,-69.3359375
-287.109375,-1000.0,-1000.0,-55.17578125
-30.2734375,-515.625,-397.94921875,-18.5546875
218.75,860.83984375,902.83203125,12.6953125
111.81640625,999.51171875,999.51171875,-13.18359375
-178.7109375,151.85546875,106.4453125,-78.61328125
-313.4765625,-1000.0,-1000.0,-81.0546875
-95.21484375,-1000.0,-712.890625,-38.0859375
207.51953125,10.25390625,624.51171875,-15.13671875
173.828125,999.51171875,999.51171875,-20.01953125
-120.1171875,456.54296875,161.1328125,-49.8046875
-292.96875,-929.19921875,-1000.0,-69.82421875
-135.25390625,-1000.0,-884.765625,-72.75390625
187.98828125,138.18359375,409.66796875,-49.31640625
190.91796875,999.51171875,999.51171875,-27.34375
-113.28125,426.7578125,199.70703125,-63.96484375
-310.546875,-876.953125,-1000.0,-85.44921875
-186.5234375,-1000.0,-1000.0,-50.29296875
146.97265625,-214.84375,121.09375,-4.39453125
213.8671875,999.51171875,999.51171875,-1.953125
-39.0625,829.1015625,329.58984375,-57.6171875
-282.71484375,-501.46484375,-942.87109375,-105.46875
-251.46484375,-1000.0,-1000.0,-59.5703125
99.12109375,-156.73828125,-109.86328125,16.6015625
220.21484375,967.7734375,999.51171875,14.6484375
-20.5078125,999.51171875,624.0234375,-39.55078125
-237.79296875,185.546875,-713.8671875,-74.21875
-240.234375,-1000.0,-1000.0,-62.5
67.87109375,-358.88671875,-180.17578125,-8.30078125
222.16796875,940.91796875,999.51171875,-6.34765625
5.37109375,999.51171875,727.05078125,-59.5703125
-236.328125,181.15234375,-601.5625,-82.03125
-275.390625,-1000.0,-1000.0,-69.82421875
32.71484375,-552.734375,-205.078125,-9.765625
221.19140625,832.03125,999.51171875,3.90625
30.2734375,999.51171875,928.7109375,-46.38671875
-219.7265625,151.85546875,-302.24609375,-84.9609375
-279.78515625,-1000.0,-1000.0,-85.44921875
9.27734375,-585.44921875,-240.72265625,-40.0390625
217.28515625,792.96875,982.91015625,-5.37109375
82.03125,999.51171875,999.51171875,-33.69140625
-185.546875,179.19921875,-62.98828125,-83.49609375
-299.31640625,-1000.0,-1000.0,-91.30859375
-39.0625,-866.2109375,-386.71875,-25.390625
215.33203125,437.5,902.34375,3.41796875
100.09765625,999.51171875,999.51171875,-23.92578125
-179.19921875,467.7734375,114.2578125,-71.2890625
-310.546875,-905.76171875,-1000.0,-112.3046875
-95.703125,-1000.0,-612.79296875,-39.0625
185.05859375,196.2890625,739.2578125,22.4609375
146.97265625,999.51171875,999.51171875,-20.5078125
-145.5078125,269.53125,158.203125,-83.984375
-349.12109375,-978.02734375,-1000.0,-80.078125
-145.99609375,-1000.0,-828.61328125,-32.2265625
167.48046875,-51.26953125,487.3046875,-3.90625
157.2265625,999.51171875,999.51171875,-8.7890625
-103.515625,443.84765625,177.24609375,-56.15234375
-292.48046875,-893.5546875,-1000.0,-101.5625
-176.26953125,-1000.0,-990.234375,-61.03515625
137.20703125,-137.6953125,214.84375,2.9296875
197.75390625,999.51171875,999.51171875,-11.23046875
-71.77734375,996.09375,311.03515625,-63.96484375
-298.828125,-186.03515625,-960.9375,-93.75
-219.23828125,-1000.0,-1000.0,-78.61328125
115.234375,-209.47265625,-16.11328125,-12.6953125
216.796875,999.51171875,999.51171875,7.32421875
-39.55078125,857.91015625,420.8984375,-50.29296875
-282.2265625,-463.8671875,-887.6953125,-98.6328125
-255.859375,-1000.0,-1000.0,-74.70703125
79.58984375,-180.17578125,-161.1328125,-5.37109375
221.6796875,999.51171875,999.51171875,-0.48828125
-16.6015625,999.51171875,633.7890625,-68.359375
-271.484375,-166.50390625,-710.9375,-125.9765625
-278.80859375,-1000.0,-1000.0,-89.35546875
68.359375,-188.96484375,-174.31640625,-1.953125
245.60546875,968.26171875,999.51171875,12.6953125
20.01953125,999.51171875,906.73828125,-49.8046875
-240.234375,210.9375,-335.9375,-97.65625
-286.62109375,-1000.0,-1000.0,-89.84375
15.625,-563.4765625,-221.6796875,-18.5546875
221.19140625,820.80078125,999.0234375,14.16015625
50.78125,999.51171875,999.51171875,-39.0625
-220.21484375,193.84765625,-123.046875,-87.40234375
-312.01171875,-1000.0,-1000.0,-78.61328125
-31.25,-715.33203125,-322.75390625,-29.78515625
231.4453125,668.45703125,941.40625,10.25390625
100.09765625,999.51171875,999.51171875,-32.71484375
-196.2890625,159.1796875,35.64453125,-94.23828125
-314.94140625,-1000.0,-1000.0,-90.33203125
-89.84375,-991.69921875,-498.53515625,-53.22265625
187.01171875,256.34765625,830.56640625,-17.578125
138.671875,999.51171875,999.51171875,-26.3671875
-151.85546875,192.87109375,140.625,-74.21875
-313.96484375,-1000.0,-1000.0,-98.6328125
-108.3984375,-1000.0,-742.1875,-44.43359375
181.15234375,16.6015625,597.16796875,-16.6015625
159.1796875,999.51171875,999.51171875,-35.64453125
-108.88671875,800.78125,179.19921875,-74.21875
-302.734375,-482.91015625,-1000.0,-91.796875
-172.36328125,-1000.0,-979.98046875,-53.22265625
142.08984375,-219.7265625,248.53515625,-18.06640625
171.38671875,999.51171875,999.51171875,-38.0859375
-99.609375,537.109375,215.33203125,-80.56640625
-297.36328125,-848.14453125,-1000.0,-82.51953125
-194.82421875,-1000.0,-1000.0,-50.29296875
129.8828125,-212.890625,59.08203125,-5.37109375
195.80078125,999.51171875,999.51171875,-18.5546875
-77.63671875,878.90625,333.0078125,-75.1953125
-300.29296875,-483.88671875,-960.9375,-105.46875
-225.09765625,-1000.0,-1000.0,-83.984375
118.1640625,64.453125,-20.99609375,-10.7421875
196.2890625,999.51171875,999.51171875,-9.27734375
-55.17578125,889.16015625,525.87890625,-63.96484375
-271.97265625,-330.56640625,-797.36328125,-95.21484375
-259.765625,-1000.0,-1000.0,-68.359375
69.3359375,-223.14453125,-186.5234375,-20.99609375
228.02734375,965.8203125,999.51171875,-21.97265625
-3.90625,999.51171875,773.92578125,-52.24609375
-262.6953125,50.78125,-543.9453125,-100.5859375
-297.36328125,-1000.0,-1000.0,-104.00390625
9.765625,-427.24609375,-195.3125,-43.9453125
212.890625,885.7421875,999.51171875,-24.4140625
35.15625,999.51171875,999.51171875,-57.12890625
-228.02734375,202.63671875,-134.765625,-89.84375
-316.40625,-1000.0,-1000.0,-96.19140625
-50.78125,-740.234375,-293.45703125,-29.296875
194.82421875,637.6953125,973.6328125,7.32421875
72.75390625,999.51171875,999.51171875,-50.29296875
-199.21875,166.015625,-79.1015625,-92.7734375
-300.29296875,-1000.0,-1000.0,-88.8671875
-53.22265625,-917.96875,-437.5,-37.59765625
218.75,357.421875,862.79296875,16.6015625
128.90625,999.51171875,999.51171875,-20.01953125
-155.2734375,580.078125,141.11328125,-91.796875
-312.5,-791.50390625,-1000.0,-97.16796875
-112.79296875,-1000.0,-687.98828125,-61.03515625
187.01171875,128.41796875,666.50390625,-12.6953125
131.8359375,999.51171875,999.51171875,-23.4375
-147.94921875,283.203125,149.90234375,-78.61328125
-300.29296875,-967.28515625,-1000.0,-99.609375
-145.99609375,-1000.0,-866.69921875,-52.734375
172.8515625,-118.65234375,430.17578125,3.90625
200.1953125,999.51171875,999.51171875,-4.39453125
-77.1484375,575.68359375,196.2890625,-46.38671875
-289.0625,-809.5703125,-1000.0,-81.0546875
-178.22265625,-1000.0,-974.12109375,-40.52734375
139.16015625,-60.546875,252.44140625,11.23046875
176.7578125,999.51171875,999.51171875,-20.99609375
-78.125,748.53515625,285.15625,-61.03515625
-285.64453125,-578.125,-966.30859375,-78.61328125
-220.703125,-1000.0,-1000.0,-60.546875
127.9296875,-193.359375,-55.6640625,-3.41796875
248.53515625,999.51171875,999.51171875,5.37109375
-34.1796875,901.3671875,426.26953125,-49.31640625
-283.69140625,-389.16015625,-886.23046875,-92.28515625
-240.234375,-1000.0,-1000.0,-82.03125
96.19140625,-177.24609375,-175.29296875,-17.08984375
243.65234375,994.140625,999.51171875,7.32421875
25.87890625,999.51171875,672.36328125,-33.69140625
-227.05078125,-45.8984375,-670.41015625,-68.359375
-255.859375,-1000.0,-1000.0,-51.7578125
54.19921875,-420.41015625,-206.0546875,-31.25
227.5390625,915.52734375,999.51171875,-33.69140625
-0.48828125,999.51171875,814.453125,-52.24609375
-270.01953125,-78.61328125,-491.69921875,-109.375
-338.37890625,-1000.0,-1000.0,-110.83984375
-33.203125,-229.00390625,-210.44921875,-38.57421875
206.0546875,959.47265625,998.53515625,-16.11328125
24.4140625,999.51171875,999.51171875,-64.94140625
-240.72265625,200.1953125,-119.62890625,-119.140625
-329.58984375,-1000.0,-1000.0,-132.32421875
-80.078125,-1000.0,-423.33984375,-70.80078125
174.8046875,152.83203125,888.18359375,-17.08984375
79.58984375,999.51171875,999.51171875,-49.31640625
-201.66015625,169.921875,24.4140625,-84.47265625
-321.2890625,-1000.0,-1000.0,-81.0546875
-95.703125,-928.22265625,-559.5703125,-51.26953125
201.171875,360.3515625,779.78515625,-8.30078125
127.44140625,999.51171875,999.51171875,-30.2734375
-153.80859375,263.671875,133.30078125,-96.6796875
-293.9453125,-1000.0,-1000.0,-106.4453125
-133.30078125,-751.953125,-691.89453125,-55.6640625
177.734375,620.1171875,657.71484375,-24.90234375
154.78515625,999.51171875,999.51171875,-29.296875
-131.8359375,387.20703125,166.015625,-81.54296875
-303.22265625,-885.25390625,-1000.0,-112.79296875
-171.38671875,-1000.0,-975.5859375,-68.84765625
145.5078125,-200.1953125,249.51171875,-9.27734375
190.4296875,999.51171875,999.51171875,-13.18359375
-87.890625,593.75,222.16796875,-67.3828125
-292.48046875,-788.0859375,-1000.0,-86.9140625
-202.1484375,-1000.0,-1000.0,-63.4765625
129.8828125,-199.21875,37.59765625,-22.4609375
210.9375,999.51171875,999.51171875,-11.23046875
-53.7109375,926.7578125,397.4609375,-57.6171875
-285.64453125,-351.07421875,-903.80859375,-87.40234375
-237.79296875,-1000.0,-1000.0,-59.08203125
129.8828125,-178.7109375,-129.8828125,-10.25390625
237.79296875,999.51171875,999.51171875,-0.9765625
-41.9921875,999.51171875,590.8203125,-39.55078125
-269.04296875,-128.90625,-750.0,-88.8671875
-259.765625,-1000.0,-1000.0,-89.84375
54.19921875,-253.41796875,-180.17578125,-24.4140625
222.16796875,944.82421875,999.51171875,-6.8359375
9.765625,999.51171875,810.05859375,-64.453125
-244.140625,216.796875,-484.375,-97.65625
-295.8984375,-1000.0,-1000.0,-101.07421875
-10.25390625,-715.8203125,-221.6796875,-43.45703125
210.44921875,667.96875,999.51171875,-12.6953125
62.98828125,999.51171875,954.58984375,-51.26953125
-220.703125,167.96875,-250.0,-79.1015625
-321.2890625,-1000.0,-1000.0,-89.35546875
-29.78515625,-772.4609375,-299.8046875,-33.203125
216.30859375,594.23828125,951.171875,4.39453125
86.9140625,999.51171875,999.51171875,-30.76171875
-187.01171875,195.3125,-11.23046875,-84.47265625
-317.3828125,-1000.0,-1000.0,-86.9140625
-51.7578125,-473.6328125,-394.04296875,-29.296875
226.5625,880.37109375,901.85546875,-15.13671875
115.72265625,999.51171875,999.51171875,-30.2734375
-165.52734375,200.68359375,123.046875,-62.01171875
-299.31640625,-1000.0,-1000.0,-76.171875
-87.890625,-1000.0,-707.51953125,-32.71484375
199.70703125,33.69140625,636.71875,7.32421875
164.0625,999.51171875,999.51171875,-11.23046875
-123.53515625,410.64453125,159.1796875,-78.125
-299.31640625,-961.9140625,-1000.0,-98.14453125
-137.20703125,-1000.0,-848.14453125,-47.8515625
185.546875,179.19921875,461.9140625,5.859375
196.2890625,999.51171875,999.51171875,-14.16015625
-103.515625,362.79296875,188.4765625,-65.91796875
-308.10546875,-909.1796875,-1000.0,-89.35546875
-190.91796875,-1000.0,-1000.0,-64.453125
139.6484375,-240.72265625,92.28515625,-9.765625
209.47265625,999.51171875,999.51171875,-6.8359375
-71.2890625,662.59765625,295.41015625,-55.17578125
-295.41015625,-722.65625,-962.40234375,-91.30859375
-223.6328125,-1000.0,-1000.0,-70.80078125
94.23828125,-170.8984375,-111.328125,-23.92578125
187.01171875,979.00390625,999.51171875,-14.6484375
-46.875,999.51171875,512.6953125,-64.94140625
-260.25390625,22.4609375,-826.66015625,-91.30859375
-262.6953125,-1000.0,-1000.0,-69.3359375
62.98828125,-189.453125,-133.30078125,-31.25
220.703125,999.51171875,999.51171875,-13.18359375
4.8828125,999.51171875,751.46484375,-57.12890625
-240.72265625,51.7578125,-562.98828125,-87.40234375
-288.57421875,-1000.0,-1000.0,-86.42578125
28.3203125,-515.13671875,-202.63671875,-32.2265625
221.19140625,832.51953125,999.51171875,15.625
33.203125,999.51171875,902.34375,-27.34375
-213.37890625,196.2890625,-344.7265625,-69.3359375
-301.26953125,-1000.0,-1000.0,-72.265625
-25.87890625,-388.18359375,-228.515625,-38.57421875
210.9375,925.78125,987.3046875,-11.71875
80.078125,999.51171875,999.51171875,-45.8984375
-201.171875,224.609375,-63.96484375,-91.796875
-331.54296875,-1000.0,-1000.0,-99.12109375
-57.12890625,-908.203125,-410.15625,-45.8984375
226.5625,417.48046875,896.97265625,-20.99609375
109.86328125,999.51171875,999.51171875,-49.31640625
-187.98828125,150.390625,57.12890625,-87.890625
-321.2890625,-1000.0,-1000.0,-94.23828125
-106.4453125,-1000.0,-617.1875,-48.828125
205.56640625,185.05859375,725.5859375,-7.8125
144.53125,999.51171875,999.51171875,-36.62109375
-172.36328125,361.81640625,157.71484375,-90.8203125
-319.3359375,-946.2890625,-1000.0,-104.4921875
-131.34765625,-1000.0,-792.48046875,-77.1484375
162.109375,45.8984375,533.69140625,-20.5078125
151.3671875,999.51171875,999.51171875,-26.3671875
-117.67578125,696.77734375,199.70703125,-68.359375
-307.12890625,-625.48828125,-1000.0,-85.9375
-186.03515625,-1000.0,-990.234375,-58.59375
159.1796875,-172.8515625,229.4921875,-4.8828125
201.66015625,999.51171875,999.51171875,-2.9296875
-103.02734375,768.06640625,267.578125,-66.40625
-302.734375,-576.171875,-983.3984375,-100.5859375
-198.2421875,-1000.0,-1000.0,-45.41015625
116.69921875,-204.58984375,-10.7421875,11.23046875
197.265625,999.51171875,999.51171875,-18.06640625
-54.19921875,854.98046875,381.8359375,-67.3828125
-269.04296875,-468.75,-915.52734375,-85.44921875
-230.95703125,-1000.0,-1000.0,-75.1953125
72.265625,-166.015625,-142.08984375,-27.83203125
219.7265625,982.91015625,999.51171875,-2.9296875
-3.90625,999.51171875,708.984375,-43.9453125
-273.92578125,30.2734375,-625.0,-92.28515625
-286.62109375,-1000.0,-1000.0,-82.03125
59.5703125,-193.84765625,-182.12890625,-10.25390625
236.328125,999.51171875,999.51171875,11.71875
17.578125,999.51171875,812.01171875,-39.0625
-237.3046875,-7.32421875,-485.83984375,-84.47265625
-293.9453125,-1000.0,-1000.0,-76.171875
6.34765625,-671.875,-233.3984375,-28.80859375
213.8671875,669.921875,999.51171875,-20.99609375
62.98828125,999.51171875,978.02734375,-37.59765625
-215.33203125,166.9921875,-207.51953125,-86.9140625
-328.61328125,-1000.0,-1000.0,-112.3046875
-7.32421875,-504.8828125,-301.26953125,-39.0625
231.93359375,845.703125,935.546875,9.765625
67.87109375,999.51171875,999.51171875,-21.97265625
-180.17578125,391.6015625,102.05078125,-67.87109375
-298.828125,-963.37890625,-1000.0,-71.77734375
-81.0546875,-1000.0,-502.9296875,-26.3671875
190.91796875,249.0234375,838.37890625,-2.9296875
113.76953125,999.51171875,999.51171875,-21.484375
-167.48046875,179.6875,125.9765625,-60.546875
-321.2890625,-1000.0,-1000.0,-84.9609375
-127.44140625,-1000.0,-763.671875,-61.03515625
174.8046875,-118.1640625,567.3828125,-10.7421875
172.36328125,999.51171875,999.51171875,-19.53125
-125.9765625,454.1015625,162.59765625,-82.51953125
-314.453125,-893.06640625,-1000.0,-96.19140625
-155.76171875,-1000.0,-952.63671875,-55.6640625
136.71875,-207.51953125,291.9921875,-6.34765625
189.94140625,999.51171875,999.51171875,-22.94921875
-79.1015625,612.79296875,208.49609375,-79.1015625
-302.24609375,-772.4609375,-1000.0,-89.35546875
-197.75390625,-1000.0,-1000.0,-60.05859375
132.32421875,-220.703125,32.2265625,-11.71875
205.078125,999.51171875,999.51171875,-11.71875
-68.84765625,739.74609375,304.19921875,-78.61328125
-294.921875,-636.23046875,-967.7734375,-107.421875
-249.51171875,-1000.0,-1000.0,-72.265625
85.44921875,-141.6015625,-83.0078125,-20.01953125
206.0546875,999.51171875,999.51171875,-9.27734375
-34.66796875,999.51171875,503.41796875,-66.40625
-266.6015625,-145.01953125,-821.77734375,-110.3515625
-254.8828125,-1000.0,-1000.0,-77.63671875
72.75390625,-251.46484375,-188.96484375,-16.6015625
220.703125,965.8203125,999.51171875,-15.625
8.7890625,999.51171875,763.671875,-65.4296875
-239.2578125,43.9453125,-557.6171875,-91.796875
-298.828125,-1000.0,-1000.0,-81.0546875
23.92578125,-410.64453125,-197.75390625,-21.484375
237.79296875,893.06640625,999.51171875,13.18359375
41.9921875,999.51171875,977.05078125,-48.33984375
-227.5390625,215.33203125,-203.125,-94.7265625
-309.08203125,-1000.0,-1000.0,-75.1953125
1.46484375,-535.64453125,-258.7890625,-18.06640625
237.3046875,850.5859375,983.88671875,0.48828125
79.1015625,999.51171875,999.51171875,-46.875
-202.1484375,161.1328125,-79.58984375,-80.56640625
-316.40625,-1000.0,-1000.0,-86.42578125
-61.03515625,-961.42578125,-417.96875,-57.6171875
210.44921875,311.5234375,882.8125,-20.99609375
109.86328125,999.51171875,999.51171875,-30.2734375
-182.6171875,149.90234375,86.9140625,-63.96484375
-314.453125,-1000.0,-1000.0,-77.1484375
-96.19140625,-1000.0,-612.3046875,-30.2734375
194.3359375,159.1796875,734.375,1.46484375
139.6484375,999.51171875,999.51171875,-38.57421875
-136.71875,369.140625,147.4609375,-75.1953125
-305.6640625,-917.48046875,-1000.0,-94.7265625
-159.66796875,-1000.0,-853.02734375,-53.7109375
165.52734375,-148.92578125,445.3125,6.8359375
177.734375,999.51171875,999.51171875,-10.7421875
-114.2578125,582.51953125,204.1015625,-68.359375
-302.734375,-803.22265625,-1000.0,-96.6796875
-166.015625,-1000.0,-1000.0,-51.7578125
151.85546875,-135.7421875,184.5703125,-1.953125
188.4765625,999.51171875,999.51171875,-34.66796875
-72.265625,561.03515625,254.8828125,-81.54296875
-270.5078125,-806.15234375,-986.81640625,-88.37890625
-200.1953125,-1000.0,-1000.0,-56.640625
134.765625,-206.54296875,-43.9453125,-13.18359375
226.5625,999.51171875,999.51171875,8.30078125
-51.7578125,894.53125,425.78125,-51.26953125
-279.296875,-397.94921875,-884.765625,-93.26171875
-256.34765625,-1000.0,-1000.0,-55.17578125
86.42578125,-199.70703125,-172.36328125,-5.859375
247.55859375,951.171875,999.51171875,2.9296875
-1.953125,999.51171875,740.234375,-68.359375
-258.30078125,218.75,-582.03125,-105.46875
-289.0625,-1000.0,-1000.0,-78.61328125
41.015625,-212.40234375,-187.01171875,-15.625
236.81640625,999.51171875,999.51171875,1.46484375
23.92578125,999.51171875,864.74609375,-53.7109375
-237.3046875,99.12109375,-408.203125,-93.75
-299.31640625,-1000.0,-1000.0,-87.890625
2.9296875,-528.3203125,-227.05078125,-32.71484375
231.4453125,830.078125,996.09375,-23.4375
70.3125,999.51171875,999.51171875,-59.08203125
-214.35546875,183.59375,-132.32421875,-97.65625
-310.05859375,-1000.0,-1000.0,-107.91015625
-36.1328125,-862.79296875,-335.44921875,-41.50390625
219.7265625,473.14453125,937.98828125,20.01953125
106.4453125,999.51171875,999.51171875,-3.41796875
-173.33984375,163.57421875,15.625,-83.0078125
-309.08203125,-1000.0,-1000.0,-91.796875
-79.1015625,-931.640625,-492.1875,-31.25
204.58984375,360.3515625,833.0078125,-3.41796875
128.90625,999.51171875,999.51171875,-43.45703125
-170.41015625,176.26953125,126.953125,-90.33203125
-333.49609375,-1000.0,-1000.0,-100.09765625
-131.34765625,-1000.0,-773.4375,-40.52734375
179.6875,148.4375,561.03515625,-1.953125
154.78515625,999.51171875,999.51171875,-26.85546875
-127.9296875,300.29296875,146.97265625,-72.265625
-322.75390625,-942.3828125,-1000.0,-83.0078125
-170.41015625,-1000.0,-965.33203125,-42.96875
167.96875,-225.09765625,261.71875,-7.8125
203.125,999.51171875,999.51171875,-19.53125
-68.84765625,618.1640625,230.95703125,-57.6171875
-292.48046875,-794.43359375,-1000.0,-91.30859375
-212.890625,-1000.0,-1000.0,-74.70703125
124.51171875,-4.8828125,141.11328125,-11.71875
200.1953125,999.51171875,999.51171875,-4.8828125
-55.17578125,999.51171875,424.8046875,-57.6171875
-271.97265625,40.52734375,-875.0,-70.3125
-241.2109375,-1000.0,-1000.0,-59.5703125
95.21484375,-247.55859375,-132.8125,-27.83203125
232.421875,999.51171875,999.51171875,-3.90625
-22.94921875,904.78515625,535.64453125,-55.17578125
-252.9296875,-374.0234375,-805.17578125,-83.984375
-258.7890625,-1000.0,-1000.0,-68.84765625
43.45703125,-277.34375,-189.453125,-35.64453125
232.91015625,929.19921875,999.51171875,-4.39453125
10.7421875,999.51171875,822.265625,-37.59765625
-256.34765625,147.4609375,-478.02734375,-90.8203125
-289.55078125,-1000.0,-1000.0,-83.984375
29.78515625,-205.078125,-192.3828125,-27.34375
235.3515625,999.51171875,999.51171875,3.90625
48.828125,999.51171875,907.71484375,-23.92578125
-229.4921875,66.89453125,-327.1484375,-78.61328125
-323.73046875,-1000.0,-1000.0,-93.26171875
-32.71484375,-621.58203125,-281.25,-16.6015625
230.46875,736.328125,958.0078125,9.27734375
83.0078125,999.51171875,999.51171875,-49.8046875
-198.73046875,186.03515625,-25.390625,-72.75390625
-317.3828125,-1000.0,-1000.0,-89.84375
-67.87109375,-776.3671875,-447.265625,-55.6640625
208.0078125,587.40234375,864.74609375,2.9296875
103.02734375,999.51171875,999.51171875,-30.76171875
-175.78125,194.3359375,127.44140625,-83.984375
-310.546875,-1000.0,-1000.0,-90.33203125
-95.21484375,-1000.0,-656.73828125,-32.2265625
187.5,117.67578125,694.3359375,7.8125
140.13671875,999.51171875,999.51171875,-31.73828125
-153.80859375,272.94921875,162.109375,-85.44921875
-325.68359375,-986.328125,-1000.0,-86.9140625
-151.3671875,-1000.0,-832.51953125,-48.828125
160.64453125,21.484375,476.5625,-12.6953125
168.45703125,999.51171875,999.51171875,-7.32421875
-118.1640625,886.23046875,231.93359375,-68.84765625
-310.05859375,-346.6796875,-1000.0,-94.23828125
-193.84765625,-1000.0,-1000.0,-38.57421875
134.27734375,-218.75,166.50390625,5.37109375
201.171875,999.51171875,999.51171875,-3.90625
-65.4296875,701.66015625,289.55078125,-54.19921875
-291.015625,-675.78125,-965.8203125,-102.05078125
-204.58984375,-1000.0,-1000.0,-75.68359375
115.234375,-197.265625,-79.58984375,-10.25390625
211.42578125,999.51171875,999.51171875,-1.953125
-28.3203125,926.7578125,488.28125,-52.734375
-261.23046875,-362.3046875,-852.05078125,-80.078125
-248.53515625,-1000.0,-1000.0,-67.87109375
86.42578125,-106.4453125,-106.93359375,-31.25
225.09765625,999.51171875,999.51171875,-12.6953125
-1.46484375,999.51171875,720.21484375,-38.57421875
-226.5625,-15.625,-597.16796875,-71.2890625
-278.3203125,-1000.0,-1000.0,-72.265625
20.5078125,-391.6015625,-191.89453125,-8.30078125
224.12109375,894.04296875,999.51171875,9.27734375
47.36328125,999.51171875,903.80859375,-43.45703125
-212.40234375,214.35546875,-342.7734375,-97.65625
-300.78125,-1000.0,-1000.0,-106.4453125
-13.671875,-583.49609375,-214.84375,-24.90234375
225.09765625,808.10546875,991.69921875,11.23046875
82.51953125,999.51171875,999.51171875,-38.0859375
-207.51953125,171.875,-65.4296875,-81.54296875
-329.58984375,-1000.0,-1000.0,-73.73046875
-40.52734375,-842.28515625,-343.26171875,-23.4375
223.6328125,498.046875,926.7578125,-9.27734375
109.86328125,999.51171875,999.51171875,-35.15625
-182.6171875,153.80859375,94.23828125,-61.03515625
-340.8203125,-1000.0,-1000.0,-78.61328125
-99.12109375,-1000.0,-540.52734375,-36.62109375
192.87109375,242.1875,797.36328125,7.32421875
125.9765625,999.51171875,999.51171875,-26.3671875
-153.80859375,819.82421875,180.6640625,-71.77734375
-320.80078125,-472.16796875,-1000.0,-76.66015625
-150.87890625,-1000.0,-753.90625,-59.08203125
158.69140625,39.55078125,592.28515625,-20.99609375
143.5546875,999.51171875,999.51171875,-39.55078125
-141.11328125,401.3671875,186.5234375,-89.35546875
-325.68359375,-907.2265625,-1000.0,-101.5625
-179.6875,-1000.0,-956.54296875,-69.3359375
156.25,-208.49609375,291.50390625,-12.20703125
194.3359375,999.51171875,999.51171875,-31.25
-103.515625,481.4453125,247.0703125,-87.890625
-337.890625,-904.78515625,-1000.0,-88.37890625
-217.7734375,-1000.0,-1000.0,-53.7109375
129.8828125,-71.77734375,121.09375,-10.7421875
212.890625,999.51171875,999.51171875,-4.39453125
-41.50390625,999.51171875,472.16796875,-51.26953125
-272.4609375,-139.16015625,-839.84375,-82.51953125
-236.328125,-1000.0,-1000.0,-74.21875
87.890625,-180.17578125,-102.5390625,-20.01953125
226.07421875,999.51171875,999.51171875,2.44140625
-14.6484375,999.51171875,658.69140625,-40.52734375
-275.87890625,-53.7109375,-675.78125,-84.47265625
-265.625,-1000.0,-1000.0,-60.546875
60.05859375,-242.1875,-169.921875,-6.34765625
215.33203125,977.05078125,999.51171875,-9.27734375
8.30078125,999.51171875,845.703125,-49.8046875
-235.83984375,54.19921875,-434.08203125,-98.6328125
-301.7578125,-1000.0,-1000.0,-95.21484375
10.7421875,-485.83984375,-198.2421875,-25.390625
233.88671875,852.5390625,999.51171875,4.39453125
60.546875,999.51171875,999.51171875,-44.43359375
-193.84765625,205.56640625,-118.65234375,-85.9375
-313.4765625,-1000.0,-1000.0,-85.44921875
-33.69140625,-618.1640625,-270.01953125,-36.1328125
220.703125,761.71875,960.9375,-4.8828125
90.33203125,999.51171875,999.51171875,-32.2265625
-178.7109375,278.3203125,68.84765625,-79.58984375
-316.89453125,-1000.0,-1000.0,-100.5859375
-66.40625,-1000.0,-458.49609375,-45.8984375
217.7734375,257.8125,867.1875,-3.90625
135.25390625,999.51171875,999.51171875,-32.71484375
-171.875,139.6484375,124.51171875,-93.75
-335.44921875,-1000.0,-1000.0,-112.79296875
-112.79296875,-1000.0,-679.6875,-50.29296875
184.08203125,10.7421875,664.0625,-3.41796875
139.6484375,999.51171875,999.51171875,-30.76171875
-121.58203125,496.09375,187.01171875,-69.82421875
-293.45703125,-933.10546875,-1000.0,-78.125
-144.53125,-1000.0,-803.7109375,-44.921875
187.5,274.4140625,527.34375,-3.41796875
182.12890625,999.51171875,999.51171875,-13.18359375
-120.60546875,255.37109375,189.94140625,-62.98828125
-323.73046875,-954.1015625,-1000.0,-102.5390625
-203.61328125,-1000.0,-1000.0,-77.1484375
138.671875,-246.58203125,93.26171875,-4.8828125
220.703125,999.51171875,999.51171875,4.39453125
-33.69140625,693.359375,318.84765625,-61.03515625
-269.53125,-685.05859375,-958.0078125,-85.44921875
-231.93359375,-1000.0,-1000.0,-52.734375
100.09765625,-167.96875,-64.94140625,-8.30078125
209.47265625,976.5625,999.51171875,5.37109375
-29.78515625,999.51171875,606.93359375,-52.734375
-250.48828125,58.10546875,-723.6328125,-88.37890625
-252.9296875,-1000.0,-1000.0,-72.265625
60.546875,-440.91796875,-190.4296875,-20.5078125
222.65625,916.9921875,999.51171875,-2.9296875
5.37109375,999.51171875,731.4453125,-47.36328125
-246.58203125,-67.87109375,-600.5859375,-79.1015625
-280.76171875,-1000.0,-1000.0,-83.984375
37.59765625,-338.37890625,-185.05859375,-34.1796875
239.74609375,910.15625,999.51171875,4.39453125
33.69140625,999.51171875,960.9375,-28.80859375
-215.33203125,282.71484375,-222.65625,-72.75390625
-289.0625,-1000.0,-1000.0,-82.03125
-31.25,-707.03125,-257.32421875,-25.87890625
215.33203125,699.21875,979.4921875,1.953125
68.84765625,999.51171875,999.51171875,-49.8046875
-199.21875,171.875,-53.7109375,-82.51953125
-298.33984375,-1000.0,-1000.0,-82.03125
-58.10546875,-863.76953125,-381.34765625,-52.24609375
193.84765625,463.8671875,906.73828125,-18.06640625
80.56640625,999.51171875,999.51171875,-24.4140625
-183.59375,235.3515625,108.3984375,-57.12890625
-308.10546875,-1000.0,-1000.0,-97.16796875
-91.796875,-741.69921875,-521.484375,-49.8046875
203.125,637.20703125,821.2890625,9.27734375
139.16015625,999.51171875,999.51171875,-20.01953125
-168.9453125,221.6796875,150.87890625,-70.3125
-325.68359375,-1000.0,-1000.0,-85.44921875
-142.08984375,-1000.0,-811.03515625,-38.57421875
167.48046875,56.15234375,511.71875,2.44140625
180.17578125,999.51171875,999.51171875,-17.578125
-116.69921875,384.27734375,177.734375,-69.82421875
-322.265625,-907.2265625,-1000.0,-101.07421875
-177.734375,-1000.0,-998.046875,-74.21875
136.23046875,-240.72265625,204.58984375,-22.94921875
195.3125,999.51171875,999.51171875,-12.6953125
-75.1953125,607.91015625,265.13671875,-65.4296875
-296.38671875,-783.203125,-984.375,-102.05078125
-186.03515625,-1000.0,-1000.0,-59.5703125
128.41796875,-188.4765625,-20.5078125,1.953125
205.078125,999.51171875,999.51171875,-20.01953125
-27.83203125,999.51171875,471.6796875,-63.96484375
-274.90234375,-193.359375,-854.4921875,-87.890625
-259.765625,-1000.0,-1000.0,-75.68359375
90.33203125,-184.5703125,-126.46484375,-9.765625
230.95703125,999.51171875,999.51171875,2.9296875
-1.46484375,999.51171875,622.55859375,-44.921875
-239.74609375,-138.18359375,-714.84375,-76.171875
-249.51171875,-1000.0,-1000.0,-88.37890625
60.546875,-342.7734375,-193.84765625,-29.296875
232.91015625,931.640625,999.51171875,12.6953125
32.2265625,999.51171875,843.75,-33.69140625
-232.91015625,19.53125,-440.91796875,-81.54296875
-285.15625,-1000.0,-1000.0,-86.42578125
29.296875,-548.33984375,-221.19140625,-20.01953125
253.90625,800.78125,999.51171875,16.11328125
60.05859375,999.51171875,992.1875,-28.80859375
-218.26171875,186.03515625,-172.36328125,-68.84765625
-298.828125,-1000.0,-1000.0,-66.89453125
-15.625,-363.28125,-281.25,-29.296875
243.65234375,938.4765625,957.03125,-2.44140625
94.7265625,999.51171875,999.51171875,-48.33984375
-206.0546875,176.26953125,36.1328125,-92.7734375
-319.82421875,-1000.0,-1000.0,-86.9140625
-65.4296875,-1000.0,-515.13671875,-25.87890625
220.21484375,184.08203125,819.3359375,5.37109375
131.34765625,999.51171875,999.51171875,-28.80859375
-166.015625,197.75390625,135.25390625,-68.359375
-325.68359375,-1000.0,-1000.0,-89.35546875
-116.69921875,-1000.0,-698.73046875,-48.828125
188.96484375,181.15234375,647.94921875,-4.8828125
145.99609375,999.51171875,999.51171875,-18.06640625
-128.90625,594.23828125,195.80078125,-69.3359375
-327.63671875,-785.15625,-1000.0,-105.46875
-165.0390625,-1000.0,-856.4453125,-56.15234375
172.8515625,121.09375,453.61328125,-5.859375
185.546875,999.51171875,999.51171875,-17.578125
-98.6328125,490.72265625,212.890625,-58.10546875
-327.1484375,-832.03125,-1000.0,-84.9609375
-212.40234375,-1000.0,-1000.0,-61.5234375
131.8359375,-169.921875,68.359375,-33.203125
197.75390625,966.796875,999.51171875,-25.390625
-47.8515625,999.51171875,342.28515625,-64.94140625
-274.4140625,139.6484375,-938.4765625,-103.02734375
-232.421875,-1000.0,-1000.0,-61.5234375
99.609375,-250.48828125,-123.046875,3.41796875
200.68359375,999.51171875,999.51171875,1.953125
-42.96875,987.79296875,532.71484375,-57.12890625
-261.23046875,-215.8203125,-806.15234375,-103.02734375
-242.67578125,-1000.0,-1000.0,-85.44921875
74.70703125,-267.08984375,-177.734375,-34.66796875
214.84375,935.05859375,999.51171875,-22.4609375
9.765625,999.51171875,811.03515625,-42.96875
-229.98046875,197.265625,-487.79296875,-73.73046875
-290.0390625,-1000.0,-1000.0,-62.5
28.80859375,-259.27734375,-187.01171875,0.48828125
225.09765625,987.3046875,999.51171875,0.9765625
39.0625,999.51171875,934.08203125,-62.01171875
-230.95703125,158.69140625,-278.3203125,-96.6796875
-312.5,-1000.0,-1000.0,-85.44921875
-12.6953125,-694.3359375,-268.5546875,-25.87890625
216.796875,671.875,958.49609375,-4.8828125
75.1953125,999.51171875,999.51171875,-37.109375
-175.29296875,200.1953125,22.94921875,-75.68359375
-305.17578125,-1000.0,-1000.0,-87.40234375
-71.2890625,-1000.0,-432.6171875,-38.0859375
216.796875,196.2890625,876.46484375,-7.32421875
121.58203125,999.51171875,999.51171875,-38.0859375
-169.43359375,405.2734375,146.97265625,-83.984375
-321.2890625,-953.61328125,-1000.0,-89.84375
-100.09765625,-1000.0,-626.46484375,-37.109375
199.70703125,190.4296875,733.88671875,2.9296875
147.94921875,999.51171875,999.51171875,-30.76171875
-126.953125,268.06640625,154.296875,-71.77734375
-300.78125,-970.21484375,-1000.0,-74.70703125
-135.25390625,-1000.0,-861.81640625,-48.33984375
167.48046875,-110.83984375,437.01171875,-0.9765625
175.29296875,999.51171875,999.51171875,-5.37109375
-94.7265625,615.72265625,212.40234375,-72.265625
-300.78125,-851.07421875,-1000.0,-90.33203125
-159.1796875,-1000.0,-934.5703125,-45.41015625
188.96484375,289.55078125,331.54296875,0.9765625
198.73046875,999.51171875,999.51171875,-15.13671875
-87.890625,474.609375,257.8125,-83.984375
-286.62109375,-832.03125,-972.65625,-100.09765625
-219.23828125,-1000.0,-1000.0,-52.24609375
97.16796875,-191.40625,-79.1015625,-18.5546875
196.2890625,999.51171875,999.51171875,-21.97265625
-26.85546875,999.51171875,491.69921875,-57.6171875
-254.39453125,-161.1328125,-841.796875,-79.1015625
-264.16015625,-1000.0,-1000.0,-75.68359375
67.87109375,-202.1484375,-156.25,-28.80859375
238.76953125,999.51171875,999.51171875,7.8125
-6.34765625,911.1328125,638.18359375,-27.34375
-274.4140625,-345.21484375,-705.078125,-79.58984375
-280.2734375,-1000.0,-1000.0,-69.3359375
54.19921875,-383.7890625,-196.2890625,-3.41796875
234.86328125,885.25390625,999.51171875,5.859375
25.390625,999.51171875,875.9765625,-39.0625
-218.75,127.9296875,-392.578125,-85.9375
-294.43359375,-1000.0,-1000.0,-75.68359375
12.20703125,-520.99609375,-222.16796875,-16.11328125
225.09765625,844.23828125,983.88671875,-18.06640625
46.38671875,999.51171875,999.51171875,-46.38671875
-205.56640625,184.08203125,-49.8046875,-66.89453125
-303.22265625,-1000.0,-1000.0,-67.87109375
-35.64453125,-858.3984375,-368.1640625,-22.4609375
217.7734375,458.49609375,916.50390625,19.04296875
92.7734375,999.51171875,999.51171875,-21.484375
-173.828125,341.30859375,94.23828125,-100.5859375
-314.453125,-1000.0,-1000.0,-99.12109375
-78.61328125,-979.98046875,-540.52734375,-29.296875
216.30859375,329.1015625,804.19921875,20.5078125
118.1640625,999.51171875,999.51171875,-35.15625
-165.52734375,319.82421875,153.80859375,-98.14453125
-304.6875,-942.3828125,-1000.0,-71.77734375
-122.0703125,-1000.0,-761.71875,-14.6484375
188.96484375,-86.42578125,575.68359375,10.7421875
181.15234375,999.51171875,999.51171875,-27.83203125
-131.8359375,359.375,164.0625,-72.265625
-300.78125,-937.5,-1000.0,-83.984375
-151.3671875,-1000.0,-982.91015625,-46.38671875
138.671875,-216.30859375,224.609375,14.16015625
179.19921875,999.51171875,999.51171875,5.37109375
-63.96484375,937.01171875,309.5703125,-50.29296875
-272.4609375,-353.515625,-979.00390625,-81.0546875
-202.63671875,-1000.0,-1000.0,-59.08203125
121.58203125,-118.1640625,82.03125,-8.30078125
196.2890625,999.51171875,999.51171875,-13.671875
-48.828125,712.890625,352.05078125,-51.7578125
-274.4140625,-638.671875,-928.22265625,-79.58984375
-226.07421875,-1000.0,-1000.0,-65.91796875
119.140625,-173.33984375,-137.20703125,-10.25390625
215.8203125,988.76953125,999.51171875,-7.32421875
-14.6484375,999.51171875,639.16015625,-54.19921875
-252.9296875,-42.48046875,-700.1953125,-79.58984375
-287.59765625,-1000.0,-1000.0,-79.1015625
49.31640625,-308.59375,-178.7109375,-24.4140625
239.74609375,930.17578125,999.51171875,-7.8125
15.13671875,999.51171875,860.3515625,-62.98828125
-243.1640625,221.19140625,-417.96875,-103.515625
-291.50390625,-1000.0,-1000.0,-92.7734375
5.859375,-578.125,-207.03125,-20.99609375
235.83984375,817.3828125,999.51171875,-1.46484375
61.03515625,999.51171875,951.171875,-44.921875
-241.69921875,143.06640625,-251.46484375,-96.6796875
-330.078125,-1000.0,-1000.0,-105.95703125
-24.90234375,-725.09765625,-289.55078125,-42.48046875
231.93359375,643.5546875,949.70703125,0.48828125
92.7734375,999.51171875,999.51171875,-32.71484375
-195.80078125,169.921875,24.4140625,-81.0546875
-308.59375,-1000.0,-1000.0,-77.1484375
-61.5234375,-903.80859375,-434.5703125,-41.50390625
223.6328125,411.62109375,877.9296875,-4.39453125
139.16015625,999.51171875,999.51171875,-23.4375
-187.98828125,140.625,123.53515625,-104.4921875
-333.0078125,-1000.0,-1000.0,-103.02734375
-113.76953125,-1000.0,-667.96875,-33.69140625
181.640625,51.7578125,679.19921875,1.46484375
151.3671875,999.51171875,999.51171875,-20.99609375
-118.65234375,270.99609375,154.296875,-82.51953125
-308.10546875,-997.55859375,-1000.0,-88.8671875
-171.875,-1000.0,-885.25390625,-57.12890625
155.2734375,23.4375,401.85546875,-20.99609375
180.6640625,999.51171875,999.51171875,-32.2265625
-113.28125,526.3671875,202.1484375,-78.61328125
-313.4765625,-809.08203125,-1000.0,-91.796875
-193.84765625,-1000.0,-1000.0,-69.3359375
132.8125,-202.1484375,123.53515625,-13.18359375
199.21875,999.51171875,999.51171875,-9.765625
-67.87109375,843.75,322.75390625,-72.265625
-288.57421875,-481.4453125,-948.73046875,-112.79296875
-241.2109375,-1000.0,-1000.0,-77.1484375
88.8671875,-153.80859375,-94.7265625,-14.16015625
216.30859375,964.35546875,999.51171875,-9.27734375
-24.90234375,999.51171875,633.30078125,-48.33984375
-271.97265625,232.91015625,-702.1484375,-81.0546875
-257.32421875,-1000.0,-1000.0,-72.265625
72.265625,-450.1953125,-180.6640625,-12.6953125
203.61328125,916.9921875,999.51171875,-5.859375
-17.578125,999.51171875,731.93359375,-68.84765625
-247.0703125,62.5,-598.6328125,-84.47265625
-270.5078125,-1000.0,-1000.0,-77.1484375
37.109375,-328.61328125,-190.91796875,-32.71484375
226.5625,939.94140625,999.51171875,3.41796875
44.43359375,999.51171875,917.96875,-19.53125
-210.44921875,190.4296875,-316.89453125,-62.98828125
-285.64453125,-1000.0,-1000.0,-85.44921875
16.11328125,-527.83203125,-229.00390625,-34.66796875
235.3515625,849.12109375,990.72265625,5.37109375
67.87109375,999.51171875,999.51171875,-32.2265625
-190.91796875,188.4765625,-85.44921875,-78.125
-295.8984375,-1000.0,-1000.0,-81.0546875
-38.0859375,-777.34375,-345.703125,-16.11328125
218.26171875,586.9140625,922.8515625,-1.953125
98.14453125,999.51171875,999.51171875,-60.546875
-176.26953125,187.5,99.12109375,-90.33203125
-314.94140625,-1000.0,-1000.0,-92.7734375
-99.12109375,-1000.0,-576.66015625,-42.96875
202.63671875,249.51171875,770.5078125,-1.46484375
150.87890625,999.51171875,999.51171875,-26.3671875
-168.45703125,143.06640625,145.5078125,-65.91796875
-339.35546875,-1000.0,-1000.0,-92.28515625
-157.71484375,-1000.0,-810.05859375,-72.75390625
151.85546875,-88.37890625,509.765625,-18.06640625
176.7578125,999.51171875,999.51171875,-25.390625
-99.12109375,452.1484375,157.2265625,-65.4296875
-319.82421875,-886.23046875,-1000.0,-89.84375
-246.09375,-1000.0,-1000.0,-178.7109375
73.73046875,-177.24609375,-32.2265625,-267.578125
174.8046875,989.2578125,999.51171875,-224.12109375
-70.3125,999.51171875,345.21484375,-212.40234375
-305.6640625,-50.78125,-944.82421875,-217.28515625
-276.3671875,-1000.0,-1000.0,-130.37109375
73.73046875,-180.17578125,-145.01953125,-42.48046875
212.40234375,999.51171875,999.51171875,-15.625
-10.7421875,934.5703125,467.7734375,-52.24609375
-264.16015625,-324.21875,-863.76953125,-93.26171875
-264.16015625,-1000.0,-1000.0,-70.80078125
54.6875,-194.3359375,-207.51953125,0.0
223.14453125,999.51171875,999.51171875,13.18359375
23.92578125,999.51171875,705.078125,-23.92578125
-253.41796875,-144.04296875,-638.18359375,-66.40625
-299.8046875,-1000.0,-1000.0,-81.0546875
34.1796875,-295.8984375,-209.47265625,-15.625
246.58203125,948.2421875,999.51171875,32.71484375
57.12890625,999.51171875,914.55078125,-11.71875
-237.79296875,36.62109375,-331.0546875,-62.98828125
-325.1953125,-1000.0,-1000.0,-71.2890625
-11.23046875,-302.734375,-249.0234375,-18.5546875
227.5390625,944.3359375,977.05078125,26.3671875
77.1484375,999.51171875,999.51171875,-11.71875
-200.1953125,193.84765625,-57.12890625,-65.4296875
-311.5234375,-1000.0,-1000.0,-77.1484375
-50.29296875,-750.48828125,-420.41015625,-26.85546875
233.88671875,614.2578125,880.37109375,14.16015625
122.0703125,999.51171875,999.51171875,2.9296875
-173.828125,201.66015625,130.859375,-43.9453125
-333.984375,-1000.0,-1000.0,-79.58984375
-128.41796875,-1000.0,-643.06640625,-34.1796875
188.96484375,198.2421875,714.35546875,12.6953125
148.92578125,999.51171875,999.51171875,-4.39453125
-136.71875,292.48046875,175.29296875,-63.96484375
-313.96484375,-1000.0,-1000.0,-90.33203125
-137.20703125,-863.28125,-768.06640625,-31.73828125
196.77734375,519.04296875,567.3828125,12.6953125
178.22265625,999.51171875,999.51171875,-20.5078125
-104.00390625,897.4609375,243.65234375,-61.5234375
-321.77734375,-278.3203125,-1000.0,-87.890625
-212.40234375,-1000.0,-1000.0,-51.26953125
153.80859375,-227.05078125,125.9765625,9.27734375
224.609375,999.51171875,999.51171875,8.7890625
-63.96484375,584.47265625,280.2734375,-36.1328125
-307.12890625,-806.640625,-976.5625,-98.14453125
-236.328125,-1000.0,-1000.0,-63.96484375
110.83984375,-186.5234375,-57.6171875,0.9765625
230.46875,999.51171875,999.51171875,0.9765625
3.90625,999.51171875,528.80859375,-27.34375
-256.34765625,-146.97265625,-812.01171875,-58.59375
-248.53515625,-1000.0,-1000.0,-59.08203125
88.37890625,-185.546875,-127.44140625,-17.578125
218.26171875,999.51171875,999.51171875,9.27734375
6.8359375,954.1015625,674.8046875,-21.484375
-259.27734375,-284.1796875,-659.66796875,-67.3828125
-290.52734375,-1000.0,-1000.0,-72.265625
44.43359375,-259.27734375,-188.4765625,-28.80859375
232.421875,952.63671875,999.51171875,5.37109375
42.96875,999.51171875,918.45703125,-31.73828125
-231.93359375,57.12890625,-325.1953125,-84.9609375
-302.24609375,-1000.0,-1000.0,-74.70703125
2.9296875,-447.265625,-216.796875,-23.4375
251.46484375,881.34765625,995.1171875,21.484375
90.8203125,999.51171875,999.51171875,-29.296875
-224.609375,136.71875,-89.84375,-104.00390625
-329.1015625,-1000.0,-1000.0,-102.5390625
-40.0390625,-879.8828125,-368.65234375,-40.52734375
226.5625,433.59375,913.0859375,6.8359375
114.2578125,999.51171875,999.51171875,-11.23046875
-156.25,161.62109375,86.42578125,-52.734375
-300.78125,-1000.0,-1000.0,-63.4765625
-69.3359375,-936.5234375,-534.1796875,-18.5546875
192.87109375,348.6328125,805.17578125,-11.23046875
98.14453125,999.51171875,999.51171875,-48.828125
-146.484375,795.8984375,177.734375,-94.7265625
-314.453125,-507.8125,-1000.0,-104.4921875
-173.33984375,-1000.0,-767.578125,-51.26953125
153.80859375,81.0546875,579.1015625,4.39453125
159.66796875,999.51171875,999.51171875,9.765625
-145.99609375,270.5078125,172.8515625,-70.80078125
-349.609375,-978.02734375,-1000.0,-117.67578125
-192.87109375,-1000.0,-945.3125,-68.359375
142.578125,-95.703125,302.734375,-13.671875
178.7109375,999.51171875,999.51171875,1.46484375
-83.0078125,838.8671875,278.80859375,-48.828125
-291.015625,-494.140625,-996.09375,-102.5390625
-209.9609375,-1000.0,-1000.0,-74.70703125
123.53515625,18.5546875,108.88671875,13.671875
213.8671875,999.51171875,999.51171875,22.4609375
-41.50390625,930.6640625,430.6640625,-54.6875
-301.7578125,-282.71484375,-870.60546875,-98.14453125
-266.11328125,-1000.0,-1000.0,-94.23828125
85.44921875,-174.8046875,-143.5546875,-20.5078125
214.35546875,999.51171875,999.51171875,13.18359375
-18.06640625,999.51171875,636.23046875,-49.31640625
-270.99609375,-62.01171875,-706.0546875,-85.44921875
-288.57421875,-1000.0,-1000.0,-73.73046875
60.05859375,-320.80078125,-190.4296875,-16.6015625
234.375,956.0546875,999.51171875,12.6953125
19.04296875,999.51171875,834.9609375,-28.3203125
-237.3046875,-41.015625,-460.44921875,-95.21484375
-287.109375,-1000.0,-1000.0,-84.9609375
46.875,-255.37109375,-198.2421875,-14.6484375
245.1171875,960.9375,999.51171875,22.4609375
52.734375,999.51171875,976.07421875,-26.3671875
-211.42578125,150.87890625,-201.171875,-87.40234375
-316.40625,-1000.0,-1000.0,-96.6796875
-46.38671875,-700.1953125,-299.31640625,-53.7109375
212.890625,648.92578125,945.80078125,-5.37109375
91.30859375,999.51171875,999.51171875,-19.53125
-188.96484375,366.69921875,40.52734375,-83.0078125
-327.1484375,-1000.0,-1000.0,-105.46875
-83.49609375,-854.98046875,-438.4765625,-53.22265625
208.49609375,542.96875,880.37109375,-12.6953125
136.71875,999.51171875,999.51171875,-39.55078125
-158.203125,163.0859375,116.2109375,-98.14453125
-332.51953125,-1000.0,-1000.0,-105.95703125
-119.140625,-1000.0,-684.5703125,-55.17578125
194.82421875,127.44140625,663.57421875,-19.04296875
155.2734375,999.51171875,999.51171875,-28.80859375
-133.7890625,286.1328125,166.50390625,-76.66015625
-328.61328125,-1000.0,-1000.0,-99.12109375
-156.73828125,-1000.0,-819.3359375,-48.828125
167.48046875,263.18359375,494.62890625,-7.8125
169.43359375,999.51171875,999.51171875,-21.484375
-83.0078125,687.01171875,228.02734375,-63.4765625
-300.29296875,-613.28125,-1000.0,-90.8203125
-199.21875,-1000.0,-1000.0,-58.59375
154.296875,-156.73828125,145.01953125,-3.90625
220.703125,999.51171875,999.51171875,-5.37109375
-60.546875,766.6015625,328.61328125,-59.5703125
-301.7578125,-576.171875,-947.265625,-113.28125
-243.1640625,-1000.0,-1000.0,-94.23828125
103.02734375,-183.10546875,-78.125,-21.484375
225.5859375,999.51171875,999.51171875,2.44140625
-9.27734375,999.51171875,551.26953125,-50.29296875
-270.5078125,-184.5703125,-786.1328125,-97.16796875
-265.625,-1000.0,-1000.0,-75.1953125
70.80078125,-196.77734375,-175.78125,9.27734375
227.05078125,969.7265625,999.51171875,18.5546875
23.4375,999.51171875,787.59765625,-67.3828125
-245.60546875,164.0625,-526.3671875,-115.234375
-291.50390625,-1000.0,-1000.0,-103.515625
10.7421875,-497.55859375,-197.75390625,-31.25
209.9609375,857.91015625,999.51171875,-4.39453125
55.6640625,999.51171875,950.68359375,-42.48046875
-217.7734375,243.1640625,-253.41796875,-91.30859375
-320.3125,-1000.0,-1000.0,-105.95703125
-19.04296875,-586.9140625,-255.37109375,-40.0390625
249.51171875,814.94140625,986.328125,5.859375
78.125,999.51171875,999.51171875,-46.38671875
-217.7734375,153.80859375,-101.5625,-108.88671875
-318.359375,-1000.0,-1000.0,-114.2578125
-64.453125,-856.4453125,-403.3203125,-51.26953125
216.30859375,447.265625,887.6953125,-4.8828125
127.44140625,999.51171875,999.51171875,-20.99609375
-164.55078125,436.03515625,129.8828125,-68.359375
-325.1953125,-1000.0,-1000.0,-100.5859375
-87.40234375,-626.953125,-528.80859375,-55.6640625
218.75,809.08203125,820.80078125,7.8125
155.2734375,999.51171875,999.51171875,-7.32421875
-134.765625,260.7421875,158.69140625,-73.73046875
-326.66015625,-955.078125,-1000.0,-97.16796875
-159.1796875,-1000.0,-842.7734375,-60.05859375
155.2734375,-162.59765625,467.7734375,-10.7421875
179.6875,999.51171875,999.51171875,-11.23046875
-105.46875,427.734375,176.7578125,-66.40625
-329.1015625,-915.0390625,-1000.0,-101.5625
-187.5,-1000.0,-993.65234375,-79.1015625
142.578125,-182.12890625,205.56640625,-8.30078125
196.77734375,999.51171875,999.51171875,13.671875
-57.6171875,936.5234375,336.9140625,-43.9453125
-291.9921875,-325.1953125,-948.2421875,-66.40625
-221.19140625,-1000.0,-1000.0,-52.734375
121.58203125,-191.40625,-26.3671875,-20.01953125
219.23828125,999.51171875,999.51171875,-6.34765625
-22.4609375,959.9609375,438.96484375,-55.17578125
-278.3203125,-292.96875,-878.41796875,-111.81640625
-258.7890625,-1000.0,-1000.0,-115.234375
97.16796875,-155.76171875,-147.94921875,-24.4140625
228.515625,970.21484375,999.51171875,9.765625
0.48828125,999.51171875,661.62109375,-38.0859375
-240.234375,233.3984375,-675.29296875,-81.0546875
-262.6953125,-1000.0,-1000.0,-76.171875
56.640625,-533.69140625,-205.078125,-14.6484375
240.72265625,900.390625,999.51171875,2.9296875
55.6640625,999.51171875,815.91796875,-48.828125
-206.54296875,-127.9296875,-486.328125,-90.33203125
-283.203125,-1000.0,-1000.0,-87.890625
2.9296875,-569.3359375,-236.328125,-20.99609375
236.328125,768.06640625,999.51171875,18.06640625
84.9609375,999.51171875,982.91015625,-27.83203125
-187.98828125,125.9765625,-209.47265625,-94.23828125
-304.19921875,-1000.0,-1000.0,-97.16796875
-23.4375,-211.42578125,-249.51171875,-36.1328125
252.44140625,991.69921875,970.21484375,-9.27734375
110.3515625,999.51171875,999.51171875,-30.2734375
-162.109375,188.4765625,23.92578125,-76.171875
-299.31640625,-1000.0,-1000.0,-96.6796875
-90.8203125,-979.4921875,-519.04296875,-57.12890625
211.9140625,266.6015625,816.89453125,6.8359375
141.6015625,999.51171875,999.51171875,-19.53125
-145.01953125,268.06640625,132.32421875,-88.37890625
-306.15234375,-1000.0,-1000.0,-95.703125
-115.234375,-1000.0,-722.65625,-51.7578125
208.0078125,154.296875,622.55859375,-5.859375
185.546875,999.51171875,999.51171875,-23.4375
-125.48828125,300.29296875,162.59765625,-70.3125
-317.3828125,-964.35546875,-1000.0,-74.70703125
-154.78515625,-1000.0,-925.78125,-49.8046875
155.76171875,-61.5234375,338.37890625,-24.4140625
185.05859375,999.51171875,999.51171875,-8.30078125
-78.125,470.703125,207.51953125,-48.33984375
-308.10546875,-886.71875,-1000.0,-95.21484375
-208.49609375,-1000.0,-1000.0,-75.1953125
136.23046875,-114.74609375,68.359375,-2.44140625
202.1484375,999.51171875,999.51171875,13.671875
-58.10546875,700.68359375,331.54296875,-62.5
-299.31640625,-649.90234375,-946.2890625,-110.83984375
-242.67578125,-1000.0,-1000.0,-89.84375
106.4453125,-185.546875,-115.234375,-19.53125
217.28515625,999.51171875,999.51171875,4.39453125
-14.16015625,999.0234375,542.48046875,-43.9453125
-246.58203125,-208.984375,-799.31640625,-75.68359375
-249.51171875,-1000.0,-1000.0,-63.4765625
81.54296875,-169.921875,-169.921875,-14.16015625
236.328125,990.234375,999.51171875,-2.44140625
15.625,999.51171875,786.1328125,-36.62109375
-249.51171875,47.36328125,-526.3671875,-77.63671875
-300.29296875,-1000.0,-1000.0,-73.73046875
30.76171875,-209.9609375,-197.75390625,-5.859375
242.67578125,999.51171875,999.51171875,14.16015625
57.6171875,999.51171875,908.69140625,-23.4375
-223.6328125,-7.8125,-333.984375,-73.2421875
-323.73046875,-1000.0,-1000.0,-78.125
-47.36328125,-641.11328125,-287.109375,-44.921875
183.10546875,702.1484375,961.9140625,-10.7421875
32.71484375,999.51171875,999.51171875,-5.859375
-289.55078125,171.38671875,-68.359375,-62.01171875
-433.10546875,-1000.0,-1000.0,-84.9609375
-187.01171875,-857.91015625,-426.7578125,-43.9453125
35.15625,479.00390625,872.55859375,0.9765625
-588.37890625,999.51171875,999.51171875,-22.4609375
-1000.0,183.10546875,146.484375,-81.0546875
-981.4453125,-1000.0,-1000.0,-86.42578125
-678.7109375,-726.07421875,-570.80078125,-28.80859375
-155.2734375,628.41796875,781.25,20.5078125
-76.171875,999.51171875,999.51171875,-4.8828125
-275.390625,357.421875,168.9453125,-73.73046875
-396.97265625,-929.6875,-1000.0,-120.60546875
-169.43359375,-1000.0,-850.5859375,-62.98828125
178.7109375,-9.27734375,458.984375,-3.41796875
225.5859375,999.51171875,999.51171875,-0.9765625
-20.99609375,462.890625,186.5234375,-49.31640625
-204.1015625,-886.23046875,-1000.0,-92.28515625
-63.4765625,-1000.0,-1000.0,-55.17578125
255.859375,-104.98046875,176.7578125,-9.27734375
330.078125,999.51171875,999.51171875,-3.41796875
87.40234375,738.28125,287.59765625,-48.33984375
-146.97265625,-600.09765625,-970.21484375,-95.21484375
-71.77734375,-1000.0,-1000.0,-56.640625
268.5546875,-184.5703125,-53.22265625,3.41796875
376.953125,999.51171875,999.51171875,0.9765625
134.765625,999.51171875,452.63671875,-54.6875
-125.9765625,-203.61328125,-869.62890625,-97.16796875
-106.4453125,-1000.0,-1000.0,-78.125
213.8671875,-189.94140625,-155.76171875,-22.94921875
354.00390625,999.51171875,999.51171875,4.39453125
154.78515625,991.2109375,648.4375,-30.76171875
-121.58203125,-222.16796875,-695.80078125,-66.89453125
-165.0390625,-1000.0,-1000.0,-84.47265625
193.84765625,-172.36328125,-190.91796875,-51.7578125
356.4453125,993.65234375,999.51171875,-11.23046875
128.90625,999.51171875,872.0703125,-49.8046875
-117.1875,18.06640625,-397.94921875,-87.890625
-193.359375,-1000.0,-1000.0,-104.4921875
101.07421875,-594.7265625,-227.5390625,-40.0390625
315.91796875,752.44140625,975.5859375,-1.953125
166.015625,999.51171875,999.51171875,-39.55078125
-116.69921875,183.10546875,-17.578125,-81.0546875
-233.88671875,-1000.0,-1000.0,-101.5625
36.1328125,-827.63671875,-370.60546875,-57.12890625
297.36328125,522.94921875,923.33984375,1.953125
201.66015625,999.51171875,999.51171875,-10.7421875
-96.6796875,168.9453125,60.546875,-71.77734375
-252.9296875,-1000.0,-1000.0,-91.796875
-13.18359375,-886.23046875,-528.80859375,-47.36328125
273.92578125,417.48046875,809.08203125,-6.8359375
196.77734375,999.51171875,999.51171875,-24.90234375
-96.19140625,371.09375,168.9453125,-75.1953125
-259.27734375,-1000.0,-1000.0,-99.609375
-56.15234375,-747.0703125,-676.26953125,-60.546875
229.00390625,664.55078125,680.6640625,-26.3671875
196.77734375,999.51171875,999.51171875,-28.3203125
-107.421875,283.203125,167.48046875,-65.4296875
-629.39453125,-932.6171875,-1000.0,-96.19140625
-983.88671875,-1000.0,-989.74609375,-60.05859375
-995.1171875,-253.90625,225.09765625,-25.87890625
-993.1640625,999.51171875,999.51171875,-16.11328125
-1000.0,404.296875,223.6328125,-55.6640625
-992.1875,-945.80078125,-1000.0,-107.421875
-1000.0,-1000.0,-1000.0,-77.63671875
-907.2265625,-174.8046875,44.921875,-11.71875
-763.671875,999.51171875,999.51171875,-8.30078125
-831.0546875,766.11328125,368.65234375,-60.546875
-895.99609375,-579.1015625,-919.43359375,-96.6796875
-708.984375,-1000.0,-1000.0,-72.265625
-189.94140625,-166.015625,-154.78515625,-6.34765625
130.37109375,979.00390625,999.51171875,0.0
14.16015625,999.51171875,605.95703125,-53.22265625
-174.8046875,45.8984375,-739.74609375,-92.7734375
-117.1875,-1000.0,-1000.0,-86.9140625
258.30078125,-266.11328125,-185.546875,-22.94921875
461.42578125,957.51953125,999.51171875,0.0
298.33984375,999.51171875,920.8984375,-34.1796875
66.40625,226.07421875,-319.82421875,-78.61328125
4.39453125,-1000.0,-1000.0,-85.9375
303.22265625,-450.1953125,-204.58984375,-35.15625
532.2265625,895.99609375,999.51171875,4.39453125
387.20703125,999.51171875,987.79296875,-36.62109375
105.95703125,242.67578125,-176.26953125,-85.44921875
-9.765625,-1000.0,-1000.0,-100.5859375
288.57421875,-519.04296875,-270.01953125,-46.875
537.109375,864.2578125,962.40234375,10.25390625
393.06640625,999.51171875,999.51171875,-22.94921875
95.703125,157.2265625,34.1796875,-82.51953125
-43.45703125,-1000.0,-1000.0,-94.23828125
193.359375,-1000.0,-490.234375,-48.33984375
472.16796875,95.703125,840.8203125,-6.34765625
404.296875,999.51171875,999.51171875,-22.94921875
101.5625,149.90234375,118.65234375,-81.54296875
-69.3359375,-1000.0,-1000.0,-111.81640625
120.60546875,-1000.0,-708.0078125,-70.3125
397.4609375,40.0390625,636.71875,-9.27734375
383.30078125,999.51171875,999.51171875,-18.5546875
118.65234375,520.5078125,165.52734375,-65.4296875
-100.5859375,-878.90625,-1000.0,-89.84375
41.9921875,-1000.0,-867.67578125,-53.7109375
374.0234375,179.6875,436.03515625,-5.37109375
382.32421875,999.51171875,999.51171875,-7.32421875
100.09765625,565.4296875,206.54296875,-59.08203125
-137.6953125,-755.37109375,-1000.0,-106.93359375
-32.71484375,-1000.0,-1000.0,-74.70703125
316.40625,-217.28515625,113.76953125,-12.6953125
356.93359375,999.51171875,999.51171875,-15.625
61.03515625,487.3046875,280.76171875,-64.453125
-165.0390625,-888.671875,-970.703125,-95.21484375
-88.8671875,-1000.0,-1000.0,-76.171875
241.2109375,-167.48046875,-90.8203125,-12.6953125
356.4453125,959.9609375,999.51171875,20.99609375
125.9765625,999.51171875,651.85546875,-37.109375
-114.2578125,222.16796875,-682.12890625,-86.9140625
-142.08984375,-1000.0,-1000.0,-72.265625
167.96875,-286.1328125,-179.6875,-12.20703125
349.609375,999.51171875,999.51171875,33.69140625
143.5546875,999.51171875,716.30859375,-12.20703125
-164.0625,-97.16796875,-620.1171875,-89.35546875
-218.75,-1000.0,-1000.0,-96.6796875
136.23046875,-309.08203125,-192.87109375,-20.01953125
339.84375,936.5234375,999.51171875,2.9296875
150.390625,999.51171875,911.62109375,-46.38671875
-109.375,122.55859375,-333.49609375,-86.42578125
-196.2890625,-1000.0,-1000.0,-75.1953125
102.05078125,-332.51953125,-212.890625,-6.34765625
326.66015625,941.40625,984.86328125,28.3203125
172.36328125,999.51171875,999.51171875,-13.18359375
-92.28515625,200.68359375,-20.5078125,-49.8046875
-208.0078125,-1000.0,-1000.0,-52.24609375
52.24609375,-850.09765625,-385.25390625,-13.18359375
330.078125,490.72265625,912.109375,28.3203125
205.078125,999.51171875,999.51171875,0.0
-107.421875,147.4609375,77.1484375,-42.96875
-256.34765625,-1000.0,-1000.0,-69.3359375
-41.9921875,-1000.0,-613.28125,-39.0625
256.8359375,145.5078125,732.421875,8.30078125
203.61328125,999.51171875,999.51171875,-15.13671875
-85.44921875,187.98828125,153.3203125,-66.89453125
-271.97265625,-1000.0,-1000.0,-84.47265625
-93.26171875,-1000.0,-820.80078125,-35.64453125
241.69921875,19.53125,500.0,5.37109375
225.5859375,999.51171875,999.51171875,-1.46484375
-77.63671875,336.9140625,170.41015625,-61.5234375
-281.73828125,-935.546875,-1000.0,-86.42578125
-132.8125,-1000.0,-1000.0,-29.78515625
205.56640625,-182.12890625,182.6171875,16.6015625
239.2578125,993.65234375,999.51171875,-4.39453125
-17.08984375,999.51171875,315.91796875,-51.7578125
-233.3984375,-53.22265625,-958.0078125,-80.56640625
-166.50390625,-1000.0,-1000.0,-65.91796875
163.57421875,-234.375,-32.2265625,-19.04296875
244.140625,999.51171875,999.51171875,-6.8359375
-7.32421875,682.6171875,366.69921875,-19.53125
-263.18359375,-695.80078125,-932.12890625,-74.70703125
-225.5859375,-1000.0,-1000.0,-69.82421875
137.6953125,-191.40625,-142.578125,6.8359375
273.4375,999.51171875,999.51171875,12.6953125
22.94921875,963.37890625,617.1875,-30.2734375
-244.140625,-259.27734375,-724.609375,-77.63671875
-248.53515625,-1000.0,-1000.0,-73.73046875
83.984375,-347.65625,-193.359375,-6.34765625
247.0703125,904.296875,999.51171875,-4.39453125
53.7109375,999.51171875,870.60546875,-44.43359375
-194.82421875,142.578125,-405.76171875,-65.4296875
-250.48828125,-1000.0,-1000.0,-82.03125
36.62109375,-425.29296875,-205.56640625,-43.45703125
230.95703125,900.390625,999.51171875,-4.39453125
82.51953125,999.51171875,999.51171875,-46.875
-168.9453125,205.56640625,-118.1640625,-68.84765625
-292.48046875,-1000.0,-1000.0,-65.4296875
-48.33984375,-718.75,-320.80078125,-50.29296875
215.33203125,661.1328125,932.12890625,-15.13671875
103.515625,999.51171875,999.51171875,-29.78515625
-192.87109375,195.80078125,104.4921875,-87.40234375
-350.09765625,-1000.0,-1000.0,-92.28515625
-96.19140625,-889.16015625,-499.0234375,-47.36328125
204.1015625,441.89453125,843.26171875,-3.41796875
112.79296875,999.51171875,999.51171875,-14.6484375
-170.8984375,142.08984375,146.97265625,-71.2890625
-326.171875,-1000.0,-1000.0,-101.07421875
-125.9765625,-1000.0,-738.76953125,-68.84765625
185.546875,20.01953125,604.00390625,-7.32421875
147.94921875,999.51171875,999.51171875,-19.04296875
-124.51171875,724.12109375,184.08203125,-83.0078125
-330.56640625,-631.8359375,-1000.0,-101.5625
-262.20703125,-1000.0,-919.43359375,-61.03515625
64.94140625,33.203125,357.421875,12.6953125
116.69921875,999.51171875,999.51171875,-2.44140625
-167.48046875,571.77734375,214.84375,-85.44921875
-373.53515625,-768.06640625,-1000.0,-85.9375
-168.9453125,-1000.0,-1000.0,-47.36328125
-469.23828125,-231.4453125,60.05859375,4.8828125
-1000.0,999.51171875,999.51171875,14.16015625
-992.67578125,597.65625,333.984375,-42.48046875
-989.2578125,-799.31640625,-958.49609375,-77.63671875
-996.58203125,-1000.0,-1000.0,-74.70703125
-1000.0,-153.3203125,-35.64453125,-14.6484375
-936.5234375,999.51171875,999.51171875,8.30078125
-759.27734375,953.61328125,544.921875,-35.64453125
-709.47265625,-290.0390625,-784.1796875,-75.1953125
-522.4609375,-1000.0,-1000.0,-68.84765625
-22.94921875,-167.48046875,-179.19921875,-6.34765625
251.953125,987.79296875,999.51171875,15.625
104.00390625,999.51171875,780.76171875,-40.0390625
-117.67578125,36.62109375,-537.59765625,-92.28515625
-104.4921875,-1000.0,-1000.0,-86.9140625
262.20703125,-192.3828125,-181.15234375,-32.71484375
498.046875,984.86328125,999.51171875,15.625
342.28515625,999.51171875,979.98046875,-27.83203125
77.63671875,220.703125,-197.75390625,-87.40234375
-8.7890625,-1000.0,-1000.0,-84.47265625
311.5234375,-485.3515625,-244.140625,-23.92578125
565.4296875,874.51171875,970.21484375,33.203125
406.73828125,999.51171875,999.51171875,2.9296875
102.05078125,229.00390625,37.109375,-89.84375
-40.52734375,-1000.0,-1000.0,-135.25390625
196.2890625,-670.8984375,-369.140625,-86.9140625
463.37890625,701.66015625,915.52734375,-54.19921875
366.69921875,999.51171875,999.51171875,-79.58984375
86.9140625,378.41796875,155.2734375,-119.62890625
-70.3125,-953.125,-1000.0,-140.13671875
126.953125,-1000.0,-605.46875,-99.609375
432.6171875,188.96484375,750.48828125,-42.96875
385.7421875,999.51171875,999.51171875,-44.921875
79.58984375,225.09765625,171.875,-93.26171875
-119.140625,-1000.0,-1000.0,-112.3046875
46.38671875,-1000.0,-803.22265625,-75.68359375
389.6484375,21.97265625,521.97265625,-29.78515625
386.71875,999.51171875,999.51171875,-21.97265625
103.515625,467.28515625,220.21484375,-71.77734375
-100.5859375,-919.43359375,-1000.0,-109.375
38.57421875,-1000.0,-937.98828125,-73.73046875
324.70703125,131.34765625,328.125,0.48828125
306.640625,999.51171875,999.51171875,5.859375
63.96484375,520.01953125,303.7109375,-41.50390625
-174.8046875,-800.29296875,-959.9609375,-97.16796875
-109.375,-1000.0,-1000.0,-84.47265625
250.0,-216.30859375,-14.6484375,-7.32421875
351.5625,999.51171875,999.51171875,2.9296875
112.3046875,806.15234375,479.4921875,-46.875
-132.8125,-526.3671875,-844.7265625,-109.86328125
-127.9296875,-1000.0,-1000.0,-98.6328125
212.40234375,-229.98046875,-150.390625,-21.97265625
374.0234375,979.4921875,999.51171875,6.8359375
146.97265625,999.51171875,747.55859375,-42.48046875
-138.671875,-91.30859375,-577.1484375,-114.2578125
-162.59765625,-1000.0,-1000.0,-100.5859375
169.921875,-380.37109375,-183.10546875,-39.55078125
334.47265625,917.48046875,999.51171875,-18.5546875
132.32421875,999.51171875,916.50390625,-62.98828125
-133.30078125,16.11328125,-326.171875,-108.3984375
-197.265625,-1000.0,-1000.0,-95.21484375
114.2578125,-493.65234375,-204.58984375,-42.96875
338.8671875,833.49609375,989.2578125,-1.953125
169.921875,999.51171875,999.51171875,-23.92578125
-98.6328125,317.87109375,-22.94921875,-70.80078125
-220.703125,-1000.0,-1000.0,-94.23828125
40.0390625,-743.65234375,-304.19921875,-29.78515625
305.6640625,666.015625,946.77734375,30.76171875
195.3125,999.51171875,999.51171875,-15.625
-91.30859375,172.8515625,122.0703125,-72.75390625
-248.53515625,-1000.0,-1000.0,-71.2890625
-15.625,-885.25390625,-500.48828125,-35.15625
272.94921875,439.453125,841.30859375,0.9765625
198.2421875,999.51171875,999.51171875,-21.484375
-82.03125,170.41015625,164.55078125,-78.61328125
-253.90625,-1000.0,-1000.0,-100.09765625
-78.61328125,-915.0390625,-690.4296875,-78.61328125
224.12109375,369.140625,661.62109375,-30.2734375
209.47265625,999.51171875,999.51171875,-19.04296875
-61.5234375,350.09765625,185.05859375,-84.9609375
-250.9765625,-933.59375,-1000.0,-90.33203125
-115.234375,-1000.0,-919.921875,-57.6171875
210.9375,-33.203125,351.07421875,-34.66796875
250.9765625,999.51171875,999.51171875,-10.25390625
-25.390625,468.75,235.3515625,-59.08203125
-251.46484375,-871.09375,-1000.0,-101.07421875
-156.25,-1000.0,-1000.0,-78.125
172.36328125,-206.54296875,43.45703125,-15.625
258.7890625,999.51171875,999.51171875,12.20703125
-4.39453125,864.2578125,425.29296875,-42.96875
-266.11328125,-452.63671875,-885.25390625,-92.7734375
-225.09765625,-1000.0,-1000.0,-71.77734375
115.72265625,-195.80078125,-132.8125,-4.8828125
251.46484375,999.51171875,999.51171875,7.32421875
15.625,910.15625,561.03515625,-52.734375
-266.11328125,-372.0703125,-783.203125,-100.5859375
-257.8125,-1000.0,-1000.0,-77.63671875
94.7265625,-196.77734375,-184.5703125,-26.3671875
257.32421875,956.54296875,999.51171875,-25.390625
51.26953125,999.51171875,840.8203125,-43.45703125
-212.890625,187.01171875,-451.171875,-72.75390625
-285.64453125,-1000.0,-1000.0,-95.703125
35.64453125,-212.890625,-188.4765625,-42.48046875
253.90625,999.51171875,999.51171875,0.0
73.73046875,999.51171875,948.73046875,-51.26953125
-192.87109375,23.92578125,-255.859375,-92.7734375
-293.9453125,-1000.0,-1000.0,-100.09765625
-13.671875,-608.88671875,-297.8515625,-72.75390625
255.37109375,743.1640625,978.02734375,-20.01953125
106.4453125,999.51171875,999.51171875,-41.50390625
-192.3828125,181.15234375,-165.52734375,-89.84375
-297.36328125,-1000.0,-1000.0,-80.078125
-7.32421875,-295.41015625,-260.7421875,-17.08984375
261.71875,967.28515625,967.7734375,-4.8828125
114.2578125,999.51171875,999.51171875,-32.2265625
-175.29296875,186.5234375,34.66796875,-88.37890625
-318.359375,-1000.0,-1000.0,-122.55859375
-89.35546875,-1000.0,-525.87890625,-45.8984375
216.30859375,243.65234375,809.08203125,18.5546875
150.87890625,999.51171875,999.51171875,-15.625
-150.390625,151.85546875,136.71875,-70.80078125
-295.8984375,-1000.0,-1000.0,-87.40234375
-99.609375,-1000.0,-725.09765625,-43.45703125
184.5703125,53.7109375,615.234375,0.0
166.015625,999.51171875,999.51171875,-32.71484375
-110.83984375,475.09765625,183.10546875,-85.44921875
-303.7109375,-865.234375,-1000.0,-103.02734375
-159.1796875,-1000.0,-944.82421875,-59.08203125
171.875,-117.1875,307.6171875,2.44140625
206.54296875,999.51171875,999.51171875,-26.3671875
-92.7734375,683.10546875,240.234375,-83.49609375
-327.1484375,-671.875,-1000.0,-110.83984375
-210.44921875,-1000.0,-1000.0,-82.51953125
139.16015625,-169.43359375,47.8515625,-17.08984375
208.0078125,980.46875,999.51171875,-13.671875
-41.015625,999.51171875,403.80859375,-62.5
-264.6484375,26.3671875,-895.99609375,-98.14453125
-229.4921875,-1000.0,-1000.0,-61.5234375
103.515625,-244.62890625,-143.5546875,13.18359375
229.4921875,999.51171875,999.51171875,2.44140625
-6.8359375,962.40234375,551.26953125,-56.640625
-246.58203125,-287.59765625,-792.96875,-83.0078125
-257.32421875,-1000.0,-1000.0,-64.453125
73.2421875,-207.03125,-184.08203125,-3.90625
233.88671875,960.9375,999.51171875,-5.37109375
39.55078125,999.51171875,846.19140625,-63.96484375
-205.56640625,140.625,-445.80078125,-143.5546875
-320.80078125,-1000.0,-1000.0,-135.25390625
9.765625,-194.82421875,-185.546875,-37.109375
242.67578125,998.046875,999.51171875,-17.578125
42.48046875,999.51171875,943.359375,-49.8046875
-216.30859375,190.91796875,-252.44140625,-80.56640625
-289.0625,-1000.0,-1000.0,-79.1015625
-7.8125,-792.96875,-293.45703125,-7.8125
234.86328125,562.5,958.984375,12.20703125
99.609375,999.51171875,999.51171875,-41.015625
-200.1953125,168.45703125,-37.109375,-84.47265625
-322.265625,-1000.0,-1000.0,-98.6328125
-73.2421875,-886.23046875,-424.31640625,-59.08203125
205.56640625,408.203125,876.46484375,3.90625
129.39453125,999.51171875,999.51171875,-19.53125
-150.390625,572.75390625,143.06640625,-82.03125
-287.109375,-770.99609375,-1000.0,-83.49609375
-104.4921875,-1000.0,-670.8984375,-36.1328125
192.3828125,6.34765625,682.12890625,6.34765625
161.1328125,999.51171875,999.51171875,-6.8359375
-154.296875,324.70703125,153.3203125,-69.3359375
-319.82421875,-968.26171875,-1000.0,-86.42578125
-131.34765625,-1000.0,-849.12109375,-24.90234375
186.5234375,-63.4765625,456.0546875,-6.8359375
175.29296875,999.51171875,999.51171875,-33.69140625
-112.79296875,540.52734375,190.91796875,-66.40625
-287.59765625,-806.15234375,-1000.0,-81.54296875
-176.26953125,-1000.0,-1000.0,-50.78125
128.90625,-226.07421875,136.23046875,1.46484375
189.453125,999.51171875,999.51171875,-4.8828125
-78.61328125,711.42578125,286.1328125,-67.87109375
-283.69140625,-665.0390625,-971.19140625,-98.14453125
-194.82421875,-1000.0,-1000.0,-78.61328125
126.46484375,-206.54296875,-65.4296875,-10.7421875
219.23828125,999.51171875,999.51171875,8.30078125
-32.2265625,850.5859375,443.84765625,-41.50390625
-257.32421875,-479.98046875,-882.32421875,-78.61328125
-243.65234375,-1000.0,-1000.0,-70.3125
86.9140625,-152.83203125,-128.90625,-10.25390625
241.2109375,999.51171875,999.51171875,-5.37109375
-4.39453125,996.09375,663.57421875,-69.3359375
-246.58203125,-176.26953125,-670.41015625,-78.61328125
-247.0703125,-1000.0,-1000.0,-53.7109375
65.4296875,-325.1953125,-194.3359375,-3.41796875
238.76953125,945.3125,999.51171875,8.7890625
20.99609375,999.51171875,853.02734375,-39.55078125
-239.2578125,-43.9453125,-423.828125,-74.70703125
-289.55078125,-1000.0,-1000.0,-83.49609375
-1.953125,-603.515625,-229.4921875,-42.48046875
212.890625,735.83984375,974.609375,-17.08984375
61.03515625,999.51171875,999.51171875,-47.8515625
-183.10546875,168.9453125,-13.18359375,-84.9609375
-302.734375,-1000.0,-1000.0,-97.16796875
-49.31640625,-941.40625,-385.7421875,-52.24609375
196.2890625,345.21484375,912.109375,-14.16015625
45.41015625,999.51171875,999.51171875,-44.43359375
-237.79296875,181.640625,87.890625,-84.47265625
-464.84375,-1000.0,-1000.0,-75.1953125
-411.1328125,-1000.0,-536.62109375,-25.87890625
-164.0625,203.61328125,807.12890625,-4.8828125
-503.90625,999.51171875,999.51171875,-39.0625
-990.72265625,123.53515625,148.92578125,-80.56640625
-999.51171875,-1000.0,-1000.0,-104.98046875
-988.76953125,-1000.0,-786.62109375,-65.4296875
-1000.0,-256.34765625,541.9921875,-10.25390625
-1000.0,999.51171875,999.51171875,-14.6484375
-990.72265625,368.1640625,158.69140625,-70.3125
-1000.0,-957.03125,-1000.0,-94.7265625
-983.3984375,-1000.0,-969.7265625,-39.0625
-589.84375,-189.94140625,254.39453125,-21.97265625
-254.39453125,999.51171875,999.51171875,-64.94140625
-307.12890625,890.625,273.92578125,-71.77734375
-359.86328125,-462.40234375,-998.046875,-85.44921875
-154.78515625,-1000.0,-1000.0,-61.03515625
289.55078125,102.05078125,99.12109375,12.20703125
450.68359375,999.51171875,999.51171875,8.7890625
218.26171875,889.16015625,375.48828125,-47.8515625
13.671875,-330.078125,-910.15625,-82.51953125
103.515625,-1000.0,-1000.0,-60.546875
458.0078125,-172.8515625,-145.99609375,-4.39453125
473.14453125,996.09375,999.51171875,-7.32421875
153.3203125,999.51171875,595.703125,-62.5
-40.52734375,-44.43359375,-746.09375,-92.28515625
81.0546875,-1000.0,-1000.0,-71.2890625
328.125,-265.625,-184.5703125,-19.04296875
-471.19140625,947.75390625,999.51171875,-5.37109375
-1000.0,999.51171875,919.43359375,-62.01171875
-977.5390625,223.14453125,-313.96484375,-96.6796875
-841.796875,-1000.0,-1000.0,-74.21875
-236.328125,-368.65234375,-210.44921875,-13.671875
188.96484375,939.94140625,999.51171875,9.27734375
152.34375,999.51171875,966.30859375,-44.921875
-13.671875,202.63671875,-221.19140625,-94.23828125
-28.3203125,-1000.0,-1000.0,-86.42578125
320.3125,-686.03515625,-300.78125,-25.390625
600.5859375,694.3359375,941.40625,0.48828125
489.74609375,999.51171875,999.51171875,-6.8359375
235.3515625,214.35546875,57.6171875,-71.2890625
139.16015625,-1000.0,-1000.0,-102.05078125
413.57421875,-845.21484375,-435.05859375,-38.0859375
680.6640625,502.9296875,879.8828125,-4.39453125
577.1484375,999.51171875,999.51171875,-32.2265625
296.875,232.91015625,133.7890625,-87.890625
155.2734375,-1000.0,-1000.0,-98.6328125
344.7265625,-616.69921875,-576.66015625,-37.109375
623.046875,770.01953125,773.92578125,-5.37109375
561.5234375,999.51171875,999.51171875,-44.43359375
268.06640625,277.83203125,169.43359375,-83.49609375
102.05078125,-975.5859375,-1000.0,-87.40234375
269.53125,-1000.0,-858.3984375,-44.43359375
569.3359375,43.9453125,444.3359375,11.23046875
552.24609375,999.51171875,999.51171875,2.44140625
282.71484375,559.08203125,223.14453125,-62.5
57.6171875,-774.4140625,-1000.0,-96.19140625
133.30078125,-1000.0,-1000.0,-47.8515625
456.54296875,-233.88671875,108.88671875,-3.90625
502.9296875,999.51171875,999.51171875,-28.80859375
224.12109375,550.78125,287.59765625,-69.82421875
-4.39453125,-837.40234375,-971.19140625,-85.9375
79.1015625,-1000.0,-1000.0,-53.22265625
404.296875,-187.98828125,-78.125,-7.32421875
476.07421875,999.51171875,999.51171875,-14.6484375
213.37890625,999.51171875,549.8046875,-57.12890625
-24.4140625,-134.765625,-784.1796875,-86.9140625
-27.83203125,-1000.0,-1000.0,-64.94140625
289.55078125,-288.0859375,-186.03515625,-16.6015625
440.91796875,964.35546875,999.51171875,-20.5078125
210.9375,999.51171875,694.3359375,-60.05859375
-61.5234375,-42.96875,-643.06640625,-95.703125
-100.5859375,-1000.0,-1000.0,-77.63671875
232.91015625,-385.25390625,-199.21875,0.9765625
413.0859375,896.97265625,999.51171875,19.04296875
200.68359375,999.51171875,935.05859375,-26.3671875
-61.5234375,198.73046875,-288.0859375,-69.82421875
-132.32421875,-1000.0,-1000.0,-76.171875
172.36328125,-267.08984375,-210.9375,-29.296875
380.859375,983.3984375,998.046875,-6.8359375
195.80078125,999.51171875,999.51171875,-37.59765625
-84.9609375,168.9453125,-75.68359375,-67.87109375
-180.6640625,-1000.0,-1000.0,-91.796875
89.35546875,-797.36328125,-365.72265625,-51.26953125
332.51953125,543.9453125,911.1328125,5.859375
226.07421875,999.51171875,999.51171875,-11.71875
-50.78125,233.3984375,114.74609375,-62.01171875
-191.89453125,-1000.0,-1000.0,-93.75
14.16015625,-921.875,-570.3125,-54.19921875
296.38671875,387.20703125,778.80859375,-7.8125
247.55859375,999.51171875,999.51171875,-27.34375
-46.38671875,312.01171875,161.1328125,-83.0078125
-217.28515625,-935.05859375,-1000.0,-94.7265625
-32.2265625,-1000.0,-844.7265625,-61.5234375
251.46484375,-148.92578125,465.8203125,-10.7421875
231.4453125,999.51171875,999.51171875,-13.18359375
-39.55078125,451.66015625,181.15234375,-86.42578125
-231.4453125,-896.97265625,-1000.0,-105.95703125
-103.02734375,-1000.0,-1000.0,-49.8046875
219.7265625,-194.3359375,185.546875,1.46484375
254.39453125,999.51171875,999.51171875,-16.6015625
-6.34765625,988.28125,317.3828125,-82.51953125
-215.8203125,-226.07421875,-958.49609375,-103.02734375
-137.20703125,-1000.0,-1000.0,-56.15234375
171.875,-175.78125,-24.90234375,1.46484375
240.234375,999.51171875,999.51171875,-6.34765625
10.7421875,999.51171875,465.8203125,-58.10546875
-210.44921875,-38.0859375,-852.05078125,-97.16796875
-181.15234375,-1000.0,-1000.0,-78.61328125
131.8359375,-190.4296875,-150.390625,-30.76171875
236.81640625,999.51171875,999.51171875,-3.41796875
3.41796875,999.51171875,661.1328125,-70.80078125
-231.93359375,-62.01171875,-679.6875,-191.40625
-238.76953125,-1000.0,-1000.0,-175.29296875
86.9140625,-322.265625,-187.01171875,-96.19140625
252.9296875,968.26171875,999.51171875,-79.1015625
37.109375,999.51171875,795.8984375,-103.02734375
-206.54296875,-109.375,-509.765625,-125.9765625
-246.09375,-1000.0,-1000.0,-107.421875
38.57421875,-557.12890625,-223.14453125,-104.00390625
234.86328125,764.6484375,996.58203125,-193.84765625
63.96484375,999.51171875,999.51171875,-239.2578125
-192.87109375,254.39453125,-140.625,-210.9375
-265.625,-1000.0,-1000.0,-183.59375
10.25390625,-720.703125,-313.4765625,-158.203125
262.20703125,675.78125,944.3359375,-106.93359375
118.1640625,999.51171875,999.51171875,-85.9375
-180.17578125,135.7421875,43.45703125,-117.67578125
-295.8984375,-1000.0,-1000.0,-123.53515625
-60.546875,-1000.0,-571.77734375,-79.58984375
221.19140625,-67.87109375,769.04296875,-43.45703125
157.71484375,999.51171875,999.51171875,-58.59375
-127.9296875,486.328125,125.9765625,-89.35546875
-280.76171875,-892.578125,-1000.0,-93.26171875
-96.19140625,-1000.0,-758.30078125,-21.484375
186.03515625,17.08984375,574.21875,-14.16015625
156.73828125,999.51171875,999.51171875,-118.65234375
-101.07421875,900.87890625,174.31640625,-145.99609375
-284.66796875,-329.58984375,-1000.0,-147.94921875
-155.76171875,-1000.0,-941.89453125,-165.52734375
153.3203125,-208.0078125,313.96484375,-154.78515625
176.26953125,999.51171875,999.51171875,-142.08984375
-104.98046875,590.33203125,213.8671875,-138.18359375
-300.78125,-796.38671875,-1000.0,-130.859375
-175.78125,-1000.0,-1000.0,-118.65234375
150.87890625,-211.9140625,57.12890625,-118.1640625
209.9609375,999.51171875,999.51171875,-121.09375
-83.984375,840.33203125,325.68359375,-114.2578125
-247.0703125,-486.81640625,-957.03125,-104.00390625
-450.1953125,-1000.0,-1000.0,-98.14453125
-620.60546875,-187.5,-63.96484375,-111.81640625
-454.58984375,978.515625,999.51171875,-106.93359375
-426.7578125,999.51171875,651.3671875,-96.6796875
-513.671875,3.41796875,-676.7578125,-78.125
-427.734375,-1000.0,-1000.0,-20.01953125
-40.52734375,-211.42578125,-172.8515625,45.8984375
107.421875,998.046875,999.51171875,71.77734375
-333.984375,999.51171875,793.45703125,21.484375
-873.046875,25.390625,-513.671875,-30.76171875
-1000.0,-1000.0,-1000.0,-13.18359375
-983.3984375,-584.47265625,-212.40234375,57.12890625
-1000.0,782.71484375,999.51171875,90.33203125
-986.81640625,999.51171875,920.8984375,46.875
-1000.0,84.9609375,-311.5234375,-14.16015625
-838.8671875,-1000.0,-1000.0,-19.04296875
-296.875,-518.06640625,-270.01953125,44.43359375
96.6796875,841.30859375,963.37890625,71.77734375
58.59375,999.51171875,999.51171875,27.34375
-130.37109375,190.91796875,-23.4375,-11.23046875
-164.0625,-1000.0,-1000.0,-19.04296875
148.92578125,-782.71484375,-429.6875,23.4375
452.63671875,562.5,872.55859375,63.96484375
387.6953125,999.51171875,999.51171875,21.97265625
150.390625,632.8125,142.08984375,-27.34375
14.16015625,-717.7734375,-1000.0,-25.390625
216.30859375,-1000.0,-667.96875,29.78515625
532.2265625,86.42578125,685.05859375,55.17578125
496.09375,999.51171875,999.51171875,16.11328125
205.56640625,463.37890625,147.94921875,-27.34375
34.1796875,-875.48828125,-1000.0,-39.55078125
201.171875,-1000.0,-891.6015625,-9.27734375
500.0,-125.0,391.11328125,42.48046875
494.140625,999.51171875,999.51171875,18.06640625
213.37890625,582.51953125,201.66015625,-32.2265625
19.53125,-852.05078125,-1000.0,-34.66796875
132.8125,-1000.0,-965.8203125,-20.99609375
432.12890625,145.5078125,274.4140625,8.30078125
482.91015625,999.51171875,999.51171875,13.18359375
201.171875,647.94921875,272.4609375,-27.34375
-33.69140625,-662.59765625,-967.28515625,-67.3828125
56.640625,-1000.0,-1000.0,-47.8515625
394.53125,-196.77734375,-81.54296875,12.20703125
487.79296875,999.51171875,999.51171875,5.37109375
207.51953125,933.59375,445.3125,-54.19921875
-37.59765625,-338.8671875,-876.46484375,-76.66015625
-13.18359375,-1000.0,-1000.0,-47.36328125
303.7109375,-157.71484375,-164.0625,-2.44140625
430.6640625,972.65625,999.51171875,14.16015625
193.359375,999.51171875,766.11328125,-28.3203125
-41.9921875,187.5,-548.33984375,-56.640625
-71.2890625,-1000.0,-1000.0,-40.52734375
226.5625,-533.69140625,-207.51953125,7.8125
410.15625,859.375,999.51171875,25.390625
190.4296875,999.51171875,856.93359375,-37.109375
-77.1484375,79.1015625,-421.38671875,-84.47265625
-137.6953125,-1000.0,-1000.0,-78.125
151.85546875,-494.62890625,-236.328125,-28.3203125
380.37109375,850.5859375,989.2578125,6.8359375
202.1484375,999.51171875,999.51171875,-42.48046875
-57.6171875,219.23828125,-113.76953125,-78.125
-168.45703125,-1000.0,-1000.0,-79.58984375
62.98828125,-897.4609375,-378.41796875,-28.3203125
327.1484375,434.5703125,913.57421875,6.8359375
215.8203125,999.51171875,999.51171875,-43.9453125
-77.1484375,128.90625,35.15625,-79.58984375
-209.47265625,-1000.0,-1000.0,-77.1484375
12.6953125,-1000.0,-631.8359375,-35.15625
293.45703125,-103.02734375,707.03125,-4.8828125
229.4921875,999.51171875,999.51171875,-25.390625
-56.15234375,254.39453125,134.27734375,-80.078125
-217.7734375,-1000.0,-1000.0,-96.19140625
-58.10546875,-999.0234375,-761.23046875,-50.78125
234.86328125,251.46484375,574.70703125,-19.53125
223.6328125,999.51171875,999.51171875,-27.34375
-55.6640625,274.4140625,157.2265625,-62.01171875
-246.09375,-976.5625,-1000.0,-87.890625
-114.2578125,-1000.0,-969.7265625,-61.5234375
215.8203125,-12.6953125,261.71875,-6.8359375
256.34765625,999.51171875,999.51171875,-13.671875
-29.296875,547.36328125,219.23828125,-74.21875
-244.140625,-791.9921875,-1000.0,-92.28515625
-146.97265625,-1000.0,-1000.0,-71.2890625
174.31640625,-223.14453125,-9.27734375,-27.34375
257.32421875,999.51171875,999.51171875,-4.8828125
8.7890625,733.88671875,360.83984375,-60.546875
-234.86328125,-632.32421875,-928.22265625,-105.46875
-193.84765625,-1000.0,-1000.0,-59.08203125
151.85546875,-216.796875,-166.50390625,-2.44140625
261.23046875,989.2578125,999.51171875,0.9765625
29.78515625,999.51171875,584.47265625,-27.83203125
-201.171875,-144.04296875,-763.18359375,-64.453125
-235.83984375,-1000.0,-1000.0,-60.546875
95.703125,-162.109375,-186.03515625,-4.39453125
260.25390625,976.07421875,999.51171875,-10.25390625
27.34375,999.51171875,812.5,-64.94140625
-214.84375,246.58203125,-474.12109375,-88.8671875
-266.11328125,-1000.0,-1000.0,-70.3125
32.71484375,-537.59765625,-218.75,-28.3203125
252.9296875,871.09375,999.51171875,7.32421875
74.21875,999.51171875,943.84765625,-44.921875
-211.9140625,41.50390625,-270.5078125,-115.234375
-289.55078125,-1000.0,-1000.0,-83.0078125
8.30078125,-682.6171875,-311.03515625,-24.4140625
256.34765625,669.921875,939.453125,-4.39453125
117.67578125,999.51171875,999.51171875,-33.69140625
-170.8984375,191.40625,20.5078125,-83.49609375
-282.71484375,-1000.0,-1000.0,-92.7734375
-33.203125,-681.640625,-453.61328125,-35.64453125
236.81640625,706.54296875,869.140625,-3.41796875
154.296875,999.51171875,999.51171875,-35.64453125
-140.625,155.76171875,101.5625,-77.63671875
-284.1796875,-1000.0,-1000.0,-88.8671875
-78.61328125,-1000.0,-669.921875,-43.45703125
201.66015625,188.4765625,672.8515625,-5.859375
163.0859375,999.51171875,999.51171875,-22.4609375
-132.32421875,310.546875,156.25,-60.546875
-304.6875,-938.96484375,-1000.0,-79.58984375
-118.65234375,-1000.0,-932.6171875,-49.8046875
173.828125,-189.94140625,320.3125,-1.953125
193.359375,999.51171875,999.51171875,-11.71875
-58.10546875,635.7421875,221.6796875,-69.3359375
-280.76171875,-741.2109375,-1000.0,-81.54296875
-161.62109375,-1000.0,-1000.0,-35.64453125
168.9453125,-212.890625,116.69921875,16.6015625
217.28515625,999.51171875,999.51171875,2.44140625
-47.36328125,656.25,303.7109375,-65.4296875
-276.85546875,-725.09765625,-963.37890625,-104.00390625
-223.14453125,-1000.0,-1000.0,-75.68359375
122.0703125,-160.64453125,-65.91796875,-25.87890625
232.91015625,963.37890625,999.51171875,-18.06640625
-14.16015625,999.51171875,562.5,-59.08203125
-229.00390625,193.359375,-767.578125,-95.21484375
-222.65625,-1000.0,-1000.0,-80.56640625
75.1953125,-424.31640625,-191.89453125,-14.16015625
222.65625,979.98046875,999.51171875,5.37109375
2.44140625,999.51171875,679.19921875,-46.38671875
-242.67578125,-251.953125,-666.9921875,-86.42578125
-263.671875,-1000.0,-1000.0,-62.98828125
52.24609375,-310.05859375,-192.3828125,-7.32421875
239.2578125,915.0390625,999.51171875,0.48828125
57.6171875,999.51171875,920.8984375,-35.64453125
-195.80078125,209.9609375,-307.12890625,-79.58984375
-292.48046875,-1000.0,-1000.0,-91.30859375
16.6015625,-380.859375,-247.0703125,-35.64453125
248.53515625,935.546875,993.65234375,-2.9296875
71.77734375,999.51171875,999.51171875,-31.73828125
-192.87109375,156.73828125,-136.71875,-72.75390625
-305.6640625,-1000.0,-1000.0,-100.5859375
-43.45703125,-871.09375,-403.80859375,-40.0390625
245.1171875,450.1953125,890.13671875,8.30078125
120.1171875,999.51171875,999.51171875,-28.3203125
-164.55078125,159.1796875,77.1484375,-79.1015625
-290.52734375,-1000.0,-1000.0,-82.51953125
-98.14453125,-959.9609375,-580.56640625,-36.62109375
205.078125,291.9921875,759.27734375,-7.32421875
152.34375,999.51171875,999.51171875,-19.53125
-139.16015625,346.6796875,167.48046875,-83.49609375
-295.8984375,-928.22265625,-1000.0,-81.54296875
-143.5546875,-1000.0,-852.5390625,-30.2734375
159.1796875,-102.5390625,456.54296875,-1.953125
174.31640625,999.51171875,999.51171875,-15.13671875
-110.83984375,410.15625,176.7578125,-83.49609375
-302.24609375,-932.12890625,-1000.0,-107.421875
-181.640625,-1000.0,-996.09375,-66.89453125
135.7421875,-74.21875,207.03125,-20.01953125
197.75390625,999.51171875,999.51171875,-2.9296875
-53.22265625,832.51953125,277.34375,-39.0625
-271.484375,-457.03125,-979.4921875,-77.1484375
-204.58984375,-1000.0,-1000.0,-46.38671875
123.046875,-208.49609375,-14.16015625,11.71875
223.6328125,999.51171875,999.51171875,4.8828125
-48.33984375,805.17578125,399.90234375,-46.875
-291.015625,-532.2265625,-899.90234375,-95.703125
-232.91015625,-1000.0,-1000.0,-83.49609375
86.9140625,-226.07421875,-175.29296875,-11.71875
219.23828125,995.60546875,999.51171875,-16.6015625
-12.6953125,999.51171875,609.86328125,-68.84765625
-267.578125,-187.01171875,-738.28125,-92.7734375
-263.671875,-1000.0,-1000.0,-72.75390625
78.125,-152.34375,-171.875,-18.06640625
241.69921875,977.05078125,999.51171875,-4.39453125
26.85546875,999.51171875,842.28515625,-43.9453125
-224.12109375,233.88671875,-434.08203125,-73.73046875
-302.24609375,-1000.0,-1000.0,-88.37890625
-10.25390625,-459.9609375,-214.35546875,-27.34375
226.07421875,896.484375,999.51171875,19.04296875
58.10546875,999.51171875,973.14453125,-32.71484375
-213.8671875,167.48046875,-201.171875,-99.12109375
-317.3828125,-1000.0,-1000.0,-97.65625
-54.19921875,-815.91796875,-353.515625,-32.71484375
211.9140625,534.1796875,917.96875,-1.46484375
102.05078125,999.51171875,999.51171875,-22.4609375
-182.12890625,153.80859375,45.41015625,-65.4296875
-315.91796875,-1000.0,-1000.0,-110.3515625
-72.75390625,-997.55859375,-526.85546875,-53.22265625
202.1484375,226.5625,806.640625,22.4609375
131.34765625,999.51171875,999.51171875,-10.7421875
-131.34765625,702.63671875,138.18359375,-61.5234375
-300.29296875,-620.60546875,-1000.0,-78.125
-119.62890625,-1000.0,-765.13671875,-40.0390625
197.75390625,-31.73828125,570.80078125,-5.859375
171.38671875,999.51171875,999.51171875,-21.97265625
-117.67578125,253.90625,146.97265625,-66.89453125
-282.71484375,-985.3515625,-1000.0,-79.58984375
-129.8828125,-1000.0,-958.0078125,-32.2265625
166.015625,-218.75,277.34375,9.27734375
191.40625,999.51171875,999.51171875,-5.37109375
-83.49609375,558.10546875,202.63671875,-73.73046875
-294.43359375,-824.70703125,-1000.0,-108.88671875
-166.50390625,-1000.0,-1000.0,-57.6171875
157.2265625,-163.0859375,64.94140625,7.32421875
202.63671875,999.51171875,999.51171875,23.4375
-38.57421875,999.51171875,391.6015625,-43.9453125
-252.9296875,-126.953125,-904.78515625,-101.07421875
-222.65625,-1000.0,-1000.0,-67.87109375
111.81640625,-213.37890625,-123.046875,-0.48828125
238.28125,999.51171875,999.51171875,12.20703125
-45.41015625,839.84375,495.60546875,-58.59375
-295.8984375,-463.8671875,-833.984375,-94.7265625
-264.16015625,-1000.0,-1000.0,-66.89453125
60.05859375,-385.7421875,-206.54296875,-23.4375
228.02734375,875.9765625,999.51171875,-3.90625
19.04296875,999.51171875,769.53125,-50.29296875
-251.46484375,152.83203125,-548.33984375,-89.35546875
-303.7109375,-1000.0,-1000.0,-80.56640625
33.203125,-411.62109375,-201.66015625,-30.2734375
228.515625,909.66796875,999.51171875,-26.85546875
27.83203125,999.51171875,987.79296875,-78.61328125
-227.5390625,198.73046875,-167.48046875,-114.74609375
-384.765625,-1000.0,-1000.0,-125.0
-218.26171875,-808.59375,-300.29296875,-77.1484375
-8.30078125,547.36328125,958.49609375,-45.41015625
-114.74609375,999.51171875,999.51171875,-89.84375
-341.796875,157.71484375,-22.94921875,-124.0234375
-414.0625,-1000.0,-1000.0,-117.67578125
-139.6484375,-984.375,-486.81640625,-72.265625
153.80859375,268.06640625,838.37890625,-25.390625
104.4921875,999.51171875,999.51171875,-27.34375
-178.7109375,208.984375,104.98046875,-85.44921875
-335.44921875,-1000.0,-1000.0,-98.6328125
-117.67578125,-1000.0,-655.76171875,-36.62109375
184.08203125,217.7734375,691.89453125,-55.17578125
155.2734375,999.51171875,999.51171875,-125.9765625
-134.765625,365.234375,159.1796875,-156.73828125
-298.33984375,-914.55078125,-1000.0,-151.85546875
-125.48828125,-1000.0,-901.85546875,-87.40234375
168.45703125,-159.66796875,375.9765625,-22.4609375
172.36328125,999.51171875,999.51171875,-19.04296875
-113.28125,642.08984375,196.2890625,-82.51953125
-306.15234375,-771.484375,-1000.0,-110.3515625
-175.78125,-1000.0,-1000.0,-77.63671875
156.25,39.0625,169.921875,-29.78515625
215.8203125,999.51171875,999.51171875,-25.390625
-30.76171875,671.875,269.53125,-75.1953125
-243.1640625,-651.3671875,-977.05078125,-101.07421875
-190.91796875,-1000.0,-1000.0,-72.75390625
143.06640625,-196.77734375,-62.98828125,-16.11328125
246.58203125,999.51171875,999.51171875,-20.01953125
3.90625,927.734375,450.1953125,-77.1484375
-229.4921875,-340.8203125,-870.1171875,-98.6328125
-217.7734375,-1000.0,-1000.0,-82.03125
118.1640625,-200.68359375,-162.109375,-44.921875
253.41796875,953.125,999.51171875,-40.0390625
22.4609375,999.51171875,795.8984375,-83.49609375
-213.8671875,229.98046875,-506.8359375,-104.00390625
-242.1875,-1000.0,-1000.0,-82.51953125
71.2890625,-479.4921875,-195.3125,-46.875
252.9296875,881.8359375,999.51171875,-35.64453125
52.24609375,999.51171875,876.953125,-85.44921875
-204.58984375,208.0078125,-387.6953125,-110.3515625
-269.53125,-1000.0,-1000.0,-98.14453125
13.671875,-627.44140625,-251.46484375,-54.6875
246.58203125,771.97265625,993.65234375,-30.2734375
87.890625,999.51171875,996.09375,-74.70703125
-196.77734375,133.7890625,-167.48046875,-93.26171875
-287.109375,-1000.0,-1000.0,-85.9375
-17.578125,-756.8359375,-342.7734375,-58.10546875
222.65625,604.00390625,924.8046875,-24.90234375
103.515625,999.51171875,999.51171875,-57.6171875
-157.71484375,156.25,57.12890625,-76.171875
-298.828125,-1000.0,-1000.0,-83.984375
-91.30859375,-998.53515625,-559.08203125,-79.1015625
206.54296875,237.3046875,782.2265625,-27.83203125
154.78515625,999.51171875,999.51171875,-36.62109375
-138.671875,246.58203125,139.6484375,-99.12109375
-303.7109375,-1000.0,-1000.0,-86.9140625
-113.28125,-1000.0,-770.5078125,-23.4375
207.03125,120.1171875,560.05859375,-15.625
201.66015625,999.51171875,999.51171875,-57.12890625
-112.3046875,356.4453125,172.8515625,-89.84375
-311.03515625,-916.50390625,-1000.0,-66.40625
-151.85546875,-1000.0,-987.3046875,-40.52734375
158.203125,-228.02734375,223.6328125,-10.25390625
193.359375,999.51171875,999.51171875,-8.7890625
-62.5,767.08984375,234.86328125,-72.75390625
-276.85546875,-588.37890625,-997.0703125,-85.9375
-187.5,-1000.0,-1000.0,-56.640625
139.16015625,-157.71484375,-19.04296875,-20.99609375
223.14453125,965.8203125,999.51171875,-40.52734375
-25.390625,999.51171875,491.69921875,-101.07421875
-259.27734375,179.6875,-832.51953125,-112.3046875
-243.1640625,-1000.0,-1000.0,-75.1953125
98.6328125,-233.3984375,-149.90234375,-15.625
237.3046875,999.51171875,999.51171875,-6.8359375
-11.71875,947.75390625,563.4765625,-56.640625
-250.0,-272.94921875,-780.76171875,-116.69921875
-246.09375,-1000.0,-1000.0,-98.14453125
48.828125,-429.19921875,-202.63671875,-40.52734375
203.125,877.44140625,999.51171875,-30.2734375
18.06640625,999.51171875,789.0625,-47.36328125
-232.421875,15.625,-526.3671875,-82.51953125
-290.52734375,-1000.0,-1000.0,-76.66015625
25.87890625,-317.3828125,-202.63671875,-12.20703125
237.79296875,939.453125,999.51171875,-9.765625
56.640625,999.51171875,949.21875,-62.5
-200.68359375,182.6171875,-257.32421875,-80.078125
-302.24609375,-1000.0,-1000.0,-71.2890625
-9.27734375,-357.421875,-269.53125,-29.78515625
250.9765625,937.01171875,961.9140625,3.41796875
92.7734375,999.51171875,999.51171875,-44.921875
-208.984375,197.265625,5.37109375,-106.93359375
-315.4296875,-1000.0,-1000.0,-83.984375
-60.05859375,-870.60546875,-472.65625,-17.578125
211.42578125,458.0078125,847.65625,-5.859375
121.58203125,999.51171875,999.51171875,-57.6171875
-166.9921875,170.41015625,119.140625,-83.984375
-303.7109375,-1000.0,-1000.0,-69.3359375
-113.76953125,-1000.0,-717.7734375,-24.90234375
182.6171875,25.390625,623.53515625,-26.3671875
162.59765625,999.51171875,999.51171875,-57.6171875
-137.20703125,350.5859375,160.15625,-81.54296875
-312.01171875,-953.61328125,-1000.0,-81.0546875
-158.69140625,-1000.0,-875.0,-26.3671875
170.8984375,21.97265625,396.97265625,7.8125
212.40234375,999.51171875,999.51171875,-13.18359375
-46.875,999.51171875,452.1484375,-69.3359375
-269.53125,45.41015625,-871.58203125,-101.5625
-233.3984375,-1000.0,-1000.0,-69.3359375
83.49609375,-226.5625,37.59765625,-33.69140625
199.70703125,999.51171875,999.51171875,-41.9921875
-15.625,864.2578125,520.99609375,-65.91796875
-273.92578125,-448.2421875,-805.17578125,-86.42578125
-275.390625,-1000.0,-1000.0,-67.3828125
72.75390625,-191.40625,-133.30078125,-20.99609375
238.76953125,982.91015625,999.51171875,-12.20703125
25.87890625,999.51171875,768.5546875,-61.03515625
-249.51171875,-31.73828125,-552.734375,-90.8203125
-287.59765625,-1000.0,-1000.0,-85.44921875
62.01171875,-183.59375,-150.87890625,-24.90234375
243.1640625,999.51171875,999.51171875,-4.8828125
39.55078125,999.51171875,893.06640625,-64.94140625
-230.46875,-63.96484375,-357.421875,-101.07421875
-312.5,-1000.0,-1000.0,-81.0546875
0.0,-735.3515625,-235.3515625,-25.87890625
213.37890625,590.33203125,999.51171875,-12.20703125
32.71484375,999.51171875,884.27734375,-42.96875
-233.88671875,122.0703125,-384.765625,-85.9375
-303.22265625,-1000.0,-1000.0,-81.0546875
0.0,-703.61328125,-303.22265625,-35.64453125
227.05078125,666.9921875,970.703125,-20.5078125
72.75390625,999.51171875,999.51171875,-42.48046875
-192.3828125,166.015625,-166.50390625,-66.40625
-301.7578125,-1000.0,-1000.0,-68.84765625
-44.43359375,-881.8359375,-416.50390625,-39.55078125
220.21484375,443.359375,879.39453125,-7.8125
115.72265625,999.51171875,999.51171875,-45.8984375
-174.31640625,133.30078125,66.40625,-111.81640625
-317.3828125,-1000.0,-1000.0,-97.65625
-101.07421875,-1000.0,-681.640625,-47.36328125
187.01171875,-14.6484375,653.80859375,-16.6015625
134.765625,999.51171875,999.51171875,-47.36328125
-126.953125,933.10546875,155.2734375,-110.83984375
-302.24609375,-320.3125,-1000.0,-92.7734375
-171.875,-1000.0,-854.4921875,-62.5
151.85546875,-9.27734375,455.078125,-56.15234375
159.1796875,999.51171875,999.51171875,-46.38671875
-119.62890625,418.9453125,167.96875,-81.0546875
-305.17578125,-903.80859375,-1000.0,-122.0703125
-172.8515625,-1000.0,-998.53515625,-80.078125
145.99609375,-187.01171875,201.171875,-24.4140625
190.91796875,999.51171875,999.51171875,-31.25
-81.54296875,654.296875,251.46484375,-66.40625
-295.41015625,-727.5390625,-996.09375,-77.1484375
-210.44921875,-1000.0,-1000.0,-54.19921875
118.1640625,-156.25,12.6953125,-42.96875
216.796875,999.51171875,999.51171875,-58.10546875
-22.4609375,724.12109375,373.53515625,-80.56640625
-270.01953125,-633.7890625,-915.0390625,-88.8671875
-267.578125,-1000.0,-1000.0,-60.05859375
72.75390625,-155.76171875,-167.48046875,-9.27734375
218.26171875,961.42578125,999.51171875,-25.87890625
-1.953125,999.51171875,675.29296875,-74.70703125
-229.4921875,227.05078125,-662.59765625,-84.9609375
-272.4609375,-1000.0,-1000.0,-70.80078125
35.64453125,-446.77734375,-199.70703125,-42.48046875
233.88671875,923.828125,999.51171875,-29.78515625
27.34375,999.51171875,814.94140625,-63.4765625
-248.046875,23.92578125,-485.83984375,-96.19140625
-307.12890625,-1000.0,-1000.0,-74.70703125
-1.953125,-298.33984375,-215.8203125,-9.27734375
222.65625,947.75390625,999.51171875,-17.08984375
66.89453125,999.51171875,965.8203125,-86.9140625
-196.77734375,179.6875,-219.23828125,-84.47265625
-281.73828125,-1000.0,-1000.0,-52.24609375
-11.71875,-713.8671875,-333.0078125,-19.04296875
244.62890625,633.7890625,920.41015625,5.37109375
116.2109375,999.51171875,999.51171875,-40.0390625
-161.1328125,463.8671875,94.23828125,-97.65625
-313.96484375,-901.3671875,-1000.0,-81.54296875
-108.88671875,-1000.0,-533.203125,-33.203125
193.84765625,174.8046875,810.546875,-11.71875
121.58203125,999.51171875,999.51171875,-48.828125
-147.94921875,265.13671875,130.859375,-88.37890625
-296.875,-977.05078125,-1000.0,-74.21875
-135.25390625,-1000.0,-751.953125,-53.22265625
165.0390625,-82.03125,583.49609375,-34.66796875
146.484375,999.51171875,999.51171875,-45.41015625
-119.62890625,503.90625,185.546875,-74.70703125
-305.6640625,-957.51953125,-1000.0,-71.77734375
-169.43359375,-1000.0,-839.35546875,-51.26953125
162.59765625,343.75,472.65625,-30.2734375
181.15234375,999.51171875,999.51171875,-42.48046875
-84.9609375,677.24609375,256.34765625,-78.125
-305.17578125,-613.28125,-991.2109375,-81.0546875
-202.1484375,-1000.0,-1000.0,-60.05859375
125.9765625,-220.703125,62.5,-31.25
190.4296875,999.51171875,999.51171875,-38.57421875
-51.26953125,683.59375,323.73046875,-66.40625
-277.34375,-696.2890625,-949.70703125,-71.77734375
-220.21484375,-1000.0,-1000.0,-67.3828125
95.703125,-187.5,-123.53515625,-43.45703125
191.89453125,999.51171875,999.51171875,-30.2734375
-24.4140625,992.1875,576.66015625,-61.5234375
-256.34765625,-208.49609375,-765.625,-83.49609375
-265.625,-1000.0,-1000.0,-64.453125
71.77734375,-261.23046875,-180.6640625,-24.4140625
231.4453125,947.265625,999.51171875,-16.11328125
3.41796875,999.51171875,832.51953125,-59.5703125
-237.79296875,126.953125,-459.47265625,-67.87109375
-291.9921875,-1000.0,-1000.0,-64.453125
2.9296875,-565.4296875,-209.47265625,-44.43359375
219.7265625,799.8046875,999.51171875,-10.7421875
46.38671875,999.51171875,932.12890625,-42.96875
-213.8671875,205.56640625,-284.66796875,-81.0546875
-281.73828125,-1000.0,-1000.0,-60.546875
-15.625,-844.23828125,-278.3203125,-10.7421875
211.42578125,504.8828125,965.8203125,-12.20703125
74.70703125,999.51171875,999.51171875,-54.19921875
-207.51953125,176.7578125,-46.875,-83.0078125
-312.5,-1000.0,-1000.0,-75.1953125
-67.3828125,-805.6640625,-376.953125,-35.15625
170.8984375,524.90234375,906.73828125,-21.484375
94.23828125,999.51171875,999.51171875,-44.43359375
-155.2734375,454.58984375,129.8828125,-82.51953125
-298.33984375,-1000.0,-1000.0,-89.84375
-84.47265625,-722.65625,-553.22265625,-35.64453125
220.21484375,718.26171875,796.875,-10.25390625
164.55078125,999.51171875,999.51171875,-47.36328125
-123.53515625,283.69140625,155.76171875,-67.3828125
-306.640625,-948.2421875,-1000.0,-65.91796875
-138.18359375,-1000.0,-860.3515625,-38.57421875
68.359375,-117.67578125,440.4296875,-19.53125
-76.66015625,999.51171875,999.51171875,-32.71484375
-306.15234375,542.96875,208.0078125,-69.82421875
-462.40234375,-819.82421875,-1000.0,-82.51953125
-306.15234375,-1000.0,-1000.0,-44.921875
81.54296875,-173.33984375,195.80078125,-10.7421875
134.27734375,999.51171875,999.51171875,-45.8984375
-120.60546875,999.51171875,355.95703125,-78.61328125
-305.17578125,-191.89453125,-929.6875,-67.3828125
-240.72265625,-1000.0,-1000.0,-52.734375
119.140625,-190.91796875,-61.03515625,-27.34375
105.46875,999.51171875,999.51171875,-20.01953125
-232.91015625,987.79296875,467.28515625,-62.5
-390.13671875,-231.4453125,-857.91015625,-83.0078125
-311.03515625,-1000.0,-1000.0,-46.38671875
8.7890625,-158.203125,-139.6484375,-16.11328125
91.796875,972.65625,999.51171875,-24.4140625
-105.46875,999.51171875,686.5234375,-61.5234375
-297.8515625,232.91015625,-641.6015625,-77.63671875
-318.84765625,-1000.0,-1000.0,-52.734375
4.8828125,-434.5703125,-192.3828125,13.18359375
197.75390625,920.41015625,999.51171875,-8.30078125
29.296875,999.51171875,875.0,-79.58984375
-208.49609375,97.16796875,-390.625,-78.125
-270.5078125,-1000.0,-1000.0,-68.359375
34.66796875,-692.3828125,-238.76953125,-25.87890625
265.625,667.48046875,981.4453125,-5.37109375
128.41796875,999.51171875,999.51171875,-38.0859375
-148.4375,193.359375,-75.1953125,-70.80078125
-241.2109375,-1000.0,-1000.0,-63.4765625
42.48046875,-325.1953125,-271.484375,-27.34375
268.5546875,957.03125,961.9140625,-9.765625
118.1640625,999.51171875,999.51171875,-48.33984375
-151.3671875,177.734375,83.984375,-82.03125
-264.16015625,-1000.0,-1000.0,-63.96484375
-40.52734375,-1000.0,-523.4375,-21.97265625
248.53515625,150.87890625,809.08203125,-5.859375
188.96484375,999.51171875,999.51171875,-30.76171875
-107.91015625,300.29296875,170.41015625,-68.84765625
-272.94921875,-968.75,-1000.0,-85.9375
-91.796875,-1000.0,-753.90625,-45.41015625
226.07421875,-30.2734375,583.984375,-17.08984375
223.14453125,999.51171875,999.51171875,-20.5078125
-63.96484375,443.84765625,189.94140625,-45.41015625
-277.34375,-885.25390625,-1000.0,-68.359375
-146.484375,-1000.0,-962.890625,-46.38671875
185.546875,-219.23828125,274.90234375,-15.625
212.40234375,999.51171875,999.51171875,-26.85546875
-54.6875,722.65625,265.625,-71.2890625
-258.30078125,-648.4375,-997.55859375,-88.37890625
-173.33984375,-1000.0,-1000.0,-60.05859375
160.64453125,-178.7109375,77.63671875,-26.3671875
240.234375,999.51171875,999.51171875,-24.90234375
-18.5546875,999.51171875,431.15234375,-68.84765625
-266.11328125,-177.24609375,-880.37109375,-94.7265625
-232.421875,-1000.0,-1000.0,-73.2421875
127.9296875,-206.0546875,-90.33203125,-35.15625
251.953125,999.51171875,999.51171875,-36.62109375
9.27734375,883.7890625,585.9375,-69.82421875
-233.3984375,-401.85546875,-747.55859375,-75.68359375
-247.0703125,-1000.0,-1000.0,-47.8515625
55.6640625,-298.33984375,-179.19921875,-29.78515625
239.74609375,925.29296875,999.51171875,-37.109375
42.96875,999.51171875,835.9375,-54.6875
-210.44921875,97.65625,-451.66015625,-73.2421875
-266.11328125,-1000.0,-1000.0,-68.359375
46.38671875,-188.4765625,-176.7578125,-37.109375
260.25390625,993.1640625,999.51171875,-35.15625
74.21875,999.51171875,999.51171875,-63.4765625
-190.91796875,223.14453125,-128.41796875,-60.05859375
-305.17578125,-1000.0,-1000.0,-55.6640625
-32.2265625,-727.05078125,-281.25,-44.921875
235.3515625,651.85546875,960.9375,-14.16015625
100.09765625,999.51171875,999.51171875,-46.38671875
-178.7109375,151.3671875,32.71484375,-83.0078125
-292.48046875,-1000.0,-1000.0,-65.4296875
-65.91796875,-1000.0,-452.1484375,-32.2265625
206.0546875,149.90234375,859.375,-23.92578125
142.578125,999.51171875,999.51171875,-45.41015625
-135.7421875,357.421875,172.8515625,-72.75390625
-312.5,-968.75,-1000.0,-73.2421875
-112.79296875,-1000.0,-631.8359375,-49.31640625
185.546875,130.859375,728.515625,-43.45703125
158.69140625,999.51171875,999.51171875,-48.33984375
-120.60546875,291.015625,164.0625,-77.63671875
-296.875,-966.796875,-1000.0,-77.1484375
-127.44140625,-1000.0,-870.1171875,-35.15625
182.6171875,-87.890625,423.33984375,-13.18359375
189.94140625,999.51171875,999.51171875,-27.34375
-102.5390625,539.0625,216.30859375,-64.94140625
-299.8046875,-815.4296875,-1000.0,-77.1484375
-169.921875,-1000.0,-1000.0,-31.25
157.2265625,-185.546875,169.43359375,-15.625
188.4765625,999.51171875,999.51171875,-43.9453125
-62.5,923.33984375,364.2578125,-73.73046875
-254.39453125,-348.6328125,-930.17578125,-72.75390625
-215.8203125,-1000.0,-1000.0,-53.22265625
112.3046875,-199.70703125,-34.1796875,-20.99609375
229.00390625,999.51171875,999.51171875,-23.92578125
-23.92578125,890.625,512.6953125,-74.21875
-249.0234375,-410.15625,-819.82421875,-70.3125
-237.3046875,-1000.0,-1000.0,-44.43359375
78.61328125,-173.828125,-125.48828125,-31.73828125
227.5390625,999.51171875,999.51171875,-39.0625
1.46484375,999.51171875,732.421875,-62.98828125
-255.37109375,-96.6796875,-582.03125,-76.171875
-283.69140625,-1000.0,-1000.0,-60.546875
62.98828125,-394.53125,-185.05859375,-21.97265625
255.37109375,884.765625,999.51171875,-15.625
51.7578125,999.51171875,964.84375,-50.29296875
-226.07421875,210.9375,-222.16796875,-78.61328125
-303.7109375,-1000.0,-1000.0,-46.875
10.25390625,-644.53125,-241.2109375,21.484375
238.76953125,746.58203125,970.21484375,55.17578125
86.42578125,999.51171875,999.51171875,20.99609375
-191.40625,186.5234375,42.96875,-15.625
-305.17578125,-1000.0,-1000.0,-6.34765625
-40.52734375,-818.359375,-368.65234375,21.484375
216.796875,521.97265625,921.875,41.015625
105.46875,999.51171875,999.51171875,30.76171875
-158.69140625,277.34375,118.65234375,-16.6015625
-309.08203125,-1000.0,-1000.0,-32.2265625
-95.21484375,-1000.0,-562.5,18.5546875
206.54296875,187.98828125,784.1796875,50.78125
143.5546875,999.51171875,999.51171875,18.06640625
-162.59765625,211.42578125,161.62109375,-25.390625
-338.37890625,-1000.0,-1000.0,-36.62109375
-138.18359375,-982.421875,-719.7265625,-13.671875
186.5234375,269.04296875,625.9765625,33.203125
169.921875,999.51171875,999.51171875,32.71484375
-101.5625,358.3984375,185.546875,-17.578125
-297.8515625,-912.109375,-1000.0,-55.17578125
-179.6875,-1000.0,-978.02734375,-11.71875
144.53125,-187.01171875,247.55859375,32.71484375
190.4296875,999.51171875,999.51171875,22.94921875
-88.8671875,591.30859375,261.23046875,-25.87890625
-310.546875,-792.96875,-991.69921875,-62.98828125
-209.47265625,-1000.0,-1000.0,-40.0390625
134.765625,-174.31640625,30.2734375,16.6015625
216.30859375,999.51171875,999.51171875,32.2265625
-38.57421875,820.80078125,400.87890625,-23.92578125
-272.4609375,-482.91015625,-892.08984375,-47.36328125
-237.79296875,-1000.0,-1000.0,-20.99609375
88.8671875,-345.703125,-171.875,19.53125
211.9140625,889.16015625,999.51171875,1.46484375
-8.7890625,999.51171875,686.03515625,-57.6171875
-248.53515625,202.63671875,-646.484375,-72.75390625
-274.4140625,-1000.0,-1000.0,-57.12890625
56.640625,-359.86328125,-179.19921875,-4.8828125
231.93359375,940.91796875,999.51171875,16.6015625
32.2265625,999.51171875,945.80078125,-25.87890625
-214.84375,216.796875,-269.53125,-59.5703125
-289.55078125,-1000.0,-1000.0,-64.453125
2.44140625,-645.99609375,-223.6328125,-11.71875
221.6796875,753.90625,999.51171875,13.671875
70.80078125,999.51171875,973.6328125,-41.015625
-198.2421875,130.859375,-207.51953125,-89.35546875
-302.24609375,-1000.0,-1000.0,-69.82421875
-27.83203125,-770.01953125,-312.01171875,-16.11328125
230.46875,587.40234375,941.40625,20.99609375
115.72265625,999.51171875,999.51171875,-10.25390625
-178.22265625,157.71484375,29.296875,-73.73046875
-324.21875,-1000.0,-1000.0,-79.1015625
-83.984375,-986.81640625,-468.26171875,-37.59765625
201.171875,265.13671875,850.5859375,-14.16015625
116.2109375,999.51171875,999.51171875,-15.625
-163.57421875,174.8046875,137.20703125,-59.08203125
-287.109375,-1000.0,-1000.0,-76.66015625
-104.00390625,-1000.0,-749.51171875,-17.08984375
181.15234375,-93.26171875,584.47265625,15.13671875
158.69140625,999.51171875,999.51171875,-8.30078125
-115.72265625,738.76953125,182.12890625,-46.875
-295.8984375,-641.11328125,-1000.0,-72.75390625
-156.25,-1000.0,-932.6171875,-48.33984375
166.9921875,44.921875,335.9375,-2.44140625
189.94140625,999.51171875,999.51171875,-9.27734375
-93.75,390.13671875,202.1484375,-60.05859375
-296.875,-908.69140625,-1000.0,-93.75
-180.17578125,-1000.0,-1000.0,-48.828125
151.3671875,-202.1484375,92.7734375,4.39453125
191.89453125,999.51171875,999.51171875,-16.11328125
-73.2421875,955.56640625,357.421875,-65.4296875
-286.62109375,-298.828125,-928.7109375,-62.98828125
-229.98046875,-1000.0,-1000.0,-35.64453125
106.4453125,-156.73828125,-98.14453125,9.27734375
211.42578125,971.6796875,999.51171875,4.39453125
-23.92578125,999.51171875,612.79296875,-49.31640625
-253.41796875,203.61328125,-722.16796875,-64.453125
-266.11328125,-1000.0,-1000.0,-50.78125
48.33984375,-296.875,-175.29296875,-17.578125
212.890625,990.72265625,999.51171875,-0.48828125
4.39453125,999.51171875,776.85546875,-35.15625
-239.2578125,18.5546875,-535.64453125,-64.94140625
-277.34375,-1000.0,-1000.0,-65.4296875
20.01953125,-519.04296875,-211.42578125,-17.08984375
228.02734375,827.1484375,999.51171875,7.8125
46.38671875,999.51171875,947.265625,-43.45703125
-212.890625,184.5703125,-272.4609375,-83.984375
-290.52734375,-1000.0,-1000.0,-70.80078125
5.37109375,-248.53515625,-219.23828125,-5.37109375
233.88671875,984.86328125,982.421875,12.20703125
71.77734375,999.51171875,999.51171875,-43.45703125
-194.82421875,191.89453125,2.44140625,-79.1015625
-311.03515625,-1000.0,-1000.0,-81.54296875
-69.82421875,-984.86328125,-425.78125,-42.96875
210.44921875,263.671875,882.32421875,2.9296875
125.0,999.51171875,999.51171875,-17.578125
-171.38671875,235.3515625,112.79296875,-68.84765625
-327.1484375,-1000.0,-1000.0,-95.21484375
-127.9296875,-1000.0,-627.44140625,-61.03515625
175.29296875,244.140625,724.609375,0.9765625
136.23046875,999.51171875,999.51171875,-5.859375
-158.203125,251.46484375,155.2734375,-65.91796875
-319.82421875,-972.16796875,-1000.0,-92.28515625
-141.11328125,-1000.0,-850.5859375,-52.734375
174.31640625,-118.1640625,453.125,-3.90625
181.15234375,999.51171875,999.51171875,-14.6484375
-101.07421875,539.0625,196.2890625,-65.91796875
-300.29296875,-822.265625,-1000.0,-73.73046875
-199.21875,-1000.0,-997.55859375,-56.640625
145.01953125,-169.921875,201.66015625,-2.9296875
202.63671875,999.51171875,999.51171875,-2.9296875
-84.47265625,999.51171875,339.84375,-68.359375
-273.4375,-147.94921875,-946.2890625,-94.23828125
-180.6640625,-1000.0,-1000.0,-64.453125
132.32421875,-215.33203125,-24.90234375,-8.7890625
200.1953125,999.51171875,999.51171875,-4.39453125
-47.8515625,818.84765625,401.3671875,-43.45703125
-268.06640625,-514.6484375,-900.87890625,-77.63671875
-231.4453125,-1000.0,-1000.0,-67.3828125
78.125,-207.03125,-170.8984375,-19.04296875
216.30859375,997.55859375,999.51171875,-3.41796875
-6.34765625,999.51171875,652.34375,-47.36328125
-255.859375,-157.71484375,-693.359375,-73.73046875
-261.23046875,-1000.0,-1000.0,-67.87109375
67.3828125,-210.9375,-183.10546875,-23.4375
227.05078125,970.21484375,999.51171875,-1.953125
21.97265625,999.51171875,861.328125,-49.8046875
-213.8671875,128.90625,-409.1796875,-78.61328125
-289.0625,-1000.0,-1000.0,-80.56640625
3.90625,-600.09765625,-210.44921875,-27.34375
250.9765625,770.99609375,960.9375,18.06640625
99.12109375,999.51171875,999.51171875,-10.7421875
-199.70703125,197.75390625,127.44140625,-76.171875
-328.125,-1000.0,-1000.0,-106.93359375
-62.5,-653.3203125,-368.1640625,-41.9921875
218.26171875,737.79296875,923.33984375,26.85546875
130.37109375,999.51171875,999.51171875,3.41796875
-166.015625,170.41015625,184.5703125,-73.2421875
-334.47265625,-1000.0,-1000.0,-98.14453125
-121.09375,-1000.0,-632.8125,-41.015625
180.6640625,97.65625,730.46875,4.8828125
166.50390625,999.51171875,999.51171875,-11.71875
-131.8359375,151.3671875,163.57421875,-70.80078125
-325.68359375,-1000.0,-1000.0,-91.30859375
-156.25,-1000.0,-882.32421875,-61.03515625
147.4609375,-106.4453125,401.85546875,-15.625
179.6875,999.51171875,999.51171875,-10.25390625
-72.265625,911.1328125,270.5078125,-70.80078125
-293.9453125,-351.5625,-1000.0,-95.703125
-198.2421875,-1000.0,-1000.0,-77.63671875
141.11328125,-146.97265625,153.80859375,-26.85546875
205.078125,999.51171875,999.51171875,1.46484375
-49.8046875,780.76171875,349.12109375,-55.6640625
-287.109375,-555.6640625,-934.08203125,-89.84375
-227.05078125,-1000.0,-1000.0,-64.94140625
103.515625,-211.9140625,-90.8203125,-19.53125
203.125,999.51171875,999.51171875,-5.37109375
