TP9,AF7,AF8,TP10
114.2578125,-38.57421875,-836.9140625,-109.375
-731.93359375,-1000.0,-1000.0,-97.65625
-590.33203125,-388.18359375,-162.59765625,-70.80078125
-300.78125,892.578125,999.51171875,-69.3359375
-637.6953125,999.51171875,674.8046875,-84.9609375
-182.6171875,205.56640625,-664.55078125,-101.07421875
673.33984375,-1000.0,-1000.0,-94.23828125
966.796875,-222.65625,-191.89453125,-89.84375
952.1484375,999.51171875,999.51171875,-113.28125
960.44921875,999.51171875,806.640625,-92.28515625
966.30859375,164.55078125,-493.65234375,-77.1484375
964.84375,-1000.0,-1000.0,-65.4296875
972.65625,-515.13671875,-231.4453125,-41.50390625
912.109375,851.07421875,989.2578125,-42.48046875
935.05859375,999.51171875,999.51171875,-73.2421875
889.6484375,207.51953125,-122.55859375,-68.359375
507.8125,-1000.0,-1000.0,-56.640625
28.80859375,-537.59765625,-289.55078125,-62.98828125
-639.6484375,872.55859375,959.9609375,-47.36328125
-1000.0,999.51171875,999.51171875,-55.17578125
-945.3125,-12.20703125,18.06640625,-79.1015625
-1000.0,-1000.0,-1000.0,-75.1953125
-438.4765625,-899.90234375,-484.375,-61.03515625
-44.921875,366.69921875,840.33203125,-62.98828125
-772.94921875,999.51171875,999.51171875,-68.359375
-893.5546875,128.90625,134.27734375,-57.12890625
-964.84375,-1000.0,-1000.0,-57.12890625
-1000.0,-1000.0,-697.75390625,-65.91796875
-938.4765625,-108.88671875,645.5078125,-54.19921875
-280.76171875,999.51171875,999.51171875,-62.5
-20.99609375,635.7421875,192.87109375,-60.546875
-286.1328125,-770.5078125,-1000.0,-40.0390625
52.24609375,-1000.0,-898.92578125,-38.57421875
716.796875,58.59375,392.578125,-69.3359375
999.0234375,999.51171875,999.51171875,-88.8671875
845.21484375,470.703125,194.82421875,-65.4296875
746.58203125,-894.53125,-1000.0,-63.96484375
990.72265625,-1000.0,-1000.0,-63.96484375
510.7421875,70.3125,148.92578125,-64.453125
-284.66796875,999.51171875,999.51171875,-75.68359375
367.1875,999.51171875,350.5859375,-68.84765625
936.03515625,32.2265625,-930.6640625,-62.98828125
948.2421875,-1000.0,-1000.0,-30.76171875
957.51953125,-211.9140625,-105.46875,-16.6015625
966.30859375,999.51171875,999.51171875,-49.31640625
965.33203125,967.28515625,514.6484375,-64.94140625
965.8203125,-274.90234375,-824.21875,-60.546875
966.30859375,-1000.0,-1000.0,-44.921875
899.90234375,-215.33203125,-176.7578125,-5.859375
999.51171875,999.51171875,999.51171875,-18.5546875
203.61328125,754.8828125,687.01171875,-19.04296875
-1000.0,-607.91015625,-653.3203125,-10.25390625
-119.140625,-1000.0,-1000.0,-3.90625
568.84765625,-182.12890625,-204.58984375,46.38671875
235.83984375,999.51171875,999.51171875,56.15234375
195.80078125,999.51171875,832.03125,20.99609375
76.171875,-206.0546875,-456.0546875,-31.73828125
-764.16015625,-1000.0,-1000.0,-50.78125
-1000.0,-989.74609375,-291.015625,18.06640625
-956.54296875,167.96875,971.19140625,46.875
-997.55859375,999.51171875,999.51171875,-13.18359375
-1000.0,87.890625,-152.83203125,-54.19921875
-784.1796875,-1000.0,-1000.0,-50.29296875
-233.88671875,-626.46484375,-399.4140625,-11.23046875
166.015625,743.1640625,890.13671875,19.53125
44.921875,999.51171875,999.51171875,-17.578125
-289.0625,155.2734375,103.515625,-83.49609375
-595.703125,-1000.0,-1000.0,-81.0546875
-516.6015625,-1000.0,-618.1640625,-12.6953125
-518.5546875,167.96875,735.83984375,27.34375
-939.94140625,999.51171875,999.51171875,0.48828125
-1000.0,135.7421875,104.98046875,-40.52734375
-979.4921875,-1000.0,-1000.0,-68.359375
-1000.0,-1000.0,-887.6953125,-46.875
-1000.0,-99.12109375,397.94921875,6.8359375
-973.14453125,999.51171875,999.51171875,2.44140625
-1000.0,267.08984375,127.44140625,-40.52734375
-777.83203125,-997.0703125,-1000.0,-77.1484375
-289.0625,-1000.0,-1000.0,-47.8515625
-554.19921875,-104.98046875,139.6484375,-18.5546875
-874.51171875,999.51171875,999.51171875,-15.13671875
-987.3046875,333.0078125,157.2265625,-31.25
-1000.0,-951.66015625,-1000.0,-57.6171875
-995.60546875,-1000.0,-1000.0,-32.71484375
-1000.0,-239.74609375,-142.08984375,26.85546875
-1000.0,999.51171875,999.51171875,38.57421875
-1000.0,732.91015625,265.13671875,-16.6015625
-1000.0,-638.18359375,-987.79296875,-66.89453125
-1000.0,-1000.0,-1000.0,-17.578125
-1000.0,-222.65625,-218.26171875,37.109375
-1000.0,999.51171875,999.51171875,19.04296875
-1000.0,645.5078125,376.46484375,-27.34375
-1000.0,-721.6796875,-936.5234375,-61.5234375
-1000.0,-1000.0,-1000.0,-58.10546875
-1000.0,-343.75,-240.72265625,-16.6015625
-1000.0,941.40625,999.51171875,30.2734375
-999.51171875,999.51171875,671.875,15.625
-993.1640625,-159.1796875,-680.6640625,-48.828125
-1000.0,-1000.0,-1000.0,-71.77734375
-883.30078125,-316.89453125,-218.26171875,-2.9296875
-751.46484375,917.48046875,998.046875,15.625
-856.4453125,999.51171875,996.09375,-20.5078125
-922.8515625,215.8203125,-155.2734375,-54.6875
-918.9453125,-1000.0,-1000.0,-86.42578125
-733.88671875,-661.62109375,-312.01171875,-15.625
-586.9140625,728.02734375,944.3359375,24.90234375
-666.015625,999.51171875,999.51171875,-5.37109375
-771.97265625,188.96484375,36.1328125,-48.33984375
-809.08203125,-1000.0,-1000.0,-78.61328125
-622.0703125,-734.86328125,-404.296875,-24.4140625
-473.6328125,640.13671875,897.94921875,8.7890625
-534.1796875,999.51171875,999.51171875,-7.8125
-625.0,227.5390625,164.0625,-55.17578125
-661.62109375,-1000.0,-1000.0,-98.14453125
-485.3515625,-491.69921875,-491.69921875,-41.50390625
-326.66015625,869.140625,848.14453125,19.53125
-397.4609375,999.51171875,999.51171875,26.85546875
-523.92578125,294.921875,203.61328125,-36.1328125
-566.40625,-967.28515625,-1000.0,-80.078125
-452.63671875,-1000.0,-791.015625,-62.98828125
-273.92578125,5.37109375,541.015625,-26.3671875
-296.875,999.51171875,999.51171875,-3.90625
-459.9609375,488.28125,250.48828125,-43.9453125
-524.4140625,-917.48046875,-1000.0,-74.70703125
-388.18359375,-1000.0,-932.12890625,-41.9921875
-182.6171875,224.609375,345.21484375,-6.8359375
-205.56640625,999.51171875,999.51171875,-19.04296875
-325.68359375,999.51171875,414.55078125,-46.38671875
-390.625,-11.23046875,-898.92578125,-85.44921875
-310.546875,-1000.0,-1000.0,-75.1953125
-117.1875,-201.171875,43.45703125,-6.8359375
-106.4453125,999.51171875,999.51171875,4.39453125
-227.5390625,981.93359375,555.6640625,-37.109375
-325.68359375,-238.28125,-772.4609375,-98.14453125
-252.44140625,-1000.0,-1000.0,-97.16796875
-56.15234375,-158.203125,-121.09375,-8.7890625
-33.203125,972.65625,999.51171875,5.37109375
-159.1796875,999.51171875,811.03515625,-49.8046875
-258.7890625,227.05078125,-483.88671875,-92.7734375
-231.93359375,-1000.0,-1000.0,-100.09765625
-55.17578125,-281.73828125,-190.4296875,-38.0859375
-32.71484375,974.12109375,999.51171875,-8.7890625
-164.0625,999.51171875,871.58203125,-62.5
-266.6015625,227.5390625,-394.53125,-113.28125
-268.5546875,-1000.0,-1000.0,-110.3515625
-96.19140625,-524.4140625,-234.375,-51.26953125
-14.16015625,856.4453125,988.76953125,-24.4140625
-94.7265625,999.51171875,999.51171875,-49.8046875
-208.0078125,198.73046875,-105.46875,-54.19921875
-238.28125,-1000.0,-1000.0,-83.0078125
-40.52734375,-646.97265625,-311.03515625,-152.34375
97.16796875,732.91015625,936.5234375,-187.98828125
-4.8828125,999.51171875,999.51171875,-196.2890625
-148.92578125,286.62109375,116.69921875,-194.82421875
-149.90234375,-1000.0,-1000.0,-177.734375
17.08984375,-864.2578125,-458.984375,-163.0859375
136.71875,478.515625,866.69921875,-100.09765625
28.80859375,999.51171875,999.51171875,-93.75
-130.859375,408.203125,180.6640625,-140.13671875
-145.5078125,-945.3125,-1000.0,-145.01953125
-15.13671875,-1000.0,-681.640625,-128.90625
107.421875,224.609375,676.7578125,-120.60546875
27.83203125,999.51171875,999.51171875,-121.58203125
-120.1171875,252.44140625,183.59375,-132.8125
-185.05859375,-957.51953125,-1000.0,-132.32421875
-41.50390625,-1000.0,-961.42578125,-112.79296875
107.421875,-253.41796875,283.69140625,-120.1171875
34.1796875,999.51171875,999.51171875,-129.8828125
-102.5390625,399.4140625,204.58984375,-106.93359375
-177.24609375,-940.91796875,-1000.0,-92.7734375
-79.58984375,-1000.0,-1000.0,-70.80078125
88.37890625,-188.4765625,-6.34765625,-74.21875
57.6171875,983.88671875,999.51171875,-109.375
-87.40234375,999.51171875,418.45703125,-115.234375
-169.43359375,4.8828125,-894.04296875,-95.703125
-113.76953125,-1000.0,-1000.0,-64.94140625
54.19921875,-293.9453125,-138.18359375,-10.7421875
79.58984375,999.51171875,999.51171875,23.4375
-73.2421875,725.09765625,488.28125,-42.96875
-174.8046875,-638.671875,-845.21484375,-77.1484375
-112.79296875,-1000.0,-1000.0,-26.85546875
64.453125,-388.18359375,-206.0546875,51.26953125
107.91015625,916.50390625,999.51171875,72.75390625
-20.5078125,999.51171875,759.27734375,28.80859375
-151.85546875,-144.04296875,-570.3125,-13.18359375
-134.27734375,-1000.0,-1000.0,-15.13671875
53.7109375,-330.078125,-177.734375,37.109375
105.95703125,914.0625,999.51171875,59.5703125
-20.01953125,999.51171875,999.51171875,30.76171875
-143.06640625,206.0546875,-126.953125,-27.83203125
-158.69140625,-1000.0,-1000.0,-37.59765625
37.109375,-516.11328125,-229.00390625,38.57421875
120.1171875,858.88671875,979.00390625,58.10546875
-18.06640625,999.51171875,999.51171875,20.99609375
-143.06640625,204.58984375,52.24609375,-17.578125
-160.15625,-1000.0,-1000.0,-23.92578125
6.34765625,-631.34765625,-329.58984375,16.11328125
110.83984375,760.7421875,937.01171875,53.22265625
-12.6953125,999.51171875,999.51171875,19.53125
-156.25,168.45703125,164.0625,-38.57421875
-180.17578125,-1000.0,-1000.0,-48.828125
-12.20703125,-948.73046875,-545.41015625,-12.6953125
113.28125,331.0546875,808.10546875,21.97265625
29.296875,999.51171875,999.51171875,-1.953125
-110.3515625,204.58984375,183.10546875,-48.828125
-149.4140625,-1000.0,-1000.0,-61.03515625
-1.46484375,-1000.0,-748.046875,-31.73828125
133.30078125,231.4453125,591.796875,26.85546875
64.94140625,999.51171875,999.51171875,37.109375
-74.21875,956.0546875,268.5546875,-23.4375
-158.69140625,-194.3359375,-1000.0,-64.94140625
-74.21875,-1000.0,-958.984375,-41.50390625
114.2578125,-122.0703125,310.546875,22.4609375
91.30859375,999.51171875,999.51171875,29.296875
-85.44921875,593.26171875,314.94140625,-15.13671875
-160.64453125,-775.390625,-971.6796875,-48.33984375
-84.47265625,-1000.0,-1000.0,-62.5
74.21875,-195.80078125,81.54296875,-22.4609375
70.3125,999.51171875,999.51171875,-1.953125
-89.84375,927.24609375,557.12890625,-32.71484375
-178.22265625,-355.95703125,-791.015625,-60.05859375
-124.51171875,-1000.0,-1000.0,-64.94140625
70.3125,-133.30078125,6.8359375,-18.5546875
89.84375,999.51171875,999.51171875,4.39453125
-74.21875,999.51171875,784.66796875,-35.64453125
-162.109375,-104.98046875,-502.9296875,-77.1484375
-131.34765625,-1000.0,-1000.0,-77.63671875
60.546875,-179.19921875,-126.953125,-6.34765625
120.1171875,991.69921875,999.51171875,24.4140625
-21.97265625,999.51171875,972.16796875,-15.13671875
-141.11328125,72.75390625,-209.9609375,-70.3125
-149.4140625,-1000.0,-1000.0,-103.02734375
37.59765625,-319.3359375,-164.55078125,-41.50390625
113.76953125,938.96484375,990.72265625,-4.39453125
-19.04296875,999.51171875,999.51171875,-26.3671875
-151.85546875,215.33203125,83.984375,-76.66015625
-177.24609375,-1000.0,-1000.0,-99.609375
15.625,-688.4765625,-241.69921875,-32.2265625
128.41796875,699.70703125,981.4453125,5.859375
-1.46484375,999.51171875,999.51171875,-22.94921875
-153.80859375,188.96484375,138.18359375,-60.546875
-155.2734375,-1000.0,-1000.0,-73.2421875
31.73828125,-630.37109375,-333.49609375,-39.55078125
163.57421875,766.6015625,936.5234375,18.06640625
63.4765625,999.51171875,999.51171875,14.6484375
-105.95703125,860.3515625,235.3515625,-32.71484375
-162.109375,-442.3828125,-1000.0,-69.82421875
-6.8359375,-1000.0,-581.54296875,-56.640625
137.6953125,204.58984375,782.71484375,5.859375
44.921875,999.51171875,999.51171875,-11.23046875
-111.81640625,333.0078125,224.609375,-67.3828125
-174.31640625,-983.3984375,-1000.0,-91.796875
-44.43359375,-1000.0,-737.79296875,-73.73046875
116.69921875,170.41015625,609.86328125,-31.25
47.8515625,999.51171875,999.51171875,-30.2734375
-97.65625,804.6875,357.91015625,-67.3828125
-184.5703125,-599.12109375,-1000.0,-94.23828125
-73.73046875,-1000.0,-876.953125,-63.4765625
114.2578125,416.50390625,467.28515625,-27.83203125
82.03125,999.51171875,999.51171875,-35.64453125
-71.2890625,780.76171875,475.09765625,-81.54296875
-185.05859375,-474.609375,-854.4921875,-115.72265625
-104.4921875,-1000.0,-1000.0,-102.5390625
92.28515625,-158.203125,77.63671875,-40.52734375
97.65625,999.51171875,999.51171875,-18.06640625
-38.0859375,931.15234375,630.859375,-78.125
-163.57421875,-330.078125,-688.96484375,-95.703125
-124.0234375,-1000.0,-1000.0,-75.68359375
75.1953125,-167.96875,-111.81640625,-40.52734375
90.8203125,988.28125,999.51171875,1.46484375
-54.19921875,999.51171875,834.47265625,-41.015625
-164.55078125,31.25,-445.80078125,-104.4921875
-126.953125,-1000.0,-1000.0,-106.4453125
79.1015625,-364.74609375,-185.05859375,-50.29296875
131.8359375,925.29296875,999.51171875,0.9765625
0.48828125,999.51171875,942.87109375,-60.05859375
-124.0234375,104.98046875,-278.3203125,-164.55078125
-82.51953125,-1000.0,-1000.0,-151.85546875
43.45703125,-210.44921875,-202.63671875,-51.7578125
356.4453125,979.98046875,994.62890625,-14.6484375
880.859375,999.51171875,999.51171875,-108.3984375
983.88671875,724.12109375,-31.25,-139.6484375
946.77734375,-800.29296875,-1000.0,-106.93359375
969.23828125,-869.140625,-396.97265625,-66.89453125
965.33203125,633.30078125,911.62109375,-15.13671875
965.33203125,999.51171875,999.51171875,-17.578125
965.33203125,138.18359375,36.1328125,-81.54296875
965.8203125,-1000.0,-1000.0,-100.09765625
965.33203125,-1000.0,-703.61328125,-27.34375
965.33203125,9.27734375,645.01953125,32.2265625
965.33203125,999.51171875,999.51171875,-21.97265625
965.8203125,165.52734375,50.29296875,-88.8671875
962.40234375,-1000.0,-1000.0,-69.82421875
979.00390625,-1000.0,-895.5078125,-36.62109375
914.0625,166.015625,381.8359375,-23.4375
893.5546875,999.51171875,999.51171875,-24.4140625
999.51171875,122.55859375,91.796875,-64.453125
54.6875,-1000.0,-1000.0,-82.03125
-1000.0,-1000.0,-1000.0,-53.7109375
-383.30078125,-302.734375,57.12890625,15.625
777.83203125,999.51171875,999.51171875,32.2265625
985.3515625,494.140625,163.0859375,-33.69140625
933.10546875,-895.01953125,-1000.0,-74.21875
968.75,-1000.0,-1000.0,-51.26953125
965.8203125,-211.9140625,-97.16796875,8.30078125
965.33203125,999.51171875,999.51171875,33.69140625
965.33203125,812.5,308.10546875,-3.41796875
965.33203125,-525.390625,-967.7734375,-83.984375
965.8203125,-1000.0,-1000.0,-86.9140625
959.9609375,-200.68359375,-168.45703125,7.32421875
981.93359375,999.51171875,999.51171875,34.1796875
893.06640625,873.046875,506.8359375,-21.484375
894.04296875,-414.0625,-845.703125,-52.734375
885.7421875,-1000.0,-1000.0,-37.59765625
853.02734375,-290.52734375,-207.51953125,24.90234375
977.05078125,916.015625,999.51171875,49.8046875
964.84375,999.51171875,792.96875,28.80859375
963.37890625,220.703125,-518.06640625,-20.01953125
965.8203125,-1000.0,-1000.0,-38.0859375
972.16796875,-594.23828125,-215.8203125,43.9453125
898.4375,806.15234375,999.51171875,49.8046875
999.51171875,999.51171875,959.47265625,-63.96484375
416.9921875,108.88671875,-243.1640625,-120.1171875
-843.75,-1000.0,-1000.0,-73.2421875
-380.859375,-786.1328125,-297.8515625,-2.9296875
626.953125,559.08203125,954.1015625,39.55078125
959.9609375,999.51171875,999.51171875,41.50390625
946.2890625,193.84765625,-22.94921875,-6.34765625
961.9140625,-1000.0,-1000.0,-75.1953125
972.16796875,-412.59765625,-378.90625,-67.87109375
920.41015625,917.48046875,909.66796875,27.83203125
999.51171875,999.51171875,999.51171875,38.0859375
572.265625,141.6015625,114.2578125,-81.0546875
-551.7578125,-995.60546875,-1000.0,-90.8203125
-971.6796875,-1000.0,-726.5625,-20.99609375
-968.26171875,-261.71875,615.234375,-60.546875
-1000.0,999.51171875,999.51171875,-53.7109375
-872.0703125,199.21875,153.80859375,-68.84765625
-449.21875,-1000.0,-1000.0,-79.1015625
62.01171875,-1000.0,-849.12109375,-15.625
771.484375,145.01953125,458.0078125,19.04296875
794.43359375,999.51171875,999.51171875,7.32421875
-443.84765625,254.8828125,188.4765625,-28.3203125
-887.20703125,-960.44921875,-1000.0,-54.19921875
-125.0,-1000.0,-1000.0,-4.8828125
-319.3359375,-251.46484375,114.2578125,27.83203125
-643.5546875,999.51171875,999.51171875,19.04296875
-548.828125,636.23046875,292.48046875,-54.6875
-188.4765625,-756.8359375,-975.5859375,-138.671875
522.4609375,-1000.0,-1000.0,-136.71875
411.1328125,-190.4296875,-30.76171875,-51.26953125
-711.9140625,999.51171875,999.51171875,2.44140625
-1000.0,698.2421875,467.28515625,-43.45703125
-933.59375,-673.33984375,-860.3515625,-80.56640625
-554.19921875,-1000.0,-1000.0,-62.5
407.71484375,-161.1328125,-124.0234375,12.20703125
999.51171875,999.51171875,999.51171875,50.78125
880.37109375,999.51171875,692.3828125,-9.765625
-371.58203125,-148.92578125,-637.20703125,-56.15234375
-743.1640625,-1000.0,-1000.0,-43.9453125
354.98046875,-213.8671875,-189.94140625,26.3671875
898.92578125,959.47265625,999.51171875,31.73828125
969.7265625,999.51171875,895.5078125,-24.90234375
855.95703125,206.54296875,-367.1875,-34.1796875
862.3046875,-1000.0,-1000.0,-31.25
936.03515625,-200.68359375,-178.22265625,12.6953125
999.51171875,999.51171875,999.51171875,54.6875
631.34765625,999.51171875,999.51171875,25.390625
-377.9296875,182.12890625,-86.42578125,-41.9921875
-190.4296875,-1000.0,-1000.0,-91.796875
629.8828125,-621.58203125,-302.734375,-5.859375
947.265625,754.8828125,943.359375,63.96484375
957.51953125,999.51171875,999.51171875,5.859375
958.984375,229.00390625,105.46875,-31.73828125
962.890625,-1000.0,-1000.0,-35.15625
960.44921875,-728.02734375,-428.7109375,-4.39453125
957.03125,657.2265625,885.7421875,8.7890625
690.4296875,999.51171875,999.51171875,-3.90625
76.171875,153.3203125,184.5703125,-59.5703125
-766.11328125,-983.88671875,-1000.0,-86.42578125
-1000.0,-1000.0,-703.61328125,-20.01953125
-970.21484375,-264.6484375,646.484375,24.4140625
-990.234375,999.51171875,999.51171875,7.32421875
-1000.0,536.1328125,232.91015625,-40.52734375
-848.14453125,-864.2578125,-1000.0,-69.82421875
-728.02734375,-1000.0,-862.79296875,-12.20703125
-799.31640625,-152.83203125,452.63671875,36.1328125
-846.19140625,999.51171875,999.51171875,17.08984375
-1000.0,562.01171875,287.59765625,-61.03515625
-779.78515625,-828.125,-1000.0,-91.796875
-474.12109375,-1000.0,-1000.0,-39.55078125
-6.8359375,-40.0390625,206.54296875,2.44140625
790.0390625,999.51171875,999.51171875,1.953125
972.16796875,999.51171875,515.625,-32.2265625
949.21875,31.73828125,-841.30859375,-61.5234375
974.12109375,-1000.0,-1000.0,-40.0390625
903.80859375,21.97265625,138.18359375,17.08984375
999.51171875,999.51171875,999.51171875,0.48828125
570.3125,999.51171875,844.23828125,-30.2734375
-793.9453125,-81.54296875,-434.5703125,-62.5
-391.6015625,-1000.0,-1000.0,-65.91796875
728.02734375,105.95703125,77.63671875,17.578125
997.55859375,999.51171875,999.51171875,39.0625
780.76171875,999.51171875,983.3984375,-4.39453125
642.578125,241.69921875,-124.0234375,-62.98828125
858.88671875,-1000.0,-1000.0,-104.00390625
971.19140625,-204.1015625,-116.69921875,-24.90234375
949.21875,999.51171875,999.51171875,26.85546875
986.81640625,999.51171875,999.51171875,-46.38671875
905.2734375,232.421875,31.25,-86.42578125
744.62890625,-1000.0,-1000.0,-86.9140625
899.4140625,-414.0625,-186.5234375,-36.1328125
960.9375,899.90234375,992.67578125,16.6015625
986.81640625,999.51171875,999.51171875,-13.18359375
625.0,459.47265625,168.9453125,-60.546875
-52.734375,-966.796875,-1000.0,-93.26171875
-350.09765625,-976.5625,-325.68359375,-53.7109375
-737.79296875,408.69140625,952.63671875,17.578125
-1000.0,999.51171875,999.51171875,2.44140625
-972.16796875,60.05859375,161.1328125,-60.546875
-1000.0,-1000.0,-1000.0,-158.69140625
-813.96484375,-1000.0,-561.5234375,-206.54296875
-666.50390625,9.27734375,793.9453125,-140.625
-988.28125,999.51171875,999.51171875,-93.26171875
-1000.0,159.66796875,161.62109375,-114.2578125
-876.953125,-1000.0,-1000.0,-116.69921875
-185.05859375,-1000.0,-812.01171875,-130.37109375
684.08203125,84.47265625,512.6953125,-107.421875
974.12109375,999.51171875,999.51171875,-70.3125
946.77734375,361.328125,136.71875,-86.42578125
963.8671875,-919.43359375,-1000.0,-95.703125
967.28515625,-1000.0,-1000.0,-78.125
962.890625,-218.26171875,78.61328125,-21.484375
966.30859375,999.51171875,999.51171875,-19.04296875
969.23828125,401.3671875,155.76171875,-79.1015625
855.95703125,-937.01171875,-1000.0,-111.81640625
865.234375,-1000.0,-1000.0,-83.49609375
962.890625,-229.4921875,-175.29296875,-30.2734375
986.328125,999.51171875,999.51171875,-52.734375
756.8359375,191.89453125,173.828125,-124.0234375
398.4375,-1000.0,-1000.0,-154.78515625
412.59765625,-1000.0,-1000.0,-144.53125
670.41015625,-665.0390625,-281.73828125,-80.078125
909.66796875,944.82421875,999.51171875,-41.9921875
882.32421875,344.7265625,228.515625,-88.37890625
743.1640625,-1000.0,-1000.0,-129.39453125
802.24609375,-929.19921875,-1000.0,-103.02734375
999.51171875,-1000.0,-386.71875,-104.4921875
524.90234375,40.52734375,999.51171875,-97.65625
-630.37109375,893.06640625,501.953125,-79.1015625
-1000.0,-676.7578125,-862.3046875,-119.140625
-978.515625,-1000.0,-1000.0,-108.88671875
-926.7578125,-1000.0,-466.30859375,-51.26953125
-381.8359375,-253.90625,992.1875,-19.04296875
148.4375,999.51171875,733.3984375,-33.69140625
278.80859375,-58.59375,-653.3203125,-96.19140625
314.453125,-1000.0,-1000.0,-98.14453125
659.1796875,-789.0625,-486.328125,-34.66796875
999.51171875,616.69921875,875.9765625,18.5546875
-12.20703125,999.51171875,999.51171875,-15.625
-1000.0,-388.671875,-251.46484375,-89.35546875
-449.21875,-1000.0,-1000.0,-73.73046875
-208.984375,-1000.0,-579.1015625,-7.8125
-864.2578125,-143.06640625,744.140625,20.99609375
-445.3125,999.51171875,999.51171875,-0.9765625
-196.77734375,161.62109375,45.41015625,-62.01171875
-239.2578125,-1000.0,-1000.0,-78.125
230.46875,-1000.0,-784.1796875,-36.1328125
219.23828125,-86.42578125,529.78515625,12.6953125
309.08203125,999.51171875,999.51171875,5.37109375
454.58984375,444.3359375,153.80859375,-61.03515625
-131.34765625,-944.3359375,-1000.0,-75.1953125
-579.1015625,-1000.0,-869.140625,-55.6640625
-10.7421875,121.58203125,430.17578125,-17.08984375
476.07421875,999.51171875,999.51171875,13.671875
230.46875,439.94140625,205.078125,-34.1796875
-423.33984375,-864.74609375,-1000.0,-75.68359375
-1000.0,-1000.0,-1000.0,-55.17578125
-997.0703125,-298.828125,99.12109375,3.41796875
-985.83984375,999.51171875,999.51171875,-4.39453125
-1000.0,486.81640625,303.7109375,-62.98828125
-983.3984375,-901.85546875,-966.796875,-93.75
-1000.0,-1000.0,-1000.0,-91.30859375
-821.77734375,-173.828125,-51.7578125,-41.015625
-340.8203125,967.7734375,999.51171875,-9.765625
-657.71484375,999.51171875,626.46484375,-45.8984375
-1000.0,127.44140625,-715.33203125,-87.890625
-984.375,-1000.0,-1000.0,-90.33203125
-976.07421875,-218.26171875,-115.234375,-15.13671875
-983.88671875,999.51171875,999.51171875,20.01953125
-1000.0,999.51171875,758.7890625,-19.04296875
-999.0234375,-177.734375,-555.17578125,-56.640625
-1000.0,-1000.0,-1000.0,-57.12890625
-1000.0,-224.12109375,-166.015625,-1.46484375
-1000.0,963.37890625,999.51171875,20.5078125
-986.328125,999.51171875,965.33203125,-34.66796875
-988.28125,125.0,-230.95703125,-88.37890625
-1000.0,-1000.0,-1000.0,-82.51953125
-186.03515625,-191.89453125,-185.546875,-18.5546875
272.94921875,995.60546875,999.0234375,-0.48828125
-49.31640625,999.51171875,999.51171875,-20.99609375
-478.02734375,221.19140625,-20.5078125,-72.265625
-1000.0,-1000.0,-1000.0,-96.19140625
-991.69921875,-438.4765625,-266.6015625,-14.6484375
-992.1875,903.3203125,959.47265625,25.390625
-995.60546875,999.51171875,999.51171875,-35.15625
-991.69921875,212.40234375,147.94921875,-100.5859375
-1000.0,-1000.0,-1000.0,-92.7734375
-639.6484375,-589.35546875,-411.62109375,-41.9921875
-226.5625,793.45703125,901.85546875,-2.44140625
-709.9609375,999.51171875,999.51171875,-16.11328125
-1000.0,212.890625,199.21875,-80.078125
-977.05078125,-1000.0,-1000.0,-92.28515625
-988.28125,-1000.0,-628.90625,-55.17578125
-1000.0,218.75,729.00390625,-10.7421875
-998.046875,999.51171875,999.51171875,-20.01953125
-510.25390625,902.34375,263.18359375,-73.73046875
-533.69140625,-483.3984375,-1000.0,-85.9375
-677.734375,-990.72265625,-756.34765625,-51.7578125
40.0390625,586.42578125,593.26171875,2.9296875
742.67578125,999.51171875,999.51171875,5.859375
978.515625,999.51171875,436.03515625,-30.76171875
947.75390625,246.58203125,-915.0390625,-65.91796875
965.33203125,-1000.0,-1000.0,-54.19921875
966.30859375,-151.85546875,215.33203125,-13.671875
965.33203125,999.51171875,999.51171875,-21.484375
965.33203125,945.3125,517.578125,-84.47265625
965.33203125,-287.59765625,-823.73046875,-142.578125
965.8203125,-1000.0,-1000.0,-113.76953125
965.33203125,-121.58203125,45.41015625,-46.875
965.33203125,990.234375,999.51171875,-30.2734375
965.33203125,999.51171875,750.0,-72.265625
965.33203125,77.1484375,-560.05859375,-119.140625
965.33203125,-1000.0,-1000.0,-106.4453125
965.33203125,17.578125,-40.0390625,-16.6015625
965.33203125,999.51171875,999.51171875,1.46484375
965.33203125,999.51171875,918.45703125,-60.05859375
965.8203125,193.84765625,-291.015625,-98.6328125
965.8203125,-1000.0,-1000.0,-94.7265625
967.7734375,-254.39453125,-166.015625,-50.29296875
950.68359375,982.91015625,999.51171875,-19.53125
972.16796875,999.51171875,999.51171875,-43.45703125
881.34765625,180.17578125,-96.19140625,-110.83984375
236.81640625,-1000.0,-1000.0,-123.046875
-295.41015625,-768.06640625,-230.95703125,-45.41015625
-750.9765625,631.8359375,979.00390625,-1.46484375
-1000.0,999.51171875,999.51171875,-35.64453125
-978.515625,-48.828125,62.5,-84.47265625
-1000.0,-1000.0,-1000.0,-99.12109375
-1000.0,-931.15234375,-354.98046875,-60.546875
-1000.0,304.19921875,924.31640625,-6.34765625
-1000.0,999.51171875,999.51171875,-20.99609375
-1000.0,132.32421875,166.015625,-81.0546875
-1000.0,-1000.0,-1000.0,-88.37890625
-1000.0,-1000.0,-585.9375,-49.8046875
-985.3515625,-82.03125,766.6015625,-13.18359375
-1000.0,999.51171875,999.51171875,-21.97265625
-909.66796875,601.5625,211.42578125,-75.68359375
-437.01171875,-863.28125,-1000.0,-99.12109375
86.9140625,-1000.0,-745.60546875,-63.4765625
738.76953125,347.65625,602.05078125,-10.25390625
997.55859375,999.51171875,999.51171875,-11.23046875
888.671875,920.8984375,282.71484375,-69.82421875
999.51171875,-238.28125,-1000.0,-101.07421875
318.359375,-1000.0,-949.21875,-70.3125
-920.41015625,-216.30859375,324.21875,-12.6953125
-1000.0,999.51171875,999.51171875,-6.34765625
-967.28515625,778.80859375,470.21484375,-59.5703125
-1000.0,-658.203125,-937.98828125,-104.4921875
-1000.0,-1000.0,-963.37890625,-59.5703125
-990.234375,241.2109375,414.55078125,9.27734375
-992.1875,999.51171875,999.51171875,-7.8125
-960.9375,999.51171875,898.4375,-57.6171875
-452.1484375,147.4609375,-388.18359375,-83.49609375
520.01953125,-985.83984375,-1000.0,-65.91796875
990.72265625,475.09765625,358.88671875,-7.8125
943.359375,999.51171875,999.51171875,-5.859375
959.9609375,892.578125,999.51171875,-55.17578125
967.7734375,975.5859375,78.125,-81.54296875
965.8203125,965.8203125,-1000.0,-78.125
965.33203125,966.30859375,196.2890625,-22.4609375
965.33203125,965.8203125,999.51171875,-1.46484375
965.33203125,966.30859375,999.51171875,-36.1328125
965.33203125,965.8203125,200.1953125,-78.61328125
965.33203125,963.8671875,-1000.0,-89.35546875
965.33203125,965.8203125,-23.92578125,-29.296875
965.33203125,966.30859375,999.51171875,17.578125
965.33203125,904.78515625,999.51171875,-27.83203125
965.33203125,999.51171875,235.3515625,-88.37890625
965.33203125,33.203125,-1000.0,-94.7265625
965.33203125,-282.71484375,-135.7421875,-51.7578125
965.33203125,999.51171875,999.51171875,-7.8125
965.33203125,974.12109375,999.51171875,-25.87890625
965.33203125,933.59375,395.99609375,-75.1953125
978.515625,972.65625,-1000.0,-110.3515625
908.203125,977.05078125,-229.98046875,-72.265625
999.51171875,893.06640625,999.51171875,-5.859375
769.53125,999.51171875,999.51171875,-23.4375
-694.3359375,432.6171875,345.21484375,-68.359375
-959.47265625,-961.42578125,-1000.0,-104.98046875
-562.98828125,-1000.0,-387.20703125,-59.5703125
-967.28515625,124.51171875,932.12890625,12.20703125
-1000.0,999.51171875,999.51171875,-13.18359375
-980.46875,508.30078125,370.60546875,-76.66015625
-1000.0,-1000.0,-1000.0,-109.86328125
-1000.0,-733.3984375,-587.890625,-82.51953125
-1000.0,722.65625,801.7578125,-18.06640625
-1000.0,999.51171875,999.51171875,-5.859375
-971.6796875,676.7578125,315.4296875,-52.734375
-1000.0,-609.375,-951.66015625,-96.6796875
-662.109375,-1000.0,-1000.0,-73.73046875
263.671875,-215.8203125,1.953125,-7.32421875
715.8203125,999.51171875,999.51171875,-5.37109375
667.96875,739.2578125,244.140625,-54.6875
748.046875,-624.0234375,-980.95703125,-86.9140625
880.859375,-1000.0,-1000.0,-70.80078125
-224.12109375,-850.5859375,-225.5859375,-28.3203125
-518.5546875,618.1640625,999.51171875,-0.9765625
489.2578125,798.828125,315.91796875,-44.43359375
783.69140625,-731.4453125,-971.19140625,-96.6796875
326.66015625,-1000.0,-1000.0,-81.54296875
558.10546875,-239.74609375,-248.53515625,-26.3671875
999.51171875,934.08203125,999.51171875,-2.9296875
946.2890625,999.51171875,583.0078125,-47.36328125
961.9140625,192.87109375,-773.4375,-76.171875
965.33203125,-1000.0,-1000.0,-77.1484375
969.23828125,-524.90234375,-250.9765625,-37.59765625
956.54296875,844.23828125,999.51171875,12.6953125
943.84765625,999.51171875,849.609375,-36.62109375
965.33203125,242.1875,-434.5703125,-104.98046875
966.796875,-1000.0,-1000.0,-90.33203125
964.84375,-592.28515625,-286.62109375,-24.90234375
965.8203125,805.17578125,964.84375,7.8125
970.703125,999.51171875,999.51171875,-29.78515625
902.34375,137.6953125,-99.12109375,-64.453125
999.51171875,-1000.0,-1000.0,-78.125
338.8671875,-1000.0,-390.625,-39.55078125
-916.50390625,-115.234375,891.6015625,-2.9296875
-633.30078125,999.51171875,999.51171875,-31.73828125
-696.2890625,206.54296875,158.203125,-65.4296875
-1000.0,-1000.0,-1000.0,-89.84375
-991.69921875,-821.77734375,-499.51171875,-43.45703125
-985.3515625,526.85546875,845.703125,22.94921875
-1000.0,999.51171875,999.51171875,-1.953125
-921.875,179.19921875,170.8984375,-74.21875
-451.66015625,-1000.0,-1000.0,-97.65625
414.55078125,-790.0390625,-728.02734375,-51.7578125
678.7109375,562.5,617.1875,1.46484375
-408.203125,999.51171875,999.51171875,-13.18359375
-1000.0,223.6328125,198.73046875,-83.984375
-952.1484375,-967.7734375,-1000.0,-112.3046875
-1000.0,-1000.0,-944.82421875,-61.03515625
-306.640625,-110.3515625,300.78125,18.5546875
228.02734375,999.51171875,999.51171875,14.6484375
474.609375,999.51171875,410.15625,-63.96484375
187.5,15.625,-911.62109375,-104.98046875
-977.5390625,-1000.0,-1000.0,-75.68359375
-500.9765625,-203.125,66.40625,-11.71875
615.234375,999.51171875,999.51171875,1.953125
890.13671875,999.51171875,503.90625,-52.24609375
-151.85546875,-171.38671875,-824.70703125,-106.93359375
-1000.0,-1000.0,-1000.0,-99.609375
-996.58203125,-160.64453125,-73.73046875,-31.25
-353.515625,975.5859375,999.51171875,-14.6484375
-242.67578125,999.51171875,773.92578125,-62.01171875
-635.25390625,222.16796875,-530.2734375,-110.3515625
79.58984375,-1000.0,-1000.0,-99.609375
507.32421875,-204.1015625,-123.53515625,-26.3671875
-425.29296875,999.51171875,999.51171875,-2.44140625
-517.08984375,999.51171875,963.37890625,-101.07421875
372.55859375,222.16796875,-225.09765625,-180.17578125
396.97265625,-1000.0,-1000.0,-128.41796875
518.06640625,-197.265625,-166.9921875,-42.48046875
986.328125,994.140625,999.51171875,-27.83203125
967.28515625,999.51171875,999.51171875,-63.4765625
953.61328125,355.46875,-27.34375,-92.28515625
967.7734375,-1000.0,-1000.0,-102.05078125
965.33203125,-216.30859375,-196.2890625,-39.0625
965.33203125,999.51171875,987.3046875,7.8125
967.28515625,999.51171875,999.51171875,-17.08984375
954.58984375,454.58984375,188.96484375,-88.37890625
979.00390625,-1000.0,-1000.0,-153.80859375
950.1953125,-628.41796875,-322.75390625,-67.87109375
708.984375,796.38671875,948.73046875,-38.0859375
824.21875,999.51171875,999.51171875,-130.37109375
996.09375,612.79296875,226.07421875,-130.859375
954.1015625,-961.9140625,-1000.0,-110.3515625
965.8203125,-511.23046875,-407.71484375,-53.7109375
965.8203125,949.21875,906.25,23.4375
965.33203125,996.09375,999.51171875,-18.5546875
965.33203125,895.5078125,310.546875,-143.5546875
965.33203125,-488.76953125,-1000.0,-157.71484375
965.33203125,-1000.0,-692.3828125,-83.49609375
965.33203125,481.4453125,684.5703125,-49.31640625
965.33203125,999.51171875,999.51171875,-64.453125
965.33203125,904.78515625,358.88671875,-74.70703125
965.33203125,-340.8203125,-1000.0,-95.703125
965.33203125,-1000.0,-913.0859375,-63.96484375
965.33203125,189.453125,411.62109375,19.53125
965.33203125,999.51171875,999.51171875,16.6015625
965.33203125,999.51171875,482.421875,-24.90234375
965.33203125,244.140625,-848.6328125,-40.0390625
965.33203125,-1000.0,-1000.0,-31.25
965.33203125,-253.41796875,63.4765625,-69.82421875
965.33203125,999.51171875,999.51171875,-61.03515625
965.33203125,840.33203125,541.015625,-49.8046875
965.33203125,-472.16796875,-778.80859375,-67.3828125
965.8203125,-1000.0,-1000.0,-41.9921875
963.37890625,-240.72265625,-164.55078125,-6.8359375
958.984375,990.72265625,999.51171875,7.8125
986.328125,999.51171875,728.02734375,-43.45703125
812.98828125,-181.640625,-604.4921875,-98.6328125
732.421875,-1000.0,-1000.0,-71.2890625
929.6875,-215.8203125,-197.75390625,-0.9765625
978.02734375,995.1171875,999.51171875,27.83203125
934.5703125,999.51171875,862.79296875,-44.43359375
675.78125,-77.63671875,-407.71484375,-149.90234375
551.26953125,-1000.0,-1000.0,-149.90234375
810.546875,-644.53125,-281.73828125,-51.26953125
992.67578125,718.26171875,987.79296875,6.34765625
877.44140625,999.51171875,981.93359375,-40.52734375
534.1796875,-20.01953125,-208.984375,-101.07421875
372.55859375,-1000.0,-1000.0,-93.75
631.34765625,-860.3515625,-407.2265625,-31.25
913.57421875,424.8046875,880.37109375,24.90234375
803.7109375,999.51171875,999.51171875,-55.6640625
446.77734375,151.85546875,98.6328125,-168.9453125
224.609375,-1000.0,-1000.0,-178.22265625
434.08203125,-1000.0,-591.30859375,-165.0390625
731.4453125,208.49609375,756.8359375,-169.921875
657.71484375,999.51171875,999.51171875,-171.38671875
382.32421875,182.12890625,160.64453125,-155.76171875
244.62890625,-1000.0,-1000.0,-162.109375
415.0390625,-1000.0,-633.30078125,-163.57421875
748.046875,317.3828125,708.984375,-135.7421875
764.6484375,999.51171875,999.51171875,-127.9296875
486.328125,901.3671875,388.18359375,-123.046875
315.91796875,970.703125,-1000.0,-118.1640625
489.74609375,966.30859375,-486.81640625,-113.28125
812.98828125,965.8203125,934.5703125,-111.81640625
804.19921875,965.8203125,962.890625,-112.79296875
566.40625,966.30859375,999.51171875,-109.86328125
321.77734375,966.30859375,-334.9609375,-101.07421875
384.765625,966.30859375,-534.1796875,-91.796875
705.078125,965.8203125,997.0703125,-89.35546875
668.45703125,965.8203125,933.10546875,-97.65625
398.92578125,966.30859375,999.51171875,-93.26171875
158.69140625,966.30859375,-70.80078125,-83.49609375
148.92578125,966.30859375,-916.015625,-89.35546875
467.28515625,969.7265625,607.421875,-84.9609375
547.36328125,899.90234375,999.51171875,-72.75390625
286.62109375,999.51171875,989.74609375,-61.03515625
-21.484375,298.33984375,-83.49609375,-58.59375
-110.83984375,-1000.0,-1000.0,-50.29296875
213.8671875,-198.2421875,44.43359375,-49.8046875
395.01953125,999.51171875,999.51171875,-81.54296875
179.6875,999.51171875,951.171875,-81.54296875
-134.765625,135.7421875,-196.77734375,-65.91796875
-204.1015625,-1000.0,-1000.0,-49.8046875
166.9921875,-345.21484375,-177.24609375,-46.875
238.76953125,937.98828125,999.51171875,-56.15234375
-111.328125,999.51171875,997.0703125,-54.6875
-377.9296875,127.44140625,-131.8359375,-61.03515625
-390.13671875,-1000.0,-1000.0,-56.640625
-480.95703125,-980.95703125,-407.2265625,-43.45703125
-935.546875,-974.609375,988.28125,-32.71484375
-1000.0,-1000.0,891.11328125,-62.98828125
-981.4453125,-1000.0,-454.58984375,-70.80078125
-1000.0,-1000.0,-1000.0,-50.78125
-1000.0,-1000.0,-945.3125,-42.96875
-1000.0,-1000.0,475.09765625,-45.41015625
-1000.0,-1000.0,757.8125,-59.5703125
-988.76953125,-1000.0,-847.16796875,-56.15234375
-1000.0,-1000.0,-990.72265625,-43.45703125
-934.08203125,-1000.0,-1000.0,-48.33984375
-605.95703125,-1000.0,-113.76953125,-50.29296875
-358.88671875,-1000.0,520.01953125,-31.25
-659.1796875,-1000.0,-961.42578125,-37.59765625
-1000.0,-1000.0,-978.02734375,-56.15234375
-994.140625,-1000.0,-1000.0,-35.64453125
-987.3046875,-1000.0,-338.37890625,-40.52734375
-1000.0,-1000.0,670.8984375,-53.7109375
-960.44921875,-1000.0,-705.078125,-43.45703125
-739.74609375,-1000.0,-1000.0,-44.921875
-437.98828125,-1000.0,-1000.0,-45.41015625
-118.65234375,-1000.0,-417.48046875,-36.62109375
135.25390625,-1000.0,999.51171875,-47.8515625
-18.06640625,-1000.0,-201.171875,-60.546875
-322.75390625,-1000.0,-1000.0,-44.921875
-770.99609375,-1000.0,-1000.0,-43.45703125
-1000.0,-1000.0,-387.20703125,-53.7109375
-982.421875,-1000.0,999.51171875,-57.12890625
-987.3046875,-1000.0,160.15625,-53.7109375
-1000.0,-932.12890625,-1000.0,-44.43359375
-901.85546875,-1000.0,-1000.0,-32.71484375
-304.19921875,-737.79296875,-319.82421875,-38.57421875
-421.875,809.08203125,999.51171875,-52.734375
-1000.0,882.32421875,375.0,-38.57421875
-991.69921875,-565.4296875,-949.70703125,-42.96875
-1000.0,-1000.0,-1000.0,-47.36328125
-825.68359375,-690.4296875,-304.6875,-35.64453125
-812.98828125,664.0625,999.51171875,-59.5703125
-1000.0,999.51171875,694.82421875,-60.05859375
-959.47265625,-141.6015625,-663.0859375,-45.8984375
-1000.0,-1000.0,-1000.0,-63.96484375
-671.38671875,-469.7265625,-283.69140625,-52.24609375
281.73828125,841.796875,979.00390625,-44.43359375
743.1640625,999.51171875,994.62890625,-52.24609375
840.8203125,198.73046875,-200.1953125,-40.0390625
927.24609375,-1000.0,-1000.0,-29.78515625
974.609375,-216.796875,-295.8984375,-46.38671875
938.96484375,990.234375,943.359375,-57.12890625
999.51171875,999.51171875,999.51171875,-46.38671875
787.109375,327.63671875,66.89453125,-52.734375
495.1171875,-1000.0,-1000.0,-43.45703125
825.68359375,-657.2265625,-464.84375,25.87890625
999.51171875,740.234375,854.4921875,91.30859375
813.96484375,999.51171875,999.51171875,65.91796875
57.12890625,617.1875,191.89453125,21.484375
-385.7421875,-732.421875,-1000.0,-6.8359375
-877.9296875,-1000.0,-671.38671875,27.34375
-1000.0,62.5,689.94140625,87.40234375
-973.14453125,999.51171875,999.51171875,66.40625
-1000.0,186.03515625,199.21875,-2.9296875
-1000.0,-1000.0,-1000.0,-19.53125
-1000.0,-1000.0,-875.48828125,4.8828125
-1000.0,-226.5625,420.8984375,25.390625
-1000.0,999.51171875,999.51171875,-3.90625
-1000.0,729.4921875,344.23828125,-85.9375
-1000.0,-688.96484375,-1000.0,-103.515625
-1000.0,-1000.0,-934.5703125,-43.9453125
-1000.0,147.94921875,386.23046875,42.96875
-984.375,999.51171875,999.51171875,15.13671875
-1000.0,999.51171875,733.3984375,-85.44921875
-812.01171875,364.74609375,-605.95703125,-105.95703125
-286.62109375,-1000.0,-1000.0,-66.89453125
140.13671875,26.85546875,218.75,-3.90625
405.76171875,999.51171875,999.51171875,13.671875
497.0703125,999.51171875,886.71875,-10.25390625
327.63671875,197.265625,-357.421875,-30.2734375
413.57421875,-1000.0,-1000.0,-30.76171875
873.046875,174.31640625,122.0703125,21.484375
982.91015625,999.51171875,999.51171875,63.96484375
950.1953125,900.390625,999.51171875,10.7421875
967.28515625,964.35546875,1.46484375,-31.25
965.8203125,966.30859375,-1000.0,-43.9453125
965.33203125,966.30859375,73.73046875,-11.23046875
965.33203125,966.30859375,999.51171875,25.390625
965.33203125,966.30859375,999.51171875,-3.41796875
965.33203125,966.30859375,207.03125,-61.5234375
966.30859375,966.30859375,-1000.0,-65.4296875
964.35546875,966.30859375,-96.19140625,-7.32421875
955.56640625,966.30859375,999.51171875,42.48046875
984.86328125,966.30859375,999.51171875,-22.4609375
808.59375,966.30859375,319.82421875,-128.90625
552.24609375,966.30859375,-1000.0,-115.234375
751.953125,966.30859375,-153.80859375,-48.33984375
990.72265625,968.75,999.51171875,-23.4375
889.6484375,899.90234375,999.51171875,-53.7109375
670.8984375,999.51171875,454.58984375,-67.3828125
532.71484375,89.84375,-1000.0,-81.0546875
734.86328125,-277.83203125,-233.88671875,-31.25
969.7265625,999.51171875,999.51171875,28.80859375
975.5859375,980.46875,986.81640625,0.48828125
876.953125,931.15234375,849.609375,-20.99609375
850.5859375,972.65625,-682.6171875,-42.48046875
967.28515625,966.30859375,-310.546875,-8.7890625
968.26171875,966.30859375,999.51171875,64.453125
961.42578125,966.30859375,938.96484375,53.7109375
966.30859375,965.8203125,939.453125,-7.8125
965.33203125,965.8203125,972.65625,-25.87890625
965.33203125,966.30859375,966.30859375,-6.34765625
965.33203125,966.30859375,966.30859375,25.87890625
965.33203125,965.8203125,966.30859375,28.80859375
965.33203125,965.8203125,965.8203125,-20.5078125
965.33203125,966.30859375,965.8203125,-62.01171875
966.30859375,966.30859375,966.30859375,-34.66796875
958.0078125,966.30859375,972.65625,23.4375
974.12109375,966.30859375,915.52734375,22.4609375
922.8515625,965.8203125,999.51171875,-14.16015625
703.125,965.8203125,477.05078125,-50.78125
664.0625,965.8203125,136.71875,-50.29296875
885.25390625,977.05078125,991.2109375,12.6953125
843.75,918.9453125,920.8984375,22.94921875
488.28125,999.51171875,999.51171875,-6.8359375
245.1171875,937.5,172.36328125,-57.12890625
177.734375,-570.3125,-1000.0,-86.9140625
352.05078125,-133.30078125,267.08984375,-12.20703125
456.54296875,999.51171875,999.51171875,13.18359375
183.10546875,999.51171875,999.51171875,-41.015625
-136.71875,195.3125,49.8046875,-96.19140625
-122.0703125,-1000.0,-1000.0,-90.33203125
301.7578125,-519.53125,-195.80078125,-24.4140625
630.37109375,875.9765625,999.51171875,8.7890625
589.84375,999.51171875,984.375,-28.3203125
393.06640625,-58.59375,-157.2265625,-69.3359375
383.7890625,-1000.0,-1000.0,-59.5703125
714.35546875,-958.49609375,-670.8984375,-26.3671875
973.6328125,-987.3046875,865.234375,1.953125
815.91796875,-1000.0,682.6171875,-4.39453125
441.40625,-1000.0,-866.69921875,-67.87109375
58.10546875,-1000.0,-983.88671875,-104.98046875
-629.8828125,-1000.0,-1000.0,-51.26953125
-1000.0,-1000.0,-116.2109375,10.7421875
-980.46875,-1000.0,325.1953125,-14.16015625
-997.0703125,-1000.0,-1000.0,-81.0546875
-1000.0,-1000.0,-947.75390625,-93.26171875
-1000.0,-1000.0,-1000.0,-57.6171875
-1000.0,-1000.0,-247.0703125,-11.71875
-995.1171875,-1000.0,413.57421875,-9.765625
-993.1640625,-1000.0,-963.37890625,-80.56640625
-994.140625,-1000.0,-983.3984375,-100.5859375
-695.3125,-1000.0,-1000.0,-48.828125
-216.796875,-1000.0,-366.2109375,7.8125
-144.53125,-1000.0,858.3984375,5.37109375
-571.77734375,-1000.0,-472.65625,-70.80078125
-964.35546875,-1000.0,-1000.0,-98.14453125
-969.23828125,-1000.0,-1000.0,-62.98828125
-949.21875,-1000.0,-324.70703125,-0.48828125
-1000.0,-1000.0,999.51171875,10.7421875
-1000.0,-1000.0,71.2890625,-41.015625
-999.0234375,-1000.0,-1000.0,-95.21484375
-1000.0,-1000.0,-1000.0,-83.984375
-1000.0,-1000.0,-286.1328125,-3.90625
-1000.0,-1000.0,999.51171875,15.625
-1000.0,-1000.0,189.94140625,-75.1953125
-1000.0,-950.1953125,-1000.0,-115.72265625
-1000.0,-1000.0,-1000.0,-82.51953125
-1000.0,-962.890625,-286.62109375,-37.109375
-1000.0,620.1171875,999.51171875,-18.06640625
-1000.0,593.75,392.08984375,-52.734375
-1000.0,-989.2578125,-930.17578125,-92.7734375
-1000.0,-975.5859375,-1000.0,-93.75
-1000.0,-1000.0,-337.40234375,-35.15625
-1000.0,59.08203125,999.51171875,4.39453125
-1000.0,907.71484375,675.29296875,-53.22265625
-1000.0,-577.1484375,-692.87109375,-94.23828125
-1000.0,-1000.0,-1000.0,-73.73046875
-1000.0,-624.51171875,-330.56640625,-45.41015625
-1000.0,671.38671875,972.16796875,-15.13671875
-1000.0,999.51171875,962.890625,-30.2734375
-1000.0,155.76171875,-261.23046875,-66.40625
-1000.0,-1000.0,-1000.0,-92.7734375
-1000.0,-1000.0,-440.91796875,-50.29296875
-1000.0,189.94140625,860.3515625,2.44140625
-1000.0,999.51171875,999.51171875,-17.08984375
-993.1640625,162.109375,57.6171875,-65.4296875
-1000.0,-1000.0,-1000.0,-86.42578125
-956.0546875,-966.30859375,-551.7578125,-29.296875
-807.12890625,272.4609375,786.1328125,20.01953125
-855.46875,999.51171875,999.51171875,8.30078125
-965.33203125,508.30078125,187.5,-38.57421875
-1000.0,-1000.0,-1000.0,-73.73046875
-807.6171875,-678.7109375,-626.953125,-56.15234375
-466.30859375,777.83203125,732.421875,-4.39453125
-505.37109375,999.51171875,999.51171875,-3.41796875
-687.01171875,645.5078125,248.046875,-48.33984375
-729.00390625,-721.19140625,-1000.0,-84.47265625
-469.7265625,-1000.0,-852.5390625,-50.29296875
-70.3125,216.30859375,462.40234375,15.625
132.8125,999.51171875,999.51171875,2.9296875
139.16015625,999.51171875,394.53125,-50.29296875
89.84375,106.93359375,-957.03125,-94.7265625
270.99609375,-1000.0,-1000.0,-69.82421875
700.68359375,71.2890625,266.6015625,-5.37109375
808.10546875,999.51171875,999.51171875,-0.48828125
573.2421875,999.51171875,730.95703125,-46.875
420.41015625,193.84765625,-618.1640625,-96.19140625
498.046875,-1000.0,-1000.0,-84.47265625
821.2890625,173.828125,213.37890625,-11.71875
939.453125,999.51171875,999.51171875,-2.44140625
687.98828125,999.51171875,908.203125,-41.015625
418.9453125,242.67578125,-299.8046875,-75.1953125
442.87109375,-1000.0,-1000.0,-81.0546875
736.81640625,-135.25390625,29.78515625,-24.4140625
795.41015625,999.51171875,999.51171875,5.859375
528.3203125,960.9375,999.51171875,-54.6875
259.27734375,945.3125,62.98828125,-92.28515625
148.4375,-577.63671875,-1000.0,-96.19140625
347.16796875,-325.1953125,-93.75,-17.08984375
492.1875,999.51171875,999.51171875,7.8125
268.5546875,999.51171875,999.51171875,-67.87109375
-14.16015625,614.2578125,198.2421875,-80.078125
-104.4921875,-991.2109375,-1000.0,-75.68359375
192.3828125,-265.625,-162.109375,-44.43359375
413.0859375,999.51171875,999.51171875,-11.23046875
235.83984375,999.51171875,999.51171875,-32.2265625
-55.6640625,500.9765625,205.56640625,-80.56640625
-208.984375,-1000.0,-1000.0,-98.14453125
-31.25,-519.04296875,-329.1015625,-64.453125
39.55078125,937.98828125,966.30859375,-31.25
-270.99609375,999.51171875,999.51171875,-38.0859375
-594.7265625,-78.61328125,62.98828125,-82.03125
-703.125,-1000.0,-1000.0,-105.95703125
-484.86328125,-1000.0,-819.3359375,-52.734375
-264.6484375,-271.97265625,488.28125,4.8828125
-481.4453125,999.51171875,999.51171875,-6.34765625
-810.05859375,166.9921875,105.95703125,-71.77734375
-933.10546875,-1000.0,-1000.0,-97.65625
-822.265625,-1000.0,-935.546875,-47.36328125
-560.546875,-246.58203125,307.6171875,-5.859375
-443.359375,999.51171875,999.51171875,-24.4140625
-490.72265625,632.32421875,252.9296875,-49.31640625
-377.9296875,-881.8359375,-1000.0,-86.9140625
31.73828125,-1000.0,-837.40234375,-77.63671875
459.47265625,442.3828125,517.08984375,-0.48828125
523.4375,999.51171875,999.51171875,20.01953125
211.9140625,900.390625,905.2734375,-30.76171875
-86.9140625,973.14453125,-511.23046875,-76.171875
-370.1171875,966.30859375,-772.4609375,-64.453125
-812.98828125,966.30859375,816.89453125,-112.3046875
-1000.0,966.30859375,968.75,-179.19921875
-989.74609375,966.30859375,999.51171875,-201.66015625
-997.55859375,966.30859375,-34.1796875,-213.37890625
-1000.0,966.30859375,-899.90234375,-185.05859375
-977.05078125,976.5625,640.13671875,-169.921875
-974.609375,892.08984375,999.51171875,-152.83203125
-1000.0,999.51171875,999.51171875,-119.140625
-986.328125,433.59375,148.92578125,-118.65234375
-1000.0,-1000.0,-1000.0,-108.3984375
-768.5546875,-49.31640625,244.140625,-44.43359375
-174.31640625,999.51171875,999.51171875,-30.2734375
348.14453125,905.76171875,999.51171875,-69.82421875
568.84765625,999.51171875,193.84765625,-88.37890625
723.14453125,-225.5859375,-1000.0,-83.49609375
925.78125,-22.4609375,-48.828125,-40.52734375
962.890625,999.51171875,999.51171875,-7.32421875
971.6796875,999.51171875,999.51171875,-30.2734375
789.0625,620.1171875,195.80078125,-70.3125
563.96484375,-1000.0,-1000.0,-68.84765625
706.0546875,-589.35546875,-236.328125,-11.71875
733.88671875,896.97265625,996.58203125,42.48046875
312.5,999.51171875,999.51171875,11.71875
-217.28515625,60.05859375,135.7421875,-58.59375
-393.06640625,-1000.0,-1000.0,-122.55859375
-136.71875,-1000.0,-559.5703125,-150.390625
169.921875,-117.1875,797.8515625,-149.4140625
109.375,999.51171875,999.51171875,-143.5546875
-206.54296875,140.625,103.02734375,-126.46484375
-437.98828125,-1000.0,-1000.0,-107.421875
-328.61328125,-1000.0,-985.83984375,-51.26953125
-153.80859375,-409.66796875,262.6953125,6.8359375
-320.80078125,999.51171875,999.51171875,-17.08984375
-636.71875,-170.41015625,-30.76171875,-70.80078125
-715.8203125,-1000.0,-1000.0,-83.49609375
-517.578125,-930.17578125,-1000.0,-39.0625
-239.74609375,-998.53515625,-162.109375,40.0390625
-134.27734375,-1000.0,999.51171875,-0.9765625
-290.0390625,-1000.0,9.765625,-107.421875
-311.5234375,-1000.0,-1000.0,-101.07421875
-57.12890625,-1000.0,-1000.0,-41.50390625
163.57421875,-1000.0,-262.6953125,25.87890625
-73.73046875,-1000.0,999.51171875,-4.39453125
-562.01171875,-1000.0,67.3828125,-96.6796875
-780.2734375,-1000.0,-1000.0,-109.86328125
-649.4140625,-1000.0,-1000.0,-67.3828125
-341.30859375,-1000.0,-463.8671875,-9.765625
-194.3359375,-1000.0,999.51171875,-23.92578125
-238.28125,-1000.0,143.5546875,-106.4453125
-340.33203125,-1000.0,-1000.0,-132.8125
-377.9296875,-1000.0,-1000.0,-101.5625
-352.5390625,-1000.0,-826.66015625,-52.734375
-423.828125,-1000.0,666.50390625,-59.08203125
-731.4453125,-1000.0,100.5859375,-108.3984375
-985.3515625,-1000.0,-1000.0,-109.86328125
-998.53515625,-1000.0,-953.61328125,-77.63671875
-490.234375,-1000.0,-1000.0,-62.98828125
204.58984375,-1000.0,-790.52734375,-72.265625
-186.03515625,-1000.0,-847.65625,-98.6328125
-827.1484375,-1000.0,-1000.0,-90.8203125
-566.40625,-1000.0,-986.81640625,-70.3125
-46.38671875,-1000.0,-1000.0,-47.36328125
543.9453125,-1000.0,-1000.0,0.0
970.703125,-1000.0,-1000.0,-3.41796875
955.078125,-1000.0,-1000.0,-55.17578125
958.49609375,-1000.0,-997.0703125,-89.35546875
969.7265625,-1000.0,-1000.0,-61.03515625
954.1015625,-1000.0,-956.0546875,-19.04296875
981.93359375,-1000.0,-948.2421875,-22.4609375
945.3125,-1000.0,-1000.0,-45.41015625
735.83984375,-1000.0,-937.98828125,-54.6875
881.8359375,-1000.0,-1000.0,-22.94921875
997.0703125,-1000.0,-419.43359375,22.94921875
950.68359375,-1000.0,33.203125,21.484375
968.75,-1000.0,-1000.0,-55.6640625
972.16796875,-1000.0,-963.8671875,-83.49609375
935.546875,-1000.0,-1000.0,-28.3203125
975.5859375,-1000.0,-227.5390625,33.69140625
883.30078125,-1000.0,968.75,46.875
-221.19140625,-1000.0,-440.91796875,-28.80859375
-1000.0,-926.26953125,-1000.0,-85.44921875
-670.8984375,-1000.0,-1000.0,-36.62109375
424.8046875,-568.359375,-272.94921875,47.36328125
983.3984375,999.51171875,999.51171875,56.15234375
940.91796875,265.625,55.6640625,-4.8828125
958.0078125,-1000.0,-1000.0,-33.203125
968.75,-1000.0,-1000.0,-7.32421875
965.33203125,-212.40234375,-231.93359375,41.015625
965.33203125,999.51171875,999.51171875,59.08203125
965.33203125,510.25390625,168.9453125,-18.06640625
965.33203125,-854.98046875,-1000.0,-59.5703125
965.8203125,-1000.0,-1000.0,-29.78515625
965.33203125,-268.06640625,-260.7421875,4.39453125
965.8203125,986.328125,999.51171875,41.50390625
965.8203125,999.51171875,367.67578125,6.34765625
965.33203125,-214.84375,-949.21875,-45.41015625
972.16796875,-1000.0,-1000.0,-31.73828125
920.8984375,-217.28515625,-233.88671875,21.484375
999.51171875,977.5390625,999.51171875,42.48046875
709.47265625,999.51171875,762.6953125,3.41796875
-294.43359375,27.83203125,-564.94140625,-65.4296875
-24.4140625,-1000.0,-1000.0,-71.77734375
813.96484375,-420.41015625,-242.67578125,8.7890625
968.75,885.7421875,999.51171875,34.1796875
948.2421875,999.51171875,958.984375,-10.25390625
965.33203125,213.37890625,-261.23046875,-62.5
966.30859375,-1000.0,-1000.0,-72.75390625
965.33203125,-444.3359375,-259.27734375,-16.11328125
965.33203125,887.20703125,950.68359375,27.83203125
965.33203125,999.51171875,999.51171875,1.953125
965.33203125,409.1796875,98.6328125,-55.17578125
965.8203125,-1000.0,-1000.0,-98.14453125
965.33203125,-667.96875,-343.75,-41.9921875
965.33203125,750.48828125,929.6875,24.4140625
965.33203125,999.51171875,999.51171875,2.9296875
965.33203125,468.26171875,208.49609375,-45.41015625
965.33203125,-926.26953125,-1000.0,-69.82421875
965.33203125,-1000.0,-499.51171875,-34.1796875
965.33203125,321.2890625,842.7734375,2.44140625
965.33203125,999.51171875,999.51171875,-24.4140625
965.33203125,937.5,265.13671875,-58.10546875
965.8203125,-393.06640625,-1000.0,-81.54296875
965.8203125,-1000.0,-638.18359375,-98.6328125
964.84375,457.03125,729.00390625,-105.46875
964.35546875,999.51171875,999.51171875,-136.71875
971.6796875,754.8828125,365.72265625,-166.9921875
918.9453125,-542.48046875,-1000.0,-160.15625
922.36328125,-1000.0,-886.23046875,-132.8125
966.30859375,49.8046875,454.58984375,-89.84375
967.7734375,999.51171875,999.51171875,-98.14453125
957.03125,999.51171875,539.55078125,-134.765625
755.37109375,16.6015625,-819.3359375,-130.37109375
770.5078125,-1000.0,-1000.0,-79.1015625
960.9375,-119.140625,184.5703125,-16.11328125
973.6328125,999.51171875,999.51171875,-21.97265625
926.26953125,999.51171875,777.83203125,-70.80078125
648.92578125,223.14453125,-504.8828125,-107.421875
570.80078125,-1000.0,-1000.0,-83.0078125
843.75,-212.40234375,-51.7578125,-40.52734375
991.69921875,999.51171875,999.51171875,-44.43359375
823.73046875,999.51171875,866.69921875,-75.1953125
404.296875,80.078125,-388.18359375,-104.00390625
217.7734375,-1000.0,-1000.0,-100.5859375
370.1171875,-292.48046875,-149.90234375,-45.41015625
313.4765625,992.67578125,999.51171875,-46.38671875
-357.421875,999.51171875,986.328125,-89.84375
-958.984375,-83.49609375,-181.640625,-98.6328125
-1000.0,-1000.0,-1000.0,-83.0078125
-882.8125,-400.390625,-167.48046875,-49.8046875
-417.48046875,883.7890625,992.1875,-21.97265625
-291.50390625,999.51171875,999.51171875,-27.34375
-725.09765625,203.125,80.078125,-79.1015625
-930.17578125,-1000.0,-1000.0,-96.6796875
-546.38671875,-198.73046875,-212.890625,-17.08984375
-142.578125,994.62890625,986.81640625,31.73828125
-144.04296875,999.51171875,999.51171875,-6.8359375
-283.203125,354.00390625,187.01171875,-44.921875
-281.73828125,-1000.0,-1000.0,-81.54296875
67.3828125,-687.01171875,-401.3671875,-64.453125
488.28125,712.40234375,909.66796875,-38.57421875
522.4609375,999.51171875,999.51171875,-70.80078125
300.78125,615.72265625,227.5390625,-103.02734375
140.625,-865.72265625,-1000.0,-110.3515625
379.8828125,-891.6015625,-549.8046875,-68.359375
767.578125,581.54296875,804.19921875,-40.52734375
777.34375,999.51171875,999.51171875,-61.03515625
500.48828125,895.5078125,299.8046875,-95.21484375
270.01953125,-576.66015625,-1000.0,-96.6796875
416.9921875,-723.6328125,-636.23046875,-62.01171875
776.85546875,898.92578125,743.1640625,-33.203125
805.6640625,946.77734375,999.51171875,-47.36328125
559.5703125,999.51171875,608.3984375,-89.84375
308.59375,191.40625,-838.37890625,-99.12109375
348.6328125,-1000.0,-907.2265625,-58.59375
717.28515625,173.828125,530.76171875,-26.85546875
772.94921875,999.51171875,999.51171875,-46.38671875
507.32421875,999.51171875,824.21875,-71.77734375
253.41796875,174.31640625,-544.43359375,-82.03125
256.8359375,-1000.0,-1000.0,-40.0390625
614.2578125,323.2421875,503.90625,-7.32421875
668.45703125,999.51171875,999.51171875,-40.52734375
255.37109375,999.51171875,999.51171875,-87.890625
-292.96875,329.1015625,-9.765625,-102.5390625
-538.0859375,-763.671875,-939.94140625,-70.80078125
-361.81640625,625.0,592.28515625,-31.73828125
-341.796875,999.51171875,999.51171875,-15.625
-538.0859375,888.671875,999.51171875,-51.7578125
-708.984375,979.98046875,254.8828125,-83.0078125
-617.67578125,966.30859375,-911.62109375,-64.453125
-147.4609375,966.30859375,497.0703125,-40.0390625
163.57421875,965.8203125,999.51171875,-42.48046875
130.859375,966.30859375,999.51171875,-80.078125
-14.6484375,966.30859375,381.8359375,-108.3984375
-29.296875,966.30859375,-1000.0,-76.66015625
354.00390625,966.30859375,130.859375,-29.296875
669.43359375,966.30859375,999.51171875,-43.45703125
576.66015625,966.30859375,999.51171875,-81.0546875
339.84375,966.30859375,572.75390625,-89.84375
117.67578125,966.30859375,-989.74609375,-75.1953125
369.140625,966.30859375,-93.26171875,-54.19921875
742.1875,966.796875,999.51171875,-63.96484375
651.3671875,902.83203125,999.51171875,-91.30859375
407.2265625,999.51171875,713.37890625,-115.234375
206.0546875,48.33984375,-875.9765625,-107.91015625
424.8046875,-291.9921875,-272.94921875,-75.1953125
771.484375,999.51171875,999.51171875,-78.125
691.89453125,894.53125,997.55859375,-83.49609375
435.546875,999.51171875,791.50390625,-68.84765625
210.44921875,544.921875,-775.390625,-68.84765625
328.125,-497.0703125,-404.78515625,-62.98828125
665.0390625,609.375,991.2109375,-53.22265625
458.0078125,999.51171875,999.51171875,-82.03125
-534.1796875,801.26953125,648.4375,-83.0078125
-1000.0,-437.98828125,-880.859375,-71.77734375
-967.28515625,-1000.0,-727.05078125,-58.59375
-998.046875,-97.16796875,732.421875,-38.57421875
-1000.0,999.51171875,999.51171875,-50.29296875
-1000.0,620.60546875,519.53125,-59.5703125
-1000.0,-768.06640625,-862.79296875,-50.78125
-1000.0,-1000.0,-1000.0,-32.2265625
-1000.0,-73.73046875,258.30078125,-21.484375
-1000.0,999.51171875,999.51171875,-43.9453125
-1000.0,402.83203125,412.109375,-70.80078125
-1000.0,-902.83203125,-866.2109375,-52.734375
-1000.0,-1000.0,-1000.0,-45.8984375
-1000.0,-389.6484375,-199.21875,-53.22265625
-1000.0,999.51171875,999.51171875,-61.5234375
-1000.0,660.64453125,462.890625,-64.94140625
-1000.0,-778.80859375,-872.55859375,-59.08203125
-1000.0,-1000.0,-1000.0,-47.36328125
-1000.0,-981.4453125,-292.96875,-35.64453125
-1000.0,360.83984375,999.51171875,-42.48046875
-1000.0,970.703125,550.29296875,-45.8984375
-1000.0,-610.3515625,-805.17578125,-69.3359375
-1000.0,-1000.0,-1000.0,-62.5
-1000.0,-1000.0,-493.65234375,-45.41015625
-1000.0,-137.20703125,997.55859375,-61.03515625
-1000.0,816.89453125,645.99609375,-57.6171875
-1000.0,-702.1484375,-779.296875,-57.12890625
-1000.0,-1000.0,-1000.0,-41.015625
-1000.0,-1000.0,-738.76953125,-27.83203125
-1000.0,-246.09375,711.9140625,-51.7578125
-1000.0,999.51171875,863.28125,-65.4296875
-983.88671875,-104.00390625,-622.0703125,-62.5
-1000.0,-1000.0,-1000.0,-57.12890625
-901.3671875,-1000.0,-977.05078125,-48.828125
-392.578125,-234.86328125,294.43359375,-53.22265625
-371.58203125,999.51171875,999.51171875,-61.5234375
-886.71875,-195.3125,-467.28515625,-67.3828125
-1000.0,-1000.0,-1000.0,-59.5703125
-983.3984375,-935.546875,-1000.0,-45.41015625
-1000.0,-998.046875,-28.3203125,-51.7578125
-1000.0,-1000.0,999.51171875,-61.03515625
-1000.0,-1000.0,-403.80859375,-58.59375
-1000.0,-1000.0,-1000.0,-35.64453125
-1000.0,-1000.0,-1000.0,-32.2265625
-1000.0,-1000.0,-212.40234375,-39.0625
-1000.0,-1000.0,982.421875,-41.015625
-994.62890625,-1000.0,-430.17578125,-52.734375
-1000.0,-1000.0,-1000.0,-51.26953125
-974.12109375,-1000.0,-1000.0,-38.0859375
-770.99609375,-1000.0,-474.12109375,-32.2265625
-592.28515625,-1000.0,970.703125,-53.7109375
-646.97265625,-1000.0,-186.03515625,-63.4765625
-719.7265625,-971.19140625,-1000.0,-54.6875
-546.875,-988.76953125,-1000.0,-56.15234375
-278.80859375,-1000.0,-580.56640625,-54.19921875
-198.73046875,347.65625,999.51171875,-55.17578125
-524.90234375,320.3125,166.015625,-57.6171875
-735.83984375,-1000.0,-1000.0,-49.8046875
-577.1484375,-905.76171875,-1000.0,-47.8515625
-421.38671875,-1000.0,-679.19921875,-59.5703125
-427.24609375,-124.0234375,907.2265625,-59.08203125
-666.015625,725.09765625,251.953125,-64.453125
-791.9921875,-746.09375,-1000.0,-65.91796875
-696.2890625,-1000.0,-1000.0,-45.41015625
-409.1796875,-907.2265625,-665.52734375,-34.66796875
-91.30859375,520.01953125,923.828125,-46.875
-88.37890625,847.16796875,392.08984375,-66.89453125
-78.61328125,-730.95703125,-999.51171875,-65.91796875
157.71484375,-1000.0,-1000.0,-43.9453125
604.00390625,-1000.0,-756.8359375,-38.57421875
939.453125,88.37890625,761.23046875,-32.2265625
832.03125,999.51171875,715.8203125,-46.875
697.265625,2.44140625,-768.5546875,-63.4765625
858.88671875,-1000.0,-1000.0,-38.57421875
978.02734375,-995.1171875,-754.8828125,-23.4375
960.44921875,197.75390625,619.62890625,-23.4375
963.8671875,999.51171875,999.51171875,-34.1796875
965.8203125,168.9453125,-337.890625,-41.015625
967.7734375,-1000.0,-1000.0,-47.36328125
958.0078125,-895.99609375,-812.98828125,-46.38671875
950.68359375,437.01171875,492.1875,-38.57421875
977.5390625,999.51171875,999.51171875,-54.6875
472.16796875,41.9921875,-131.8359375,-64.94140625
-262.20703125,-1000.0,-1000.0,-48.33984375
-381.34765625,-1000.0,-983.88671875,-32.2265625
-207.51953125,-258.30078125,184.5703125,-37.59765625
-308.59375,999.51171875,999.51171875,-41.015625
-630.859375,159.66796875,67.3828125,-47.36328125
-702.1484375,-1000.0,-1000.0,-55.17578125
-723.14453125,-1000.0,-1000.0,-48.33984375
-826.66015625,-269.04296875,13.18359375,-40.0390625
-958.984375,999.51171875,999.51171875,-54.6875
-1000.0,480.46875,166.015625,-56.640625
-995.1171875,-878.41796875,-1000.0,-43.45703125
-1000.0,-1000.0,-1000.0,-45.41015625
-1000.0,-500.48828125,-148.92578125,-56.15234375
-987.3046875,999.51171875,999.51171875,-48.33984375
-998.046875,523.92578125,250.0,-48.33984375
-960.44921875,-917.96875,-995.60546875,-44.921875
-386.71875,-1000.0,-1000.0,-43.45703125
264.16015625,-166.015625,-218.26171875,-36.62109375
258.30078125,957.03125,999.51171875,-40.52734375
388.18359375,999.51171875,452.63671875,-60.546875
863.76953125,265.625,-883.30078125,-58.10546875
980.46875,-1000.0,-1000.0,-33.69140625
952.63671875,-299.31640625,-234.375,2.44140625
938.4765625,999.51171875,999.51171875,-4.39453125
999.51171875,999.51171875,661.1328125,-47.36328125
663.57421875,-53.22265625,-687.5,-55.6640625
-95.703125,-1000.0,-1000.0,-35.15625
-355.95703125,-956.0546875,-281.25,-17.578125
-368.65234375,323.2421875,999.51171875,-27.34375
-344.23828125,999.51171875,828.61328125,-45.8984375
-691.40625,-130.859375,-478.515625,-61.5234375
-729.4921875,-1000.0,-1000.0,-45.41015625
236.328125,-260.7421875,-339.84375,-15.13671875
794.43359375,945.80078125,970.21484375,-34.1796875
734.375,999.51171875,966.796875,-55.6640625
930.17578125,167.48046875,-268.5546875,-52.24609375
709.9609375,-1000.0,-1000.0,-52.734375
713.8671875,-1000.0,-679.19921875,-28.80859375
999.51171875,41.9921875,669.43359375,33.69140625
940.4296875,999.51171875,999.51171875,38.0859375
999.51171875,152.83203125,-121.09375,-20.99609375
807.12890625,-1000.0,-1000.0,-62.5
747.0703125,-1000.0,-820.80078125,-21.484375
943.84765625,111.81640625,459.9609375,41.9921875
830.56640625,999.51171875,999.51171875,10.25390625
493.1640625,169.921875,84.47265625,-62.01171875
-553.22265625,-996.09375,-1000.0,-85.44921875
-947.265625,-1000.0,-1000.0,-37.109375
34.1796875,-260.25390625,144.04296875,42.96875
862.79296875,999.51171875,999.51171875,45.8984375
958.49609375,301.26953125,117.1875,-18.06640625
946.2890625,-987.3046875,-1000.0,-57.6171875
948.2421875,-1000.0,-1000.0,-18.5546875
960.9375,-251.953125,-58.59375,49.8046875
961.42578125,999.51171875,999.51171875,51.7578125
989.2578125,482.91015625,175.78125,-29.78515625
816.89453125,-876.953125,-1000.0,-56.640625
798.33984375,-1000.0,-1000.0,-24.4140625
960.44921875,-365.234375,-197.75390625,7.32421875
996.09375,999.51171875,999.51171875,24.4140625
833.984375,624.51171875,297.36328125,-20.01953125
185.546875,-791.015625,-977.05078125,-58.59375
450.1953125,-1000.0,-1000.0,-45.8984375
999.51171875,-251.46484375,-239.74609375,-45.8984375
951.66015625,986.328125,999.51171875,-62.01171875
956.0546875,999.51171875,502.9296875,-79.1015625
968.26171875,-194.82421875,-845.703125,-109.375
965.8203125,-1000.0,-1000.0,-96.19140625
966.796875,-231.4453125,-228.02734375,-31.25
924.8046875,999.51171875,999.51171875,13.671875
999.51171875,846.6796875,680.17578125,-29.78515625
477.5390625,-459.9609375,-666.50390625,-69.3359375
21.97265625,-1000.0,-1000.0,-59.5703125
812.01171875,-393.5546875,-236.328125,9.27734375
999.51171875,865.234375,984.86328125,40.52734375
936.5234375,999.51171875,999.51171875,-2.9296875
968.26171875,203.125,-122.0703125,-49.8046875
965.8203125,-1000.0,-1000.0,-62.98828125
965.8203125,-734.86328125,-313.96484375,-17.08984375
965.33203125,629.8828125,929.19921875,29.78515625
965.33203125,999.51171875,999.51171875,14.16015625
965.33203125,309.5703125,150.87890625,-55.6640625
965.33203125,-1000.0,-1000.0,-76.66015625
965.33203125,-713.8671875,-422.36328125,-40.0390625
965.33203125,682.6171875,897.94921875,10.7421875
965.33203125,999.51171875,999.51171875,8.30078125
965.33203125,311.03515625,187.5,-78.61328125
968.26171875,-973.14453125,-1000.0,-125.0
954.1015625,-1000.0,-636.23046875,-125.48828125
929.6875,126.46484375,723.6328125,-119.140625
999.51171875,999.51171875,999.51171875,-118.65234375
104.4921875,196.77734375,217.7734375,-111.81640625
-633.7890625,-1000.0,-1000.0,-112.79296875
114.2578125,-1000.0,-829.58984375,-67.3828125
734.86328125,33.69140625,489.2578125,22.94921875
991.69921875,999.51171875,999.51171875,22.94921875
875.9765625,921.38671875,327.1484375,-43.9453125
717.28515625,-352.5390625,-998.53515625,-70.80078125
850.5859375,-1000.0,-991.2109375,-51.7578125
978.02734375,128.41796875,271.484375,6.34765625
961.42578125,999.51171875,999.51171875,20.01953125
963.8671875,971.6796875,446.2890625,-24.4140625
799.8046875,-229.4921875,-883.30078125,-53.22265625
811.03515625,-1000.0,-1000.0,-52.24609375
976.5625,104.00390625,69.3359375,2.44140625
958.984375,999.51171875,999.51171875,10.25390625
692.87109375,987.79296875,657.2265625,-44.43359375
415.0390625,-126.46484375,-657.71484375,-59.5703125
539.0625,-1000.0,-1000.0,-34.1796875
762.20703125,-180.6640625,-115.234375,-19.04296875
550.78125,999.51171875,999.51171875,-69.82421875
99.12109375,999.51171875,878.90625,-104.98046875
-464.35546875,-51.26953125,-378.41796875,-104.4921875
-505.37109375,-1000.0,-1000.0,-99.12109375
170.41015625,-294.43359375,-158.203125,-47.8515625
570.3125,935.05859375,999.51171875,0.9765625
544.921875,999.51171875,999.51171875,-20.99609375
386.23046875,220.703125,-38.57421875,-57.6171875
283.69140625,-1000.0,-1000.0,-62.01171875
494.62890625,-373.046875,-205.078125,-5.859375
793.9453125,936.03515625,990.72265625,24.4140625
718.75,999.51171875,999.51171875,-18.5546875
443.84765625,218.26171875,82.03125,-76.66015625
400.87890625,-1000.0,-1000.0,-61.5234375
530.2734375,-592.28515625,-312.98828125,-71.77734375
387.6953125,798.828125,944.82421875,-98.6328125
236.81640625,999.51171875,999.51171875,-75.1953125
82.03125,209.47265625,181.15234375,-96.19140625
-33.69140625,-1000.0,-1000.0,-113.76953125
239.2578125,-429.6875,-409.66796875,-79.58984375
625.9765625,896.97265625,907.71484375,-38.57421875
633.7890625,999.51171875,999.51171875,-29.296875
363.76953125,335.44921875,197.265625,-68.84765625
-226.5625,-939.94140625,-1000.0,-102.05078125
-549.8046875,-1000.0,-729.00390625,-58.10546875
-640.13671875,-70.80078125,617.67578125,10.25390625
-954.58984375,999.51171875,999.51171875,27.34375
-992.1875,416.9921875,238.76953125,-17.578125
-1000.0,-957.51953125,-1000.0,-65.4296875
-820.80078125,-1000.0,-920.8984375,-50.78125
-176.7578125,106.93359375,364.2578125,102.5390625
205.56640625,999.51171875,999.51171875,-445.3125
-64.94140625,452.1484375,311.03515625,-1000.0
-554.6875,-863.28125,-975.5859375,-979.98046875
-309.08203125,-1000.0,-1000.0,-979.98046875
257.32421875,-180.17578125,104.98046875,-1000.0
452.1484375,978.02734375,999.51171875,-816.89453125
183.59375,999.51171875,549.8046875,-360.3515625
-227.5390625,-7.32421875,-784.66796875,-40.0390625
-184.5703125,-1000.0,-1000.0,188.4765625
387.20703125,9.27734375,-35.15625,692.3828125
784.66796875,999.51171875,999.51171875,994.62890625
-170.41015625,999.51171875,816.40625,947.265625
-1000.0,235.83984375,-464.84375,963.8671875
-647.94921875,-1000.0,-1000.0,961.42578125
-2.9296875,-204.1015625,-166.9921875,974.12109375
283.69140625,999.51171875,999.51171875,911.62109375
261.23046875,999.51171875,896.97265625,748.53515625
-386.71875,230.46875,-357.91015625,656.73828125
-1000.0,-1000.0,-1000.0,640.625
-994.140625,-615.234375,-192.3828125,661.1328125
-944.3359375,789.55078125,999.51171875,640.625
-963.37890625,999.51171875,999.51171875,553.22265625
-1000.0,92.28515625,-136.23046875,484.375
-996.09375,-1000.0,-1000.0,460.44921875
-987.79296875,-623.046875,-241.69921875,481.93359375
-1000.0,746.09375,968.26171875,517.08984375
-737.79296875,999.51171875,999.51171875,462.890625
-619.140625,176.26953125,86.42578125,373.046875
-670.8984375,-1000.0,-1000.0,354.4921875
-737.79296875,-868.65234375,-403.3203125,375.48828125
-979.4921875,432.6171875,900.390625,395.5078125
-883.7890625,999.51171875,999.51171875,357.421875
-1000.0,469.23828125,181.640625,279.78515625
-830.078125,-879.39453125,-1000.0,236.81640625
-716.796875,-1000.0,-643.5546875,254.39453125
-996.58203125,65.4296875,719.23828125,306.15234375
-798.33984375,999.51171875,999.51171875,290.0390625
-389.6484375,361.328125,171.875,207.51953125
-272.4609375,-962.40234375,-1000.0,178.7109375
-120.1171875,-1000.0,-856.4453125,208.0078125
547.36328125,60.05859375,448.73046875,236.81640625
-84.47265625,999.51171875,999.51171875,220.21484375
-1000.0,336.42578125,217.7734375,150.87890625
-993.65234375,-968.26171875,-1000.0,120.1171875
-512.20703125,-1000.0,-987.79296875,137.6953125
389.16015625,60.05859375,229.00390625,171.38671875
465.33203125,999.51171875,999.51171875,170.41015625
-465.33203125,942.87109375,395.99609375,112.79296875
-1000.0,-236.81640625,-908.203125,71.77734375
-977.5390625,-1000.0,-1000.0,83.0078125
-974.609375,-203.61328125,-22.4609375,128.90625
-1000.0,999.51171875,999.51171875,141.11328125
-727.5390625,917.96875,488.76953125,97.16796875
-625.9765625,-365.234375,-844.23828125,46.875
-1000.0,-1000.0,-1000.0,55.17578125
-1000.0,-180.17578125,-113.76953125,106.93359375
-992.67578125,999.51171875,999.51171875,97.16796875
-988.28125,999.51171875,623.53515625,56.640625
-991.69921875,-150.87890625,-716.796875,13.671875
-969.23828125,-1000.0,-1000.0,23.4375
-236.328125,-161.1328125,-134.27734375,87.40234375
666.9921875,975.5859375,999.51171875,89.35546875
923.828125,999.51171875,911.62109375,41.9921875
954.1015625,237.3046875,-317.87109375,7.8125
962.40234375,-1000.0,-1000.0,-7.8125
966.796875,-311.5234375,-194.82421875,53.22265625
965.8203125,963.37890625,999.51171875,70.80078125
965.33203125,999.51171875,960.9375,8.30078125
965.33203125,220.703125,-238.76953125,-42.48046875
965.8203125,-1000.0,-1000.0,-40.52734375
965.8203125,-327.63671875,-231.4453125,45.41015625
965.33203125,956.0546875,980.95703125,76.171875
965.33203125,999.51171875,999.51171875,17.578125
965.33203125,199.70703125,-8.7890625,-28.80859375
965.8203125,-1000.0,-1000.0,-32.2265625
965.8203125,-871.09375,-488.76953125,0.9765625
965.33203125,446.2890625,830.56640625,57.12890625
965.33203125,999.51171875,999.51171875,47.36328125
965.33203125,258.30078125,160.15625,-22.94921875
965.8203125,-989.2578125,-1000.0,-54.19921875
965.33203125,-1000.0,-696.77734375,-5.37109375
965.33203125,96.6796875,652.83203125,35.15625
965.33203125,999.51171875,999.51171875,8.30078125
968.26171875,913.0859375,198.2421875,-46.875
954.1015625,-302.734375,-1000.0,-56.15234375
955.56640625,-1000.0,-836.9140625,-31.25
999.51171875,-137.6953125,487.3046875,-4.39453125
396.97265625,999.51171875,999.51171875,-4.8828125
6.8359375,250.48828125,181.15234375,-51.7578125
326.66015625,-1000.0,-1000.0,-60.05859375
675.29296875,-1000.0,-977.5390625,-16.6015625
946.77734375,-164.55078125,239.2578125,21.484375
970.21484375,999.51171875,999.51171875,8.7890625
941.40625,892.08984375,315.91796875,-49.31640625
777.34375,-442.3828125,-979.4921875,-80.078125
832.03125,-1000.0,-1000.0,-41.9921875
974.609375,52.24609375,105.95703125,41.9921875
967.28515625,999.51171875,999.51171875,40.52734375
951.171875,728.02734375,402.34375,-34.66796875
770.99609375,-574.21875,-887.20703125,-72.75390625
793.45703125,-1000.0,-1000.0,-37.109375
957.51953125,-214.84375,-156.73828125,6.8359375
973.14453125,964.84375,999.51171875,-4.39453125
931.640625,999.51171875,711.9140625,-43.45703125
698.2421875,23.4375,-619.62890625,-54.6875
643.06640625,-1000.0,-1000.0,-40.0390625
842.7734375,-256.8359375,-166.015625,13.671875
999.51171875,962.890625,999.51171875,13.18359375
799.31640625,999.51171875,950.68359375,-34.1796875
-86.42578125,191.89453125,-251.46484375,-47.8515625
-252.9296875,-1000.0,-1000.0,-53.22265625
380.859375,-493.65234375,-202.63671875,-20.01953125
710.9375,870.60546875,995.60546875,19.53125
590.33203125,999.51171875,999.51171875,-15.625
323.73046875,186.03515625,-32.2265625,-80.56640625
238.76953125,-1000.0,-1000.0,-79.58984375
536.1328125,-630.859375,-317.87109375,-18.06640625
830.56640625,734.86328125,930.17578125,21.97265625
680.17578125,999.51171875,999.51171875,-3.90625
381.34765625,574.21875,192.87109375,-51.7578125
-373.53515625,-747.0703125,-1000.0,-92.7734375
-1000.0,-1000.0,-526.85546875,-66.40625
-987.79296875,-117.1875,829.1015625,9.27734375
-976.07421875,999.51171875,999.51171875,-5.859375
-1000.0,178.7109375,184.5703125,-71.77734375
-901.3671875,-1000.0,-1000.0,-78.125
-396.97265625,-1000.0,-712.890625,-48.828125
194.82421875,79.58984375,639.16015625,1.46484375
235.3515625,999.51171875,999.51171875,-6.34765625
-217.7734375,347.16796875,216.30859375,-85.44921875
-688.4765625,-1000.0,-1000.0,-102.05078125
-384.765625,-904.78515625,-823.2421875,-53.7109375
246.09375,462.890625,501.46484375,12.6953125
304.19921875,999.51171875,999.51171875,11.71875
152.83203125,798.828125,293.9453125,-47.36328125
100.5859375,-448.2421875,-984.86328125,-85.9375
-349.609375,-1000.0,-1000.0,-69.82421875
-392.578125,-144.04296875,126.46484375,4.8828125
158.69140625,999.51171875,999.51171875,-20.5078125
-198.2421875,937.01171875,493.1640625,-126.46484375
-418.45703125,-317.87109375,-833.984375,-124.0234375
-311.5234375,-1000.0,-1000.0,-82.51953125
-890.625,-169.43359375,-35.64453125,-11.23046875
-1000.0,990.72265625,999.51171875,-11.23046875
-761.23046875,999.51171875,777.34375,-95.21484375
-587.890625,4.39453125,-529.296875,-125.0
-858.3984375,-1000.0,-1000.0,-110.83984375
-1000.0,-194.3359375,-50.29296875,-55.17578125
-992.1875,999.51171875,980.46875,-30.2734375
-966.796875,950.68359375,999.51171875,-64.453125
-840.8203125,937.5,78.125,-77.63671875
-896.484375,973.6328125,-949.70703125,-45.41015625
-1000.0,966.30859375,531.25,5.859375
-1000.0,966.30859375,999.51171875,33.69140625
-808.59375,966.30859375,999.51171875,-17.578125
-541.015625,965.8203125,490.234375,-62.5
-232.421875,966.30859375,-1000.0,-69.3359375
368.1640625,966.30859375,-60.546875,-28.3203125
709.9609375,966.30859375,999.51171875,35.15625
724.12109375,966.30859375,999.51171875,-6.8359375
672.8515625,965.8203125,537.59765625,-78.61328125
628.90625,966.30859375,-1000.0,-78.61328125
865.234375,966.30859375,-211.42578125,-32.71484375
980.46875,966.30859375,999.51171875,20.01953125
947.265625,966.30859375,999.51171875,-1.46484375
975.09765625,965.8203125,714.35546875,-42.96875
778.80859375,965.8203125,-866.69921875,-82.51953125
548.828125,980.46875,-281.73828125,-61.03515625
803.7109375,906.73828125,999.51171875,11.23046875
999.51171875,999.51171875,999.51171875,10.7421875
493.65234375,785.15625,656.73828125,-35.64453125
-611.328125,-618.65234375,-928.7109375,-75.68359375
-1000.0,-1000.0,-498.046875,-53.7109375
-479.4921875,76.66015625,927.734375,20.5078125
-172.36328125,999.51171875,999.51171875,20.01953125
-182.12890625,762.20703125,590.33203125,-55.17578125
-96.6796875,-611.81640625,-898.4375,-78.125
128.41796875,-1000.0,-819.82421875,-62.5
577.63671875,214.35546875,623.53515625,-16.6015625
873.046875,999.51171875,999.51171875,12.20703125
298.33984375,961.9140625,662.109375,-50.29296875
-606.93359375,-168.45703125,-693.359375,-101.5625
-300.29296875,-1000.0,-1000.0,-68.84765625
446.2890625,-159.66796875,203.61328125,-19.53125
747.55859375,999.51171875,999.51171875,-8.30078125
712.890625,999.51171875,675.29296875,-39.0625
411.1328125,-3.41796875,-621.58203125,-72.265625
351.07421875,-1000.0,-1000.0,-61.5234375
788.0859375,-213.37890625,-131.34765625,-9.765625
999.51171875,999.51171875,999.51171875,-1.953125
472.65625,936.03515625,774.4140625,-50.29296875
-73.2421875,-361.328125,-536.62109375,-64.453125
-524.4140625,-1000.0,-1000.0,-53.7109375
-1000.0,-1000.0,-194.82421875,-19.04296875
-763.18359375,107.421875,999.51171875,13.671875
-299.8046875,999.51171875,885.25390625,-17.08984375
-216.30859375,-136.71875,-375.0,-72.265625
-50.29296875,-1000.0,-1000.0,-91.30859375
383.30078125,-511.71875,-263.18359375,-61.5234375
682.6171875,816.89453125,991.69921875,-21.484375
548.33984375,999.51171875,989.74609375,-22.94921875
500.0,128.90625,-180.17578125,-57.12890625
29.296875,-1000.0,-1000.0,-83.984375
-910.64453125,-1000.0,-404.296875,-40.0390625
-1000.0,245.60546875,905.76171875,1.953125
-958.984375,999.51171875,999.51171875,-30.2734375
-998.046875,-14.16015625,-28.3203125,-81.54296875
-996.09375,-1000.0,-1000.0,-101.5625
-598.14453125,-984.86328125,-658.69140625,-48.33984375
188.96484375,238.76953125,683.59375,15.625
-274.90234375,999.51171875,999.51171875,-18.06640625
-1000.0,37.109375,49.8046875,-72.265625
-970.703125,-1000.0,-1000.0,-88.8671875
-995.1171875,-1000.0,-904.78515625,-68.359375
-528.80859375,-109.375,354.98046875,0.9765625
77.63671875,999.51171875,999.51171875,-6.34765625
214.84375,453.61328125,141.11328125,-64.94140625
312.5,-940.91796875,-1000.0,-100.5859375
682.6171875,-1000.0,-1000.0,-86.42578125
975.09765625,117.1875,165.52734375,-37.109375
959.47265625,999.51171875,999.51171875,-26.85546875
959.47265625,455.56640625,164.0625,-106.93359375
965.8203125,-860.83984375,-1000.0,-164.55078125
964.84375,-1000.0,-1000.0,-122.0703125
965.8203125,-234.86328125,-121.09375,-68.84765625
965.33203125,999.51171875,999.51171875,-80.078125
965.33203125,640.13671875,283.69140625,-134.765625
965.8203125,-746.58203125,-981.93359375,-176.7578125
965.33203125,-1000.0,-1000.0,-202.1484375
964.84375,-229.4921875,-178.7109375,-158.203125
962.40234375,999.51171875,999.51171875,-143.5546875
976.5625,591.796875,436.5234375,-218.75
903.3203125,-773.92578125,-890.13671875,-264.16015625
889.16015625,-1000.0,-1000.0,-247.0703125
966.796875,-543.45703125,-234.375,-181.640625
964.84375,883.7890625,999.51171875,-165.0390625
966.796875,961.42578125,666.9921875,-215.8203125
782.71484375,-414.55078125,-686.03515625,-275.390625
682.6171875,-1000.0,-1000.0,-291.9921875
873.046875,-229.98046875,-225.09765625,-233.3984375
983.3984375,962.40234375,999.51171875,-180.17578125
917.48046875,999.51171875,881.8359375,-200.68359375
636.23046875,36.62109375,-375.48828125,-256.8359375
490.234375,-1000.0,-1000.0,-268.06640625
752.44140625,-710.44921875,-377.44140625,-210.44921875
986.81640625,668.9453125,947.75390625,-156.25
858.3984375,999.51171875,991.2109375,-189.453125
519.53125,-80.56640625,-235.83984375,-227.05078125
372.55859375,-1000.0,-1000.0,-213.37890625
610.83984375,-1000.0,-616.69921875,-159.1796875
912.59765625,146.97265625,718.75,-71.2890625
854.4921875,999.51171875,999.51171875,-88.37890625
520.01953125,126.953125,-13.671875,-139.16015625
313.4765625,-1000.0,-1000.0,-126.46484375
504.39453125,-1000.0,-903.80859375,-72.265625
835.9375,-229.98046875,364.74609375,8.30078125
817.87109375,999.51171875,999.51171875,12.6953125
479.4921875,196.2890625,41.015625,-54.19921875
286.1328125,-1000.0,-1000.0,-73.2421875
460.9375,-1000.0,-1000.0,-2.9296875
778.3203125,-248.046875,142.08984375,64.94140625
797.36328125,999.51171875,999.51171875,58.10546875
465.8203125,214.35546875,116.69921875,9.765625
217.28515625,-1000.0,-1000.0,-17.578125
313.4765625,-1000.0,-1000.0,18.5546875
633.7890625,-343.75,-91.796875,81.54296875
720.703125,999.51171875,999.51171875,78.61328125
440.4296875,313.4765625,171.38671875,17.578125
175.29296875,-994.140625,-1000.0,-20.5078125
228.515625,-1000.0,-1000.0,17.578125
576.66015625,-213.37890625,-201.171875,69.3359375
680.6640625,999.51171875,999.51171875,69.3359375
405.2734375,992.67578125,323.2421875,28.80859375
125.9765625,-222.16796875,-964.84375,-13.18359375
121.58203125,-1000.0,-1000.0,6.8359375
481.4453125,-233.3984375,-236.81640625,67.3828125
640.625,999.51171875,999.51171875,84.47265625
360.83984375,471.19140625,373.046875,26.3671875
64.94140625,-881.8359375,-939.94140625,-25.87890625
56.640625,-1000.0,-1000.0,-14.6484375
373.046875,-557.12890625,-291.015625,44.43359375
587.40234375,854.98046875,999.51171875,69.82421875
369.140625,999.51171875,621.09375,23.92578125
45.8984375,-329.58984375,-733.3984375,-6.8359375
-8.30078125,-1000.0,-1000.0,-2.44140625
270.01953125,-740.234375,-397.4609375,31.73828125
505.37109375,546.38671875,967.28515625,64.94140625
388.18359375,999.51171875,905.76171875,38.57421875
71.2890625,142.08984375,-396.97265625,0.9765625
-74.21875,-1000.0,-1000.0,-14.6484375
200.68359375,-1000.0,-568.359375,26.3671875
494.62890625,230.95703125,813.96484375,79.1015625
398.4375,999.51171875,999.51171875,28.80859375
38.57421875,-73.2421875,-266.11328125,-33.69140625
-128.41796875,-1000.0,-1000.0,-41.015625
118.65234375,-1000.0,-728.515625,-20.5078125
420.41015625,-2.44140625,590.8203125,29.296875
371.58203125,999.51171875,999.51171875,35.15625
42.48046875,135.7421875,-19.04296875,-29.296875
-143.06640625,-1000.0,-1000.0,-62.98828125
62.5,-1000.0,-883.30078125,-21.484375
384.765625,-21.484375,380.37109375,38.0859375
358.88671875,999.51171875,999.51171875,29.78515625
45.8984375,183.59375,112.79296875,-49.31640625
-163.0859375,-1000.0,-1000.0,-77.63671875
-6.8359375,-1000.0,-1000.0,-21.484375
331.54296875,-258.30078125,153.80859375,25.87890625
387.6953125,999.51171875,999.51171875,28.3203125
85.44921875,335.44921875,173.33984375,-9.765625
-180.6640625,-1000.0,-1000.0,-62.01171875
-56.640625,-1000.0,-1000.0,-36.62109375
311.5234375,9.765625,60.546875,22.94921875
381.8359375,999.51171875,999.51171875,21.97265625
101.07421875,594.7265625,326.171875,-41.50390625
-149.90234375,-743.65234375,-948.73046875,-88.8671875
-92.28515625,-1000.0,-1000.0,-54.6875
282.71484375,-170.8984375,-110.3515625,16.11328125
410.64453125,976.5625,999.51171875,41.9921875
154.296875,999.51171875,667.96875,-8.7890625
-128.41796875,39.55078125,-674.31640625,-68.359375
-142.08984375,-1000.0,-1000.0,-75.1953125
210.44921875,-179.6875,-116.69921875,-3.41796875
375.0,988.28125,999.51171875,18.5546875
169.43359375,999.51171875,950.68359375,-36.62109375
-120.1171875,227.05078125,-246.58203125,-83.49609375
-198.2421875,-1000.0,-1000.0,-78.125
139.16015625,-278.80859375,-168.9453125,-17.08984375
369.140625,975.5859375,999.51171875,25.390625
193.84765625,999.51171875,999.51171875,-19.04296875
-96.19140625,226.07421875,-43.45703125,-92.7734375
-229.00390625,-1000.0,-1000.0,-98.14453125
75.1953125,-407.71484375,-195.3125,-22.4609375
354.4921875,919.921875,989.2578125,5.37109375
206.0546875,999.51171875,999.51171875,-41.9921875
-92.28515625,206.0546875,117.67578125,-74.21875
-236.81640625,-1000.0,-1000.0,-71.77734375
12.6953125,-741.69921875,-317.3828125,-26.3671875
308.10546875,632.8125,946.77734375,4.39453125
212.40234375,999.51171875,999.51171875,-26.3671875
-104.98046875,181.15234375,185.05859375,-88.37890625
-269.53125,-1000.0,-1000.0,-113.28125
-41.015625,-975.09765625,-536.1328125,-66.40625
293.45703125,270.01953125,816.40625,-31.73828125
224.12109375,999.51171875,999.51171875,-67.3828125
-68.84765625,411.62109375,202.63671875,-92.7734375
-252.9296875,-942.3828125,-1000.0,-96.6796875
-88.37890625,-1000.0,-725.5859375,-54.6875
255.859375,188.4765625,622.0703125,8.7890625
263.671875,999.51171875,999.51171875,30.76171875
-32.71484375,661.1328125,264.6484375,-38.57421875
-276.3671875,-651.85546875,-1000.0,-112.79296875
-148.4375,-1000.0,-989.2578125,-56.640625
211.9140625,-165.52734375,258.30078125,26.85546875
264.16015625,999.51171875,999.51171875,18.06640625
0.0,672.8515625,307.6171875,-28.80859375
-246.58203125,-701.171875,-976.5625,-75.68359375
-182.12890625,-1000.0,-1000.0,-57.6171875
181.640625,-128.90625,75.68359375,2.9296875
269.53125,999.51171875,999.51171875,-5.859375
31.73828125,999.51171875,522.94921875,-37.109375
-220.21484375,-50.29296875,-796.38671875,-82.51953125
-232.421875,-1000.0,-1000.0,-136.71875
122.55859375,-218.26171875,-157.71484375,-101.07421875
291.9921875,999.51171875,999.51171875,-57.12890625
51.26953125,853.02734375,593.75,-97.65625
-239.74609375,-456.0546875,-754.39453125,-140.13671875
-257.32421875,-1000.0,-1000.0,-104.4921875
77.63671875,-274.4140625,-207.51953125,-73.73046875
263.671875,956.0546875,999.51171875,-123.046875
80.078125,999.51171875,777.83203125,-133.7890625
-188.4765625,-52.734375,-539.55078125,-106.4453125
-280.76171875,-1000.0,-1000.0,-106.4453125
14.6484375,-434.5703125,-235.3515625,-119.62890625
276.85546875,868.65234375,999.51171875,-123.53515625
99.609375,999.51171875,931.640625,-125.0
-215.8203125,206.0546875,-292.96875,-103.515625
-316.40625,-1000.0,-1000.0,-78.61328125
-23.4375,-436.03515625,-328.61328125,-83.984375
253.90625,912.59765625,951.66015625,-84.9609375
133.7890625,999.51171875,999.51171875,-88.8671875
-167.96875,121.58203125,-102.5390625,-93.26171875
-324.70703125,-1000.0,-1000.0,-77.63671875
-70.3125,-940.91796875,-572.75390625,-68.359375
239.74609375,335.9375,762.6953125,-87.890625
150.390625,999.51171875,999.51171875,-106.93359375
-159.66796875,138.18359375,57.6171875,-85.9375
-315.4296875,-1000.0,-1000.0,-63.4765625
-87.40234375,-1000.0,-787.109375,-36.62109375
229.4921875,22.4609375,530.76171875,-68.84765625
176.26953125,999.51171875,999.51171875,-91.30859375
-131.34765625,230.46875,132.8125,-73.73046875
-307.12890625,-1000.0,-1000.0,-59.08203125
-140.625,-1000.0,-935.546875,-55.17578125
188.4765625,26.85546875,315.91796875,-63.4765625
224.12109375,999.51171875,999.51171875,-52.24609375
-41.015625,790.52734375,189.453125,-56.15234375
-291.50390625,-492.1875,-1000.0,-53.7109375
-201.171875,-1000.0,-1000.0,-11.71875
157.2265625,-226.07421875,-14.16015625,23.92578125
245.1171875,999.51171875,999.51171875,-36.1328125
-26.85546875,581.0546875,259.27734375,-64.94140625
-310.546875,-810.05859375,-984.375,-54.19921875
-235.83984375,-1000.0,-1000.0,-69.3359375
139.16015625,-224.12109375,-157.71484375,-55.6640625
266.6015625,999.51171875,999.51171875,-48.828125
-3.41796875,717.28515625,376.46484375,-42.48046875
-279.296875,-657.2265625,-931.640625,-44.43359375
-248.046875,-1000.0,-1000.0,-25.390625
107.421875,-192.3828125,-219.7265625,32.2265625
263.671875,999.51171875,999.51171875,48.828125
24.90234375,944.3359375,561.03515625,5.859375
-249.51171875,-287.59765625,-789.0625,-21.484375
-291.9921875,-1000.0,-1000.0,-36.62109375
39.55078125,-452.1484375,-252.9296875,7.8125
270.5078125,858.88671875,999.51171875,41.015625
82.51953125,999.51171875,784.66796875,2.44140625
-214.84375,41.015625,-532.2265625,-30.2734375
-300.29296875,-1000.0,-1000.0,-20.5078125
-3.90625,-717.7734375,-343.26171875,10.7421875
252.9296875,681.640625,985.83984375,-16.6015625
97.65625,999.51171875,921.38671875,-70.80078125
-204.1015625,-157.71484375,-351.07421875,-92.7734375
-312.01171875,-1000.0,-1000.0,-79.1015625
-60.546875,-1000.0,-543.45703125,-62.98828125
216.796875,111.328125,807.6171875,-57.6171875
109.375,999.51171875,999.51171875,-64.94140625
-190.4296875,119.140625,-141.11328125,-79.58984375
-324.70703125,-1000.0,-1000.0,-69.82421875
-100.5859375,-1000.0,-792.96875,-54.19921875
187.01171875,-108.88671875,510.7421875,-68.359375
136.23046875,999.51171875,999.51171875,-76.66015625
-137.20703125,294.921875,0.0,-73.73046875
-320.3125,-967.7734375,-1000.0,-73.73046875
-187.5,-1000.0,-1000.0,-60.546875
149.90234375,-244.62890625,144.53125,-45.8984375
190.91796875,999.51171875,999.51171875,-52.24609375
-126.953125,168.9453125,52.24609375,-79.58984375
-346.6796875,-1000.0,-1000.0,-74.70703125
-209.9609375,-1000.0,-1000.0,-53.22265625
125.9765625,-273.92578125,-102.05078125,-48.828125
221.19140625,999.51171875,999.51171875,-59.5703125
-90.33203125,159.1796875,116.2109375,-78.125
-338.8671875,-1000.0,-1000.0,-58.10546875
-232.91015625,-1000.0,-1000.0,-53.22265625
83.0078125,-576.66015625,-225.5859375,-55.6640625
194.82421875,999.51171875,999.51171875,-71.2890625
-82.03125,353.02734375,171.875,-76.171875
-348.14453125,-997.55859375,-1000.0,-65.91796875
-283.69140625,-1000.0,-1000.0,-59.5703125
55.17578125,-546.38671875,-271.484375,-40.0390625
222.65625,999.51171875,999.51171875,-36.1328125
-24.90234375,520.01953125,240.72265625,-62.01171875
-306.15234375,-932.6171875,-1000.0,-76.66015625
-276.3671875,-1000.0,-1000.0,-42.48046875
32.71484375,-915.52734375,-379.8828125,-29.296875
244.62890625,577.1484375,999.51171875,-49.8046875
31.73828125,700.1953125,379.39453125,-65.91796875
-287.59765625,-861.328125,-951.171875,-59.08203125
-312.5,-1000.0,-1000.0,-42.96875
-13.18359375,-895.99609375,-459.47265625,-41.9921875
230.46875,473.6328125,999.51171875,-51.26953125
54.6875,999.51171875,641.11328125,-69.3359375
-244.140625,-463.37890625,-760.7421875,-83.984375
-291.9921875,-1000.0,-1000.0,-61.03515625
-2.9296875,-880.859375,-561.5234375,-23.92578125
253.41796875,330.56640625,835.44921875,-42.48046875
144.53125,999.51171875,971.6796875,-79.58984375
-142.578125,132.8125,-351.5625,-67.3828125
-269.53125,-1000.0,-1000.0,-47.8515625
-38.57421875,-1000.0,-742.67578125,-38.0859375
246.09375,-54.6875,602.5390625,-22.94921875
173.828125,999.51171875,999.51171875,-26.85546875
-140.13671875,153.80859375,-174.31640625,-36.62109375
-298.33984375,-1000.0,-1000.0,-29.78515625
-107.91015625,-1000.0,-891.6015625,-15.13671875
223.6328125,-95.703125,350.09765625,-20.5078125
215.8203125,999.51171875,999.51171875,-44.921875
-83.0078125,223.14453125,57.12890625,-58.10546875
-278.80859375,-1000.0,-1000.0,-63.96484375
-129.8828125,-1000.0,-978.02734375,-46.875
208.984375,55.6640625,225.09765625,-21.484375
237.3046875,999.51171875,999.51171875,-36.1328125
-43.45703125,538.57421875,143.06640625,-62.98828125
-263.671875,-792.48046875,-1000.0,-52.734375
-148.4375,-1000.0,-1000.0,-28.3203125
194.82421875,-220.703125,-29.296875,-20.01953125
240.72265625,999.51171875,999.51171875,-41.015625
-32.71484375,662.109375,221.6796875,-62.5
-256.8359375,-720.21484375,-998.53515625,-72.75390625
-199.21875,-1000.0,-1000.0,-45.41015625
142.08984375,-223.14453125,-182.6171875,-27.83203125
270.99609375,999.51171875,999.51171875,-25.87890625
0.48828125,680.6640625,337.890625,-17.08984375
-292.48046875,-683.10546875,-955.078125,-44.43359375
-283.69140625,-1000.0,-1000.0,-62.98828125
64.453125,-365.234375,-242.1875,-20.5078125
233.3984375,927.734375,999.51171875,-8.30078125
3.41796875,999.51171875,555.6640625,-46.875
-271.97265625,-145.01953125,-801.7578125,-73.2421875
-276.85546875,-1000.0,-1000.0,-60.05859375
38.57421875,-421.38671875,-256.8359375,-12.6953125
236.81640625,933.59375,999.51171875,-14.16015625
50.78125,999.51171875,658.203125,-54.6875
-235.83984375,-222.16796875,-689.453125,-58.10546875
-293.9453125,-1000.0,-1000.0,-34.1796875
-5.859375,-725.5859375,-375.48828125,7.32421875
243.65234375,592.28515625,980.95703125,43.9453125
94.23828125,999.51171875,892.578125,-4.39453125
-219.7265625,60.05859375,-408.69140625,-77.1484375
-323.2421875,-1000.0,-1000.0,-71.2890625
-53.22265625,-875.48828125,-538.0859375,-48.33984375
218.75,438.96484375,832.03125,-33.203125
118.1640625,999.51171875,999.51171875,-45.41015625
-191.89453125,92.7734375,-222.65625,-79.1015625
-326.66015625,-1000.0,-1000.0,-73.73046875
-74.70703125,-828.125,-693.84765625,-42.48046875
213.8671875,501.953125,640.625,-39.0625
142.08984375,999.51171875,999.51171875,-66.40625
-170.41015625,96.6796875,-65.91796875,-94.23828125
-333.984375,-1000.0,-1000.0,-91.30859375
-128.41796875,-1000.0,-965.33203125,-48.33984375
193.359375,-248.53515625,228.02734375,8.7890625
197.265625,999.51171875,999.51171875,4.39453125
-134.27734375,268.06640625,100.09765625,-39.0625
-344.7265625,-1000.0,-1000.0,-62.98828125
-171.38671875,-1000.0,-1000.0,-22.94921875
50.78125,-206.54296875,71.2890625,21.484375
51.26953125,999.51171875,999.51171875,22.94921875
-161.1328125,750.0,170.8984375,-42.48046875
-359.375,-608.3984375,-1000.0,-79.1015625
-245.1171875,-1000.0,-1000.0,-27.83203125
120.1171875,-227.05078125,-130.859375,10.7421875
221.6796875,999.51171875,999.51171875,6.8359375
-49.31640625,560.546875,229.4921875,-34.66796875
-301.26953125,-824.70703125,-1000.0,-58.10546875
-249.0234375,-1000.0,-1000.0,-35.64453125
86.9140625,-198.73046875,-220.21484375,14.6484375
255.859375,992.67578125,999.51171875,44.921875
-13.18359375,999.51171875,401.85546875,-4.39453125
-584.47265625,-104.4921875,-919.43359375,-61.03515625
-660.15625,-1000.0,-1000.0,-46.38671875
-96.6796875,-346.6796875,-239.74609375,1.46484375
59.5703125,999.51171875,999.51171875,23.92578125
-714.84375,799.8046875,588.37890625,0.9765625
-1000.0,-557.6171875,-766.6015625,-51.7578125
-673.828125,-1000.0,-1000.0,-59.08203125
-208.0078125,-388.18359375,-260.7421875,4.39453125
123.046875,875.9765625,999.51171875,30.76171875
-14.6484375,999.51171875,847.65625,-6.8359375
-275.87890625,123.046875,-451.66015625,-66.40625
-340.33203125,-1000.0,-1000.0,-81.54296875
13.671875,-195.3125,-269.53125,-7.8125
310.05859375,999.51171875,995.1171875,16.11328125
165.0390625,999.51171875,970.703125,-29.296875
-137.20703125,187.98828125,-223.14453125,-60.546875
-268.5546875,-1000.0,-1000.0,-73.73046875
14.16015625,-628.41796875,-503.90625,-17.08984375
324.70703125,753.90625,831.0546875,24.90234375
218.75,999.51171875,999.51171875,-13.18359375
-98.14453125,142.08984375,-34.1796875,-81.0546875
-231.93359375,-1000.0,-1000.0,-84.9609375
-2.44140625,-1000.0,-798.828125,-35.64453125
320.3125,-18.06640625,499.51171875,-9.27734375
235.83984375,999.51171875,999.51171875,-25.87890625
-164.0625,253.41796875,119.62890625,-58.10546875
-317.3828125,-1000.0,-1000.0,-84.9609375
-106.93359375,-1000.0,-927.24609375,-49.8046875
247.0703125,14.16015625,334.9609375,-6.34765625
278.3203125,999.51171875,999.51171875,-41.9921875
-27.83203125,458.49609375,156.25,-77.1484375
-255.859375,-872.55859375,-1000.0,-108.88671875
-130.37109375,-1000.0,-1000.0,-104.00390625
237.3046875,-207.51953125,84.9609375,-54.19921875
300.29296875,999.51171875,999.51171875,-93.75
12.6953125,588.37890625,237.3046875,-124.0234375
-222.65625,-792.48046875,-998.53515625,-101.07421875
-140.625,-1000.0,-1000.0,-92.7734375
208.984375,-231.4453125,-63.96484375,-80.078125
314.94140625,999.51171875,999.51171875,-86.9140625
25.390625,613.28125,353.515625,-96.6796875
-283.203125,-777.83203125,-937.01171875,-93.26171875
-212.40234375,-1000.0,-1000.0,-83.0078125
157.71484375,-192.3828125,-202.1484375,-62.5
295.41015625,999.51171875,999.51171875,-64.453125
62.5,982.91015625,593.26171875,-91.796875
-211.9140625,-242.1875,-761.23046875,-105.95703125
-232.91015625,-1000.0,-1000.0,-84.9609375
121.09375,-175.29296875,-202.1484375,-61.03515625
325.68359375,999.51171875,999.51171875,-57.6171875
80.56640625,999.51171875,810.546875,-78.61328125
-278.3203125,-37.109375,-494.140625,-97.16796875
-334.47265625,-1000.0,-1000.0,-76.66015625
25.390625,-422.36328125,-230.95703125,-55.17578125
277.83203125,876.46484375,999.51171875,-44.43359375
105.46875,999.51171875,988.28125,-59.08203125
-236.81640625,194.3359375,-177.734375,-80.56640625
-217.7734375,-1000.0,-1000.0,-80.078125
-416.50390625,-819.82421875,-303.7109375,-51.26953125
-996.58203125,520.5078125,934.5703125,-36.1328125
-804.19921875,999.51171875,999.51171875,-59.5703125
-702.63671875,276.85546875,115.234375,-75.1953125
-985.3515625,-1000.0,-1000.0,-67.87109375
-656.25,-700.1953125,-479.4921875,-38.0859375
-121.09375,698.73046875,856.4453125,-37.109375
-95.21484375,999.51171875,999.51171875,-61.5234375
-285.64453125,225.09765625,152.83203125,-63.96484375
-399.90234375,-1000.0,-1000.0,-51.26953125
-128.90625,-985.3515625,-692.87109375,-36.1328125
258.7890625,265.625,658.69140625,-28.3203125
222.16796875,999.51171875,999.51171875,-35.15625
-83.984375,540.52734375,171.38671875,-52.24609375
-223.14453125,-784.66796875,-1000.0,-61.03515625
-66.89453125,-1000.0,-910.15625,-42.48046875
192.3828125,-103.02734375,364.74609375,-30.76171875
221.6796875,999.51171875,999.51171875,-48.33984375
0.48828125,666.9921875,216.30859375,-59.08203125
-225.09765625,-691.40625,-1000.0,-45.41015625
-105.95703125,-1000.0,-1000.0,-37.59765625
260.25390625,-158.203125,135.7421875,-35.64453125
303.22265625,999.51171875,999.51171875,-42.96875
71.77734375,851.07421875,346.19140625,-60.546875
-142.578125,-515.13671875,-953.125,-65.4296875
-112.79296875,-1000.0,-1000.0,-48.828125
248.046875,87.40234375,16.6015625,-40.52734375
300.78125,999.51171875,999.51171875,-32.71484375
-63.4765625,925.29296875,545.41015625,-40.0390625
-405.76171875,-273.92578125,-776.3671875,-50.78125
-378.90625,-1000.0,-1000.0,-35.64453125
74.21875,-166.015625,-157.2265625,-0.48828125
277.83203125,985.3515625,999.51171875,-16.11328125
-51.26953125,999.51171875,804.6875,-62.98828125
-303.7109375,61.03515625,-500.48828125,-67.87109375
-497.55859375,-1000.0,-1000.0,-58.59375
-348.6328125,-278.80859375,-159.66796875,-39.55078125
66.89453125,954.1015625,999.51171875,-41.9921875
-202.63671875,999.51171875,999.51171875,-55.17578125
-582.03125,179.6875,-64.94140625,-60.546875
-763.671875,-1000.0,-1000.0,-48.828125
-998.046875,-1000.0,-239.2578125,-24.4140625
-1000.0,162.59765625,985.3515625,-11.71875
-996.58203125,999.51171875,999.51171875,-18.5546875
-987.3046875,173.33984375,12.20703125,-33.203125
-1000.0,-1000.0,-1000.0,-41.9921875
-942.87109375,-596.19140625,-295.41015625,-21.484375
-451.171875,780.2734375,947.75390625,-21.97265625
-534.66796875,999.51171875,999.51171875,-36.1328125
-939.453125,284.1796875,165.52734375,-37.59765625
-710.9375,-1000.0,-1000.0,-27.83203125
-803.7109375,-639.6484375,-418.45703125,-5.37109375
-1000.0,761.71875,900.87890625,-7.8125
-990.234375,999.51171875,999.51171875,-26.3671875
-999.0234375,256.34765625,201.171875,-28.80859375
-1000.0,-990.234375,-1000.0,-25.87890625
-999.0234375,-1000.0,-681.640625,-26.3671875
-1000.0,75.1953125,674.31640625,-18.5546875
-973.6328125,999.51171875,999.51171875,-27.34375
-973.6328125,508.30078125,232.421875,-50.78125
-999.0234375,-880.859375,-1000.0,-49.8046875
-1000.0,-1000.0,-868.65234375,-30.2734375
-955.078125,174.8046875,440.91796875,-19.53125
-801.7578125,999.51171875,999.51171875,-27.83203125
-573.73046875,948.73046875,347.16796875,-37.109375
-731.93359375,-196.2890625,-956.54296875,-41.015625
-1000.0,-1000.0,-1000.0,-21.97265625
-993.65234375,-203.125,112.79296875,-21.97265625
-994.140625,999.51171875,999.51171875,-42.96875
-978.515625,895.99609375,484.86328125,-57.6171875
-1000.0,-408.203125,-840.33203125,-62.01171875
-662.59765625,-1000.0,-1000.0,-43.9453125
233.3984375,-105.95703125,-42.48046875,-27.83203125
770.5078125,978.02734375,999.51171875,-40.52734375
733.3984375,999.51171875,828.61328125,-49.31640625
796.875,241.2109375,-443.84765625,-54.19921875
47.8515625,-1000.0,-1000.0,-41.9921875
-1000.0,-649.4140625,-162.109375,-16.6015625
-991.69921875,751.953125,999.51171875,-16.6015625
-963.37890625,999.51171875,896.484375,-32.71484375
-977.05078125,135.7421875,-356.93359375,-58.59375
-657.2265625,-1000.0,-1000.0,-56.15234375
122.55859375,-254.8828125,-181.640625,-12.20703125
596.19140625,977.5390625,999.51171875,0.9765625
580.078125,999.51171875,999.51171875,-19.04296875
646.484375,219.23828125,-113.76953125,-28.80859375
847.16796875,-1000.0,-1000.0,-33.69140625
979.00390625,-224.12109375,-223.14453125,-17.08984375
919.921875,987.79296875,975.09765625,-9.27734375
999.51171875,999.51171875,999.51171875,-24.4140625
666.9921875,275.390625,104.00390625,-34.1796875
-533.203125,-1000.0,-1000.0,-40.0390625
-1000.0,-1000.0,-402.34375,-29.296875
-963.8671875,119.62890625,902.83203125,-25.87890625
-998.046875,999.51171875,999.51171875,-39.0625
-1000.0,505.37109375,183.10546875,-52.24609375
-1000.0,-906.25,-1000.0,-53.22265625
-979.00390625,-1000.0,-606.4453125,-27.83203125
-1000.0,234.375,755.859375,-34.66796875
-753.90625,999.51171875,999.51171875,-49.8046875
-163.57421875,381.8359375,181.15234375,-36.1328125
249.0234375,-964.35546875,-1000.0,-27.83203125
750.9765625,-1000.0,-821.77734375,-32.71484375
982.91015625,234.86328125,495.1171875,-17.578125
951.66015625,999.51171875,999.51171875,-31.73828125
964.35546875,998.53515625,270.01953125,-60.546875
966.30859375,-224.12109375,-1000.0,-54.19921875
965.33203125,-1000.0,-952.1484375,-48.33984375
965.33203125,347.65625,317.87109375,-48.33984375
965.33203125,999.51171875,999.51171875,-52.24609375
965.33203125,999.51171875,445.80078125,-62.5
965.33203125,195.3125,-872.55859375,-59.5703125
965.8203125,-1000.0,-1000.0,-31.25
965.33203125,-218.26171875,16.11328125,-14.6484375
965.33203125,999.51171875,999.51171875,-45.8984375
965.33203125,999.51171875,620.1171875,-72.265625
965.33203125,-109.86328125,-717.7734375,-56.15234375
965.8203125,-1000.0,-1000.0,-46.875
965.33203125,-169.921875,-94.23828125,-51.26953125
964.84375,985.3515625,999.51171875,-57.6171875
953.125,999.51171875,819.82421875,-74.21875
999.51171875,149.4140625,-470.703125,-69.82421875
726.5625,-1000.0,-1000.0,-54.19921875
728.02734375,-209.9609375,-118.1640625,-35.15625
917.96875,999.51171875,999.51171875,-34.66796875
-367.67578125,999.51171875,994.62890625,-47.36328125
-1000.0,-15.13671875,-150.390625,-35.15625
-981.4453125,-1000.0,-1000.0,-19.53125
-718.26171875,-504.39453125,-189.94140625,-27.83203125
-1.953125,831.0546875,998.046875,-33.203125
319.82421875,999.51171875,999.51171875,-45.41015625
294.43359375,204.58984375,8.7890625,-61.5234375
358.3984375,-1000.0,-1000.0,-57.12890625
444.82421875,-595.703125,-270.01953125,-40.52734375
340.33203125,793.9453125,959.9609375,-43.45703125
212.40234375,999.51171875,999.51171875,-59.5703125
5.37109375,200.1953125,156.25,-66.89453125
51.26953125,-1000.0,-1000.0,-55.17578125
572.75390625,-603.515625,-392.08984375,-36.1328125
949.70703125,763.671875,911.1328125,-33.203125
978.02734375,999.51171875,999.51171875,-52.734375
819.82421875,535.15625,214.84375,-68.84765625
603.02734375,-855.95703125,-1000.0,-75.1953125
752.9296875,-1000.0,-617.1875,-58.59375
966.30859375,252.9296875,741.2109375,-37.109375
949.21875,999.51171875,999.51171875,-46.38671875
728.515625,888.671875,273.92578125,-49.8046875
467.28515625,-367.67578125,-1000.0,-60.546875
560.05859375,-1000.0,-807.12890625,-56.640625
887.20703125,55.17578125,535.15625,-45.41015625
914.55078125,999.51171875,999.51171875,-66.89453125
594.23828125,649.90234375,346.6796875,-71.77734375
324.70703125,-677.24609375,-978.515625,-66.40625
369.140625,-1000.0,-1000.0,-47.36328125
648.92578125,-180.17578125,228.515625,-24.90234375
710.9375,999.51171875,999.51171875,-31.73828125
442.3828125,979.98046875,559.08203125,-81.0546875
175.78125,-247.0703125,-797.8515625,-86.9140625
228.02734375,-1000.0,-1000.0,-35.64453125
601.07421875,-160.15625,116.2109375,-18.06640625
697.265625,980.46875,999.51171875,-41.9921875
441.40625,999.51171875,743.1640625,-70.3125
188.4765625,132.32421875,-539.55078125,-71.2890625
165.0390625,-1000.0,-1000.0,-67.87109375
490.234375,-209.9609375,-103.515625,-62.5
644.53125,988.76953125,999.51171875,-61.5234375
427.734375,999.51171875,945.80078125,-57.6171875
138.18359375,229.4921875,-254.39453125,-53.22265625
3.41796875,-1000.0,-1000.0,-53.22265625
236.328125,-378.90625,-150.390625,-62.01171875
327.63671875,934.08203125,999.51171875,-57.12890625
2.44140625,999.51171875,999.51171875,-54.19921875
-375.48828125,213.8671875,9.765625,-47.36328125
-565.91796875,-1000.0,-1000.0,-38.57421875
-351.07421875,-562.01171875,-203.125,-54.19921875
-102.5390625,824.70703125,989.74609375,-66.89453125
-155.2734375,999.51171875,999.51171875,-79.58984375
-339.84375,199.70703125,129.8828125,-76.171875
-366.2109375,-1000.0,-1000.0,-67.3828125
30.76171875,-651.3671875,-297.36328125,-77.1484375
409.1796875,750.0,954.1015625,-67.3828125
367.67578125,999.51171875,999.51171875,-65.91796875
125.48828125,924.31640625,213.8671875,-74.70703125
-47.36328125,-457.51953125,-1000.0,-67.87109375
177.24609375,-942.3828125,-453.61328125,-48.828125
538.57421875,576.171875,881.34765625,-56.640625
478.02734375,999.51171875,999.51171875,-71.77734375
94.7265625,334.9609375,228.02734375,-57.6171875
-229.00390625,-937.01171875,-1000.0,-43.9453125
-199.70703125,-1000.0,-666.9921875,-41.9921875
-58.59375,-23.92578125,692.3828125,-47.36328125
-498.046875,999.51171875,999.51171875,-48.828125
-1000.0,299.31640625,287.59765625,-42.96875
-995.60546875,-1000.0,-1000.0,-35.64453125
-946.77734375,-1000.0,-824.21875,-34.66796875
-554.19921875,131.34765625,514.6484375,-38.57421875
-105.95703125,999.51171875,999.51171875,-43.45703125
-21.97265625,776.85546875,365.234375,-44.921875
-36.1328125,-538.0859375,-951.171875,-42.48046875
148.4375,-1000.0,-1000.0,-42.48046875
562.01171875,48.828125,154.296875,-30.2734375
713.8671875,999.51171875,999.51171875,-27.83203125
523.92578125,936.03515625,534.66796875,-41.50390625
-41.015625,-259.27734375,-785.64453125,-45.41015625
-538.0859375,-1000.0,-1000.0,-42.96875
-337.40234375,-194.82421875,-82.03125,-50.78125
-81.54296875,999.51171875,999.51171875,-50.78125
-58.10546875,999.51171875,744.140625,-32.2265625
-80.56640625,-105.95703125,-570.3125,-19.53125
-14.16015625,-1000.0,-1000.0,-37.59765625
362.3046875,-199.70703125,-166.015625,-42.96875
573.2421875,979.4921875,999.51171875,-35.64453125
396.97265625,999.51171875,905.76171875,-47.36328125
138.18359375,109.86328125,-344.23828125,-62.5
50.29296875,-1000.0,-1000.0,-51.7578125
382.32421875,-179.6875,-173.33984375,-42.96875
575.1953125,983.3984375,999.51171875,-51.7578125
393.06640625,999.51171875,999.51171875,-41.50390625
144.53125,396.484375,-22.94921875,-35.15625
56.15234375,-983.3984375,-1000.0,-33.203125
353.02734375,-1000.0,-320.3125,-49.31640625
635.7421875,251.46484375,944.3359375,-54.19921875
528.3203125,999.51171875,999.51171875,-51.7578125
247.0703125,171.38671875,84.9609375,-32.71484375
98.6328125,-1000.0,-1000.0,-10.25390625
303.7109375,-889.16015625,-436.03515625,-51.7578125
587.890625,427.24609375,878.90625,-82.03125
521.484375,999.51171875,999.51171875,-69.3359375
257.32421875,243.1640625,182.6171875,-53.7109375
93.26171875,-1000.0,-1000.0,-47.36328125
253.41796875,-703.61328125,-567.3828125,-52.734375
453.125,685.05859375,788.57421875,-70.80078125
270.5078125,999.51171875,999.51171875,-70.3125
-104.4921875,214.84375,206.0546875,-58.59375
-351.5625,-981.4453125,-1000.0,-46.875
-277.83203125,-1000.0,-816.89453125,-54.6875
-2.44140625,-90.33203125,505.37109375,-54.19921875
-20.5078125,999.51171875,999.51171875,-49.8046875
-377.44140625,450.68359375,287.59765625,-43.45703125
-816.40625,-887.20703125,-1000.0,-41.50390625
-1000.0,-1000.0,-999.0234375,-37.59765625
-988.76953125,-196.77734375,234.375,-37.109375
-999.0234375,999.51171875,999.51171875,-47.8515625
-1000.0,999.51171875,509.765625,-47.8515625
-1000.0,-194.3359375,-838.8671875,-51.26953125
-1000.0,-1000.0,-1000.0,-41.50390625
-1000.0,-140.625,100.5859375,-42.96875
-1000.0,999.51171875,999.51171875,-41.9921875
-1000.0,947.75390625,632.8125,-42.48046875
-995.60546875,-288.57421875,-681.640625,-63.96484375
-1000.0,-1000.0,-1000.0,-57.12890625
-962.40234375,-202.1484375,-117.67578125,-31.73828125
-916.9921875,954.1015625,999.51171875,-25.87890625
-994.62890625,999.51171875,902.83203125,-38.57421875
-992.67578125,229.4921875,-332.03125,-43.9453125
-1000.0,-1000.0,-1000.0,-34.1796875
-892.578125,-455.078125,-173.33984375,-46.875
-648.4375,897.4609375,999.51171875,-69.3359375
-671.38671875,999.51171875,980.95703125,-60.05859375
-686.5234375,197.75390625,-187.01171875,-30.76171875
-500.9765625,-1000.0,-1000.0,-41.9921875
-177.734375,-484.86328125,-208.984375,-58.59375
163.57421875,876.46484375,988.28125,-51.7578125
411.1328125,999.51171875,999.51171875,-62.5
274.90234375,208.0078125,20.01953125,-60.546875
-162.59765625,-1000.0,-1000.0,-41.015625
-178.7109375,-369.62890625,-272.4609375,-46.38671875
-102.5390625,935.05859375,958.984375,-50.29296875
-388.671875,999.51171875,999.51171875,-43.45703125
-608.3984375,242.67578125,168.9453125,-34.1796875
-557.12890625,-1000.0,-1000.0,-27.83203125
-214.35546875,-857.421875,-482.91015625,-40.0390625
112.3046875,468.26171875,854.4921875,-45.41015625
88.8671875,999.51171875,999.51171875,-48.828125
-122.0703125,385.25390625,202.1484375,-68.359375
-364.2578125,-935.05859375,-1000.0,-53.22265625
-533.69140625,-1000.0,-669.43359375,-46.875
-461.9140625,102.5390625,685.05859375,-65.91796875
-622.55859375,999.51171875,999.51171875,-57.6171875
-965.33203125,451.66015625,265.625,-53.22265625
-1000.0,-869.140625,-1000.0,-67.3828125
-991.69921875,-1000.0,-917.48046875,-60.546875
-1000.0,-185.05859375,372.55859375,-49.8046875
-1000.0,999.51171875,999.51171875,-53.22265625
-1000.0,807.6171875,359.375,-56.640625
-1000.0,-527.34375,-957.51953125,-50.29296875
-1000.0,-1000.0,-1000.0,-44.921875
-1000.0,-198.2421875,143.5546875,-56.640625
-990.72265625,999.51171875,999.51171875,-66.89453125
-994.140625,864.2578125,511.23046875,-59.5703125
-953.61328125,-575.68359375,-835.9375,-56.15234375
-472.65625,-1000.0,-1000.0,-58.10546875
368.1640625,370.1171875,54.6875,-39.0625
845.21484375,999.51171875,999.51171875,-43.45703125
694.82421875,999.51171875,689.94140625,-69.82421875
341.796875,123.046875,-611.328125,-63.96484375
372.55859375,-1000.0,-1000.0,-43.9453125
762.6953125,-203.61328125,-154.296875,-62.5
181.640625,999.51171875,999.51171875,-68.84765625
-856.4453125,999.51171875,906.73828125,-41.9921875
-1000.0,-46.875,-339.35546875,-38.0859375
-891.6015625,-1000.0,-1000.0,-39.0625
-507.32421875,-170.41015625,-174.8046875,-32.71484375
-208.984375,982.421875,999.51171875,-51.7578125
-479.98046875,999.51171875,999.51171875,-56.15234375
-927.734375,215.33203125,-104.4921875,-44.43359375
-1000.0,-1000.0,-1000.0,-45.8984375
-744.62890625,-818.84765625,-286.62109375,-25.87890625
-754.39453125,536.1328125,958.0078125,-21.484375
-1000.0,999.51171875,999.51171875,-48.33984375
-986.328125,149.90234375,43.9453125,-48.33984375
-1000.0,-1000.0,-1000.0,-45.8984375
-898.4375,-994.62890625,-479.4921875,-54.19921875
-587.40234375,244.140625,844.23828125,-54.19921875
-570.3125,999.51171875,999.51171875,-63.96484375
-745.60546875,234.375,163.57421875,-57.6171875
-751.953125,-1000.0,-1000.0,-60.05859375
-203.61328125,-1000.0,-699.21875,-70.3125
533.203125,205.078125,653.80859375,-46.38671875
764.6484375,999.51171875,999.51171875,-41.50390625
624.0234375,734.375,168.45703125,-57.6171875
613.28125,-632.32421875,-1000.0,-57.12890625
874.0234375,-1000.0,-877.9296875,-55.6640625
980.95703125,208.984375,419.43359375,-58.59375
955.56640625,999.51171875,999.51171875,-57.12890625
965.8203125,859.86328125,214.35546875,-45.8984375
965.8203125,-358.3984375,-1000.0,-44.43359375
965.33203125,-1000.0,-1000.0,-63.96484375
965.33203125,-184.5703125,111.328125,-79.1015625
965.33203125,999.51171875,999.51171875,-70.80078125
965.33203125,941.40625,324.21875,-54.19921875
965.33203125,-322.75390625,-952.63671875,-55.17578125
965.8203125,-1000.0,-1000.0,-53.22265625
966.30859375,-173.33984375,-71.2890625,-54.6875
959.47265625,996.58203125,999.51171875,-35.15625
980.95703125,999.51171875,569.82421875,-36.62109375
909.66796875,-60.546875,-777.83203125,-62.5
814.94140625,-1000.0,-1000.0,-47.36328125
952.1484375,-171.875,-124.0234375,-41.015625
458.0078125,999.51171875,999.51171875,-41.015625
-634.765625,386.71875,650.390625,-46.875
-1000.0,-958.984375,-686.03515625,-45.8984375
-973.14453125,-1000.0,-1000.0,-51.26953125
-998.046875,-987.79296875,-208.49609375,-41.9921875
-1000.0,278.3203125,999.51171875,-36.62109375
-1000.0,999.51171875,883.30078125,-40.0390625
-1000.0,-234.86328125,-383.30078125,-33.203125
-1000.0,-1000.0,-1000.0,-31.25
-1000.0,-688.4765625,-228.02734375,-16.6015625
-1000.0,606.4453125,966.796875,-33.69140625
-1000.0,999.51171875,999.51171875,-50.29296875
-1000.0,250.0,42.96875,-31.73828125
-1000.0,-1000.0,-1000.0,-13.18359375
-1000.0,-1000.0,-395.01953125,-27.34375
-1000.0,235.83984375,913.57421875,-39.0625
-981.4453125,999.51171875,999.51171875,-41.9921875
-999.0234375,187.5,85.9375,-59.08203125
-928.22265625,-1000.0,-1000.0,-47.8515625
-70.80078125,-714.84375,-546.875,-26.3671875
806.15234375,651.3671875,797.36328125,-626.953125
999.51171875,999.51171875,999.51171875,-1000.0
653.3203125,279.296875,153.80859375,-971.6796875
459.9609375,-979.00390625,-1000.0,-1000.0
889.6484375,-1000.0,-789.0625,-1000.0
999.51171875,80.56640625,545.8984375,-1000.0
498.046875,999.51171875,999.51171875,-1000.0
-728.515625,134.27734375,148.4375,-980.95703125
-1000.0,-1000.0,-1000.0,-1000.0
-703.61328125,-1000.0,-989.74609375,-785.15625
-372.55859375,-148.92578125,215.8203125,-401.3671875
-804.19921875,999.51171875,999.51171875,-635.7421875
-1000.0,557.12890625,236.81640625,-807.6171875
-982.421875,-823.2421875,-999.0234375,-164.0625
-999.51171875,-1000.0,-1000.0,175.78125
-1000.0,-115.72265625,0.48828125,285.15625
-1000.0,999.51171875,999.51171875,38.0859375
-1000.0,425.78125,336.42578125,-861.328125
-1000.0,-895.99609375,-942.87109375,-1000.0
-1000.0,-1000.0,-1000.0,-963.37890625
-1000.0,-380.859375,-166.9921875,-1000.0
-1000.0,999.51171875,999.51171875,-1000.0
-1000.0,817.87109375,522.94921875,-1000.0
-965.33203125,-570.3125,-820.3125,-1000.0
-1000.0,-1000.0,-1000.0,-1000.0
-619.62890625,-163.0859375,-198.2421875,-1000.0
431.640625,959.9609375,999.51171875,-1000.0
874.51171875,999.51171875,868.65234375,-1000.0
999.51171875,187.5,-403.80859375,-1000.0
349.609375,-1000.0,-1000.0,-1000.0
-826.171875,-1000.0,-251.953125,-972.16796875
-563.96484375,164.55078125,999.51171875,-1000.0
-229.98046875,999.51171875,955.078125,-920.41015625
-758.7890625,316.89453125,-261.71875,74.70703125
-1000.0,-1000.0,-1000.0,834.47265625
-1000.0,-381.34765625,-315.91796875,878.41796875
-725.09765625,937.5,953.125,923.33984375
307.12890625,999.51171875,999.51171875,919.921875
959.9609375,639.16015625,-69.3359375,930.6640625
948.2421875,-954.58984375,-1000.0,955.56640625
954.58984375,-478.515625,-468.75,969.7265625
968.75,937.5,843.75,943.359375
965.33203125,999.51171875,999.51171875,877.9296875
965.33203125,523.4375,125.9765625,817.87109375
965.8203125,-925.29296875,-1000.0,794.43359375
965.8203125,-980.46875,-702.1484375,814.453125
965.33203125,388.18359375,649.4140625,687.98828125
965.33203125,999.51171875,999.51171875,551.7578125
965.33203125,357.91015625,142.08984375,494.140625
965.33203125,-977.05078125,-1000.0,687.5
965.33203125,-1000.0,-887.6953125,972.16796875
965.33203125,225.09765625,406.73828125,964.84375
965.33203125,999.51171875,999.51171875,958.984375
965.33203125,376.46484375,160.15625,967.7734375
965.8203125,-897.94921875,-1000.0,966.30859375
965.8203125,-1000.0,-1000.0,966.30859375
971.6796875,-230.46875,62.01171875,966.30859375
907.71484375,999.51171875,999.51171875,966.30859375
999.51171875,700.1953125,246.09375,966.30859375
496.09375,-652.83203125,-989.2578125,966.30859375
-860.83984375,-1000.0,-1000.0,966.30859375
-865.234375,-415.52734375,-111.81640625,965.8203125
39.55078125,874.51171875,999.51171875,966.30859375
572.265625,999.51171875,468.26171875,965.8203125
775.87890625,11.23046875,-863.76953125,965.8203125
943.84765625,-1000.0,-1000.0,966.30859375
968.26171875,-196.77734375,-189.453125,965.8203125
949.21875,999.51171875,999.51171875,965.8203125
999.51171875,999.51171875,635.7421875,966.30859375
774.90234375,-39.55078125,-712.40234375,966.30859375
722.16796875,-1000.0,-1000.0,965.8203125
987.79296875,-397.94921875,-212.40234375,962.40234375
965.33203125,903.3203125,999.51171875,972.16796875
959.47265625,999.51171875,839.84375,905.76171875
966.796875,90.8203125,-449.70703125,788.57421875
965.8203125,-1000.0,-1000.0,746.58203125
965.33203125,-642.578125,-250.0,768.5546875
965.33203125,741.2109375,999.51171875,775.390625
965.33203125,999.51171875,969.23828125,705.078125
965.33203125,73.73046875,-230.46875,607.91015625
965.8203125,-1000.0,-1000.0,567.3828125
965.33203125,-559.5703125,-338.8671875,614.74609375
965.8203125,806.640625,935.05859375,608.3984375
962.890625,999.51171875,999.51171875,534.66796875
961.9140625,124.0234375,-19.04296875,486.328125
985.83984375,-1000.0,-1000.0,456.0546875
818.359375,-1000.0,-565.91796875,454.58984375
811.03515625,208.49609375,775.390625,462.40234375
970.21484375,999.51171875,999.51171875,426.26953125
794.43359375,107.421875,94.7265625,369.62890625
695.80078125,-1000.0,-1000.0,334.47265625
871.58203125,-1000.0,-811.03515625,340.8203125
944.3359375,-158.69140625,502.9296875,372.0703125
999.51171875,999.51171875,999.51171875,351.07421875
13.18359375,198.73046875,152.34375,269.04296875
-1000.0,-1000.0,-1000.0,224.609375
-862.79296875,-1000.0,-941.89453125,265.13671875
-72.265625,-215.8203125,309.08203125,312.01171875
44.921875,999.51171875,999.51171875,285.64453125
-846.6796875,481.4453125,207.03125,218.75
-815.91796875,-886.71875,-1000.0,166.9921875
-112.3046875,-1000.0,-1000.0,170.8984375
507.8125,-235.3515625,-30.76171875,216.796875
789.0625,999.51171875,999.51171875,243.65234375
644.04296875,641.6015625,268.06640625,194.3359375
449.70703125,-745.60546875,-980.95703125,107.421875
662.109375,-1000.0,-1000.0,119.62890625
651.3671875,-214.84375,-166.50390625,184.08203125
354.4921875,999.51171875,999.51171875,182.12890625
307.6171875,789.0625,432.12890625,126.46484375
103.515625,-562.98828125,-894.53125,67.3828125
297.8515625,-1000.0,-1000.0,75.1953125
766.11328125,-195.3125,-205.078125,139.6484375
993.65234375,999.51171875,999.51171875,171.38671875
863.76953125,812.5,601.5625,92.28515625
593.26171875,-497.0703125,-747.0703125,-1.46484375
583.984375,-1000.0,-1000.0,15.625
843.75,-418.9453125,-229.4921875,84.9609375
981.93359375,874.0234375,999.51171875,125.48828125
929.19921875,999.51171875,881.34765625,99.12109375
668.9453125,28.3203125,-388.671875,52.734375
544.921875,-1000.0,-1000.0,25.87890625
799.8046875,-578.125,-292.96875,65.4296875
987.79296875,777.34375,962.890625,106.93359375
896.97265625,999.51171875,999.51171875,51.26953125
586.42578125,172.36328125,-101.5625,-7.32421875
440.4296875,-1000.0,-1000.0,-8.7890625
694.3359375,-889.6484375,-437.01171875,43.9453125
943.84765625,432.12890625,871.58203125,79.58984375
839.35546875,999.51171875,999.51171875,43.45703125
508.7890625,152.83203125,82.03125,-1.953125
330.078125,-1000.0,-1000.0,-27.83203125
537.109375,-1000.0,-633.30078125,8.30078125
816.40625,212.890625,715.8203125,56.640625
759.27734375,999.51171875,999.51171875,28.3203125
462.40234375,586.42578125,164.55078125,-37.109375
229.98046875,-758.30078125,-1000.0,-62.01171875
370.60546875,-1000.0,-866.69921875,-25.87890625
700.1953125,-38.57421875,441.89453125,42.48046875
701.66015625,999.51171875,999.51171875,50.29296875
399.90234375,347.16796875,173.33984375,-24.4140625
148.92578125,-947.265625,-1000.0,-51.26953125
263.18359375,-1000.0,-997.55859375,-2.44140625
614.2578125,-189.453125,210.44921875,45.8984375
658.69140625,999.51171875,999.51171875,43.45703125
349.609375,451.171875,250.0,-7.8125
93.75,-906.73828125,-1000.0,-36.62109375
183.59375,-1000.0,-1000.0,-15.13671875
491.69921875,-215.8203125,61.5234375,35.15625
563.4765625,999.51171875,999.51171875,42.48046875
314.453125,489.2578125,362.3046875,-45.8984375
42.48046875,-885.7421875,-924.31640625,-122.0703125
79.1015625,-1000.0,-1000.0,-153.3203125
423.828125,-205.56640625,-148.4375,-132.8125
557.12890625,999.51171875,999.51171875,-71.77734375
308.59375,935.05859375,633.30078125,-105.95703125
75.68359375,-317.3828125,-711.42578125,-185.546875
-217.28515625,-1000.0,-1000.0,-216.796875
-72.265625,-318.359375,-194.3359375,-164.55078125
78.125,971.6796875,999.51171875,-132.32421875
-251.46484375,999.51171875,821.2890625,-194.82421875
