TP9,AF7,AF8,TP10
-152.34375,-898.92578125,-810.05859375,20.01953125
202.63671875,405.76171875,513.671875,67.87109375
189.453125,999.51171875,999.51171875,82.51953125
-131.8359375,323.2421875,170.8984375,31.73828125
-361.81640625,-966.796875,-1000.0,-20.5078125
-177.24609375,-1000.0,-984.375,21.484375
195.3125,108.3984375,228.515625,104.00390625
187.5,999.51171875,999.51171875,91.30859375
-94.23828125,722.16796875,293.9453125,28.80859375
-327.63671875,-575.1953125,-962.40234375,-6.8359375
-257.32421875,-1000.0,-1000.0,-2.9296875
125.0,-200.68359375,-62.5,58.10546875
242.67578125,999.51171875,999.51171875,79.58984375
-21.97265625,885.25390625,426.7578125,28.80859375
-295.8984375,-417.48046875,-888.18359375,-26.85546875
-278.80859375,-1000.0,-1000.0,-3.41796875
87.40234375,-211.42578125,-172.36328125,64.453125
249.51171875,999.51171875,999.51171875,66.89453125
-13.18359375,927.734375,623.046875,16.6015625
-308.59375,-327.1484375,-722.16796875,-41.015625
-305.6640625,-1000.0,-1000.0,-31.25
59.5703125,-357.421875,-187.01171875,22.4609375
262.6953125,890.13671875,999.51171875,41.9921875
40.52734375,999.51171875,935.05859375,17.08984375
-252.9296875,193.84765625,-290.52734375,-17.578125
-325.1953125,-1000.0,-1000.0,-35.64453125
12.6953125,-430.6640625,-204.58984375,13.18359375
256.8359375,905.76171875,999.51171875,58.59375
65.4296875,999.51171875,999.51171875,12.6953125
-236.81640625,201.171875,-107.421875,-57.6171875
-348.14453125,-1000.0,-1000.0,-73.73046875
-11.23046875,-771.97265625,-282.71484375,35.64453125
278.80859375,600.5859375,982.91015625,65.91796875
102.5390625,999.51171875,999.51171875,-8.30078125
-221.19140625,162.109375,-90.8203125,-41.015625
-351.5625,-1000.0,-1000.0,-51.7578125
-60.05859375,-874.0234375,-386.71875,-24.4140625
247.0703125,447.265625,897.4609375,39.55078125
128.41796875,999.51171875,999.51171875,28.80859375
-193.359375,245.60546875,137.6953125,-47.8515625
-349.12109375,-1000.0,-1000.0,-68.359375
-62.01171875,-490.72265625,-478.515625,-11.23046875
269.04296875,884.27734375,859.375,27.34375
155.76171875,999.51171875,999.51171875,4.8828125
-163.0859375,150.87890625,146.97265625,-50.78125
-337.890625,-1000.0,-1000.0,-66.40625
-146.97265625,-1000.0,-839.35546875,-16.6015625
214.35546875,-18.5546875,497.0703125,15.625
187.98828125,999.51171875,999.51171875,-8.7890625
-158.203125,263.671875,79.1015625,-63.4765625
-352.5390625,-928.7109375,-1000.0,-86.9140625
-186.5234375,-1000.0,-980.95703125,-64.94140625
183.59375,-158.203125,222.16796875,-10.7421875
239.74609375,999.51171875,999.51171875,4.8828125
-64.94140625,941.89453125,346.6796875,-54.6875
-307.12890625,-307.12890625,-945.3125,-76.171875
-208.984375,-1000.0,-1000.0,-69.3359375
124.0234375,-204.1015625,0.9765625,-136.71875
222.16796875,999.51171875,999.51171875,-156.25
-37.59765625,860.83984375,440.91796875,-132.32421875
-297.8515625,-458.984375,-875.0,-125.9765625
-255.859375,-1000.0,-1000.0,-86.9140625
133.7890625,-154.296875,-135.7421875,-10.25390625
284.66796875,965.8203125,999.51171875,13.18359375
29.296875,999.51171875,643.06640625,-31.25
-274.90234375,217.7734375,-691.89453125,-58.10546875
-307.12890625,-1000.0,-1000.0,-41.015625
77.1484375,-378.41796875,-192.3828125,0.9765625
280.2734375,977.05078125,999.51171875,13.18359375
52.734375,999.51171875,801.26953125,-26.3671875
-250.0,-104.00390625,-503.41796875,-59.5703125
-305.17578125,-1000.0,-1000.0,-199.70703125
25.390625,-608.3984375,-237.79296875,-420.41015625
260.25390625,744.62890625,999.51171875,-344.23828125
77.1484375,999.51171875,960.9375,-362.79296875
-210.44921875,57.6171875,-247.0703125,-548.828125
-314.453125,-1000.0,-1000.0,-587.890625
-18.06640625,-402.83203125,-292.96875,-558.10546875
274.90234375,903.80859375,959.9609375,-489.74609375
122.55859375,999.51171875,999.51171875,-466.796875
-187.98828125,175.78125,-42.48046875,-408.69140625
-312.5,-1000.0,-1000.0,-378.41796875
-47.36328125,-928.7109375,-515.625,-290.52734375
263.18359375,363.76953125,809.5703125,-142.08984375
189.453125,999.51171875,999.51171875,-309.08203125
-171.875,185.05859375,127.44140625,-478.515625
-371.09375,-1000.0,-1000.0,-450.1953125
-134.765625,-1000.0,-691.40625,-452.1484375
220.21484375,125.48828125,654.78515625,-433.10546875
183.59375,999.51171875,999.51171875,-406.73828125
-156.25,313.4765625,172.36328125,-405.2734375
-335.9375,-960.44921875,-1000.0,-361.81640625
-164.0625,-1000.0,-880.859375,-338.8671875
200.68359375,-36.62109375,406.73828125,-328.61328125
227.05078125,999.51171875,999.51171875,-287.59765625
-110.3515625,781.25,251.46484375,-227.5390625
-326.171875,-560.05859375,-1000.0,-172.8515625
-193.84765625,-1000.0,-1000.0,-213.8671875
178.7109375,20.99609375,179.6875,-187.98828125
226.5625,999.51171875,999.51171875,-40.0390625
-61.03515625,959.9609375,347.16796875,54.19921875
-292.96875,-206.0546875,-930.6640625,54.19921875
-263.18359375,-1000.0,-1000.0,9.27734375
119.62890625,-214.35546875,-73.73046875,-84.9609375
247.55859375,999.51171875,999.51171875,-185.546875
-39.55078125,796.875,506.8359375,-208.49609375
-287.59765625,-538.57421875,-818.84765625,-212.40234375
-263.671875,-1000.0,-1000.0,-195.3125
84.9609375,-241.2109375,-183.59375,-185.546875
230.46875,943.84765625,999.51171875,-193.359375
5.37109375,999.51171875,749.51171875,-135.25390625
-247.55859375,109.86328125,-572.75390625,12.20703125
-300.78125,-1000.0,-1000.0,128.90625
79.58984375,-190.4296875,-191.40625,221.6796875
288.57421875,995.1171875,999.51171875,258.7890625
20.99609375,999.51171875,906.73828125,200.1953125
-256.8359375,207.03125,-326.171875,199.70703125
-307.6171875,-1000.0,-1000.0,250.0
-12.20703125,-774.4140625,-306.15234375,121.58203125
239.2578125,592.28515625,964.35546875,68.359375
92.7734375,999.51171875,999.51171875,149.90234375
-208.984375,181.640625,-125.48828125,143.06640625
-320.3125,-1000.0,-1000.0,163.0859375
-43.45703125,-770.01953125,-412.59765625,221.19140625
222.16796875,584.47265625,876.953125,254.39453125
118.1640625,999.51171875,999.51171875,231.4453125
-189.94140625,310.05859375,122.0703125,184.08203125
-376.953125,-1000.0,-1000.0,180.6640625
-130.859375,-981.4453125,-611.328125,217.28515625
208.0078125,328.125,742.67578125,253.41796875
138.671875,999.51171875,999.51171875,215.8203125
-179.6875,167.48046875,142.08984375,10.25390625
-351.07421875,-1000.0,-1000.0,-241.69921875
-166.9921875,-1000.0,-860.83984375,-314.94140625
167.48046875,-134.27734375,438.96484375,-312.5
180.17578125,999.51171875,999.51171875,-269.53125
-128.90625,377.9296875,170.8984375,-162.109375
-342.7734375,-937.01171875,-1000.0,-70.3125
-181.15234375,-1000.0,-1000.0,46.38671875
186.03515625,-198.73046875,162.109375,149.4140625
206.0546875,999.51171875,999.51171875,155.76171875
-92.7734375,799.8046875,278.80859375,126.953125
-303.22265625,-542.48046875,-989.2578125,106.4453125
-226.5625,-1000.0,-1000.0,145.99609375
152.34375,-159.1796875,31.25,208.984375
255.37109375,999.51171875,999.51171875,189.94140625
-26.3671875,966.30859375,452.1484375,133.30078125
-280.76171875,-270.5078125,-863.28125,95.703125
-273.4375,-1000.0,-1000.0,86.42578125
100.09765625,-187.01171875,-120.1171875,150.390625
282.2265625,999.51171875,999.51171875,165.0390625
-19.53125,990.72265625,645.99609375,81.0546875
-314.453125,-223.14453125,-687.98828125,29.296875
-310.546875,-1000.0,-1000.0,52.24609375
52.24609375,-169.921875,-195.3125,122.55859375
245.1171875,972.16796875,999.51171875,129.39453125
-6.34765625,999.51171875,846.6796875,63.4765625
-285.15625,206.54296875,-429.6875,21.484375
-343.26171875,-1000.0,-1000.0,7.32421875
-15.13671875,-569.3359375,-227.5390625,69.82421875
236.328125,813.96484375,981.93359375,105.46875
69.3359375,999.51171875,999.51171875,56.15234375
-219.7265625,186.03515625,-58.10546875,-15.13671875
-315.91796875,-1000.0,-1000.0,-55.17578125
-29.296875,-823.2421875,-341.796875,-5.37109375
254.39453125,529.78515625,934.08203125,50.29296875
111.328125,999.51171875,999.51171875,39.55078125
-228.515625,149.4140625,56.640625,-4.8828125
-352.5390625,-1000.0,-1000.0,-12.6953125
-79.1015625,-1000.0,-575.1953125,23.92578125
242.1875,162.59765625,766.6015625,64.94140625
164.55078125,999.51171875,999.51171875,51.7578125
-152.34375,324.21875,142.578125,8.30078125
-353.02734375,-1000.0,-1000.0,-34.66796875
-108.3984375,-634.765625,-651.85546875,1.46484375
251.46484375,775.87890625,703.61328125,65.4296875
150.87890625,999.51171875,999.51171875,48.828125
-161.62109375,241.69921875,141.11328125,2.9296875
-343.26171875,-956.54296875,-1000.0,-24.4140625
-169.43359375,-1000.0,-985.83984375,-5.859375
208.984375,-209.9609375,220.703125,57.12890625
218.75,999.51171875,999.51171875,64.453125
-99.12109375,477.05078125,197.265625,-6.8359375
-317.87109375,-933.59375,-1000.0,-30.76171875
-226.5625,-1000.0,-1000.0,-21.97265625
152.34375,76.171875,93.75,25.390625
231.93359375,999.51171875,999.51171875,47.8515625
-68.359375,780.2734375,312.5,-14.6484375
-307.12890625,-500.9765625,-949.70703125,-69.3359375
-257.8125,-1000.0,-1000.0,-39.0625
114.2578125,-187.5,-136.23046875,37.59765625
252.9296875,999.51171875,999.51171875,36.1328125
-9.765625,975.5859375,548.33984375,-33.69140625
-294.921875,-252.9296875,-792.96875,-66.40625
-288.57421875,-1000.0,-1000.0,-26.85546875
90.33203125,-212.890625,-178.22265625,42.96875
262.20703125,952.1484375,999.51171875,64.453125
33.69140625,999.51171875,875.48828125,-1.953125
-257.8125,217.7734375,-394.53125,-65.4296875
-309.5703125,-1000.0,-1000.0,-45.8984375
58.10546875,-204.1015625,-187.01171875,14.16015625
263.671875,999.51171875,999.51171875,25.390625
41.9921875,999.51171875,942.87109375,-26.85546875
-252.44140625,223.6328125,-254.8828125,-70.3125
-322.75390625,-1000.0,-1000.0,-55.6640625
24.4140625,-725.09765625,-293.45703125,-6.8359375
278.3203125,655.76171875,958.984375,49.8046875
73.2421875,999.51171875,999.51171875,20.01953125
-247.55859375,167.48046875,-37.59765625,-60.546875
-346.6796875,-1000.0,-1000.0,-65.91796875
-63.96484375,-929.19921875,-432.6171875,-9.27734375
227.5390625,371.09375,878.90625,25.87890625
104.4921875,999.51171875,999.51171875,-10.7421875
-202.1484375,146.484375,69.82421875,-75.68359375
-325.68359375,-1000.0,-1000.0,-103.515625
-114.2578125,-1000.0,-669.43359375,-49.31640625
204.58984375,130.37109375,669.921875,-102.05078125
138.671875,999.51171875,999.51171875,-416.50390625
-172.36328125,605.95703125,148.92578125,-468.26171875
-308.10546875,-782.2265625,-1000.0,-315.4296875
-131.8359375,-1000.0,-905.2734375,-244.140625
203.125,141.6015625,376.953125,-168.45703125
205.56640625,999.51171875,999.51171875,-198.73046875
-123.53515625,243.65234375,151.85546875,-453.61328125
-328.61328125,-967.7734375,-1000.0,-597.16796875
-191.40625,-1000.0,-1000.0,-586.9140625
188.4765625,-244.140625,73.73046875,-583.0078125
266.11328125,999.51171875,999.51171875,-554.6875
-68.84765625,744.140625,243.65234375,-538.0859375
-311.03515625,-623.53515625,-985.83984375,-498.046875
-214.84375,-1000.0,-1000.0,-470.703125
153.80859375,-162.109375,-137.6953125,-456.0546875
256.8359375,971.19140625,999.51171875,-423.828125
-11.23046875,999.51171875,452.63671875,-406.73828125
-277.34375,113.76953125,-873.53515625,-372.55859375
-275.87890625,-1000.0,-1000.0,-356.4453125
102.5390625,-305.17578125,-207.03125,-336.42578125
261.71875,986.81640625,999.51171875,-322.265625
-8.7890625,999.51171875,603.02734375,-305.6640625
-255.37109375,-62.5,-745.60546875,-269.53125
-267.08984375,-1000.0,-1000.0,-244.62890625
54.19921875,-284.66796875,-210.44921875,-244.140625
259.765625,974.12109375,999.51171875,-257.32421875
44.43359375,999.51171875,794.43359375,-260.25390625
-254.8828125,-46.875,-515.625,-237.79296875
-312.5,-1000.0,-1000.0,-200.1953125
20.5078125,-479.00390625,-228.02734375,-192.3828125
274.4140625,843.26171875,981.4453125,-179.19921875
97.16796875,999.51171875,999.51171875,-154.296875
-210.9375,197.75390625,-68.84765625,-160.64453125
-336.9140625,-1000.0,-1000.0,-150.390625
-59.08203125,-728.02734375,-349.12109375,-147.94921875
237.79296875,631.34765625,924.8046875,-141.11328125
113.76953125,999.51171875,999.51171875,-122.55859375
-180.17578125,376.953125,85.44921875,-123.53515625
-321.2890625,-1000.0,-1000.0,-100.09765625
-79.1015625,-925.29296875,-547.8515625,-107.91015625
235.3515625,448.2421875,796.38671875,-120.60546875
162.109375,999.51171875,999.51171875,-97.65625
-168.9453125,161.62109375,139.16015625,-94.23828125
-345.703125,-1000.0,-1000.0,-98.6328125
-129.39453125,-1000.0,-803.22265625,-91.796875
198.2421875,27.34375,522.4609375,-90.8203125
176.26953125,999.51171875,999.51171875,-96.19140625
-144.04296875,340.33203125,144.53125,-101.5625
-350.09765625,-937.98828125,-1000.0,-87.890625
-171.875,-1000.0,-1000.0,-60.546875
196.2890625,-138.671875,180.17578125,-53.7109375
211.42578125,993.65234375,999.51171875,-51.26953125
-77.1484375,999.51171875,242.67578125,-68.359375
-302.24609375,28.80859375,-993.65234375,-72.265625
-225.09765625,-1000.0,-1000.0,-59.5703125
168.45703125,-229.98046875,-33.69140625,-56.15234375
224.12109375,999.51171875,999.51171875,-72.75390625
-84.47265625,829.58984375,316.40625,-78.61328125
-291.015625,-501.953125,-955.56640625,-47.8515625
-226.5625,-1000.0,-1000.0,-37.59765625
127.44140625,-180.17578125,-178.22265625,-57.6171875
256.8359375,999.51171875,999.51171875,-63.4765625
-0.9765625,999.51171875,509.27734375,-56.640625
-276.3671875,-165.52734375,-832.51953125,-50.78125
-262.6953125,-1000.0,-1000.0,-41.50390625
107.91015625,-209.47265625,-207.51953125,-30.76171875
255.859375,999.51171875,999.51171875,-46.38671875
4.8828125,999.51171875,689.453125,-64.94140625
-248.53515625,-90.33203125,-652.83203125,-49.31640625
-291.50390625,-1000.0,-1000.0,-42.48046875
36.1328125,-396.484375,-219.23828125,-35.64453125
276.3671875,885.25390625,999.51171875,-59.08203125
65.91796875,999.51171875,963.8671875,-65.4296875
-238.28125,208.984375,-229.4921875,-41.015625
-313.96484375,-1000.0,-1000.0,-31.73828125
10.7421875,-582.51953125,-291.50390625,-22.94921875
273.92578125,806.15234375,947.265625,-26.3671875
104.4921875,999.51171875,999.51171875,-37.59765625
-201.66015625,166.015625,45.8984375,-37.109375
-325.1953125,-1000.0,-1000.0,-24.90234375
-50.78125,-988.76953125,-471.6796875,-19.53125
266.6015625,261.71875,854.00390625,-41.9921875
154.296875,999.51171875,999.51171875,-56.15234375
-179.6875,208.984375,130.37109375,-42.96875
-319.82421875,-1000.0,-1000.0,-35.15625
-92.7734375,-985.83984375,-610.3515625,-25.87890625
222.65625,283.69140625,737.3046875,-24.90234375
174.31640625,999.51171875,999.51171875,-24.90234375
-128.90625,819.82421875,181.15234375,-21.97265625
-326.66015625,-498.046875,-1000.0,-15.625
-149.90234375,-1000.0,-868.65234375,-21.97265625
219.23828125,154.296875,436.03515625,-49.31640625
212.40234375,999.51171875,999.51171875,-64.453125
-114.74609375,538.0859375,182.12890625,-56.15234375
-336.9140625,-783.69140625,-1000.0,-36.62109375
-212.890625,-1000.0,-1000.0,-33.203125
143.06640625,-218.26171875,23.4375,-38.0859375
238.28125,999.51171875,999.51171875,-23.92578125
-38.57421875,789.55078125,255.859375,-12.6953125
-296.38671875,-581.0546875,-994.62890625,-28.3203125
-203.61328125,-1000.0,-1000.0,-31.73828125
162.109375,-86.42578125,-69.82421875,29.296875
250.9765625,999.51171875,999.51171875,99.609375
-45.8984375,877.9296875,402.34375,96.6796875
-296.38671875,-398.4375,-902.83203125,109.86328125
-252.9296875,-1000.0,-1000.0,103.515625
104.4921875,-189.94140625,-177.734375,89.35546875
255.859375,999.51171875,999.51171875,80.56640625
13.671875,937.5,622.0703125,43.9453125
-241.69921875,-308.10546875,-721.6796875,16.11328125
-309.5703125,-1000.0,-1000.0,13.18359375
41.50390625,-331.0546875,-199.21875,119.62890625
270.01953125,906.25,999.51171875,201.171875
32.71484375,999.51171875,895.01953125,180.6640625
-249.0234375,170.41015625,-354.98046875,163.57421875
-344.7265625,-1000.0,-1000.0,197.265625
-28.3203125,-532.71484375,-232.421875,178.22265625
240.72265625,842.28515625,982.91015625,-14.6484375
60.546875,999.51171875,999.51171875,-131.8359375
-230.46875,206.54296875,-52.24609375,-131.34765625
-323.73046875,-1000.0,-1000.0,-54.6875
-11.71875,-503.41796875,-304.19921875,64.453125
269.04296875,848.6328125,944.3359375,62.98828125
112.3046875,999.51171875,999.51171875,11.71875
-200.68359375,458.49609375,123.046875,-4.39453125
-349.609375,-892.578125,-1000.0,-67.87109375
-108.88671875,-1000.0,-557.6171875,-79.1015625
204.1015625,85.9375,790.52734375,-90.33203125
126.953125,999.51171875,999.51171875,-121.58203125
-166.9921875,199.70703125,137.6953125,-118.65234375
-339.35546875,-1000.0,-1000.0,-107.421875
-148.92578125,-1000.0,-826.66015625,-81.0546875
197.265625,-22.94921875,485.3515625,-65.4296875
184.08203125,999.51171875,999.51171875,-73.73046875
-131.34765625,527.83203125,175.78125,-99.12109375
-320.3125,-918.45703125,-1000.0,-90.8203125
-171.38671875,-1000.0,-928.22265625,-57.6171875
164.0625,296.875,337.40234375,-62.01171875
198.2421875,999.51171875,999.51171875,-83.49609375
-126.46484375,353.02734375,213.37890625,-102.5390625
-358.3984375,-907.71484375,-1000.0,-70.3125
-226.07421875,-1000.0,-1000.0,-31.73828125
120.1171875,-201.66015625,-5.859375,-20.01953125
209.47265625,999.51171875,999.51171875,-9.765625
-66.40625,999.51171875,397.94921875,-48.828125
-337.40234375,-175.78125,-906.25,-62.98828125
-292.96875,-1000.0,-1000.0,-54.6875
93.75,-199.21875,-124.51171875,-53.7109375
243.1640625,999.51171875,999.51171875,-46.38671875
-26.3671875,939.453125,593.26171875,-59.08203125
-299.31640625,-307.12890625,-746.09375,-56.640625
-298.828125,-1000.0,-1000.0,-45.8984375
74.70703125,-321.2890625,-198.2421875,-43.9453125
260.7421875,934.5703125,999.51171875,-40.0390625
23.4375,999.51171875,779.296875,-50.29296875
-239.74609375,-10.25390625,-534.1796875,-50.29296875
-282.71484375,-1000.0,-1000.0,-29.296875
38.57421875,-546.38671875,-222.65625,-21.97265625
244.140625,779.78515625,999.51171875,-43.9453125
39.55078125,999.51171875,990.234375,-71.2890625
-236.328125,365.234375,-162.109375,-64.453125
-334.9609375,-1000.0,-1000.0,-33.69140625
-32.71484375,-642.08984375,-299.31640625,-28.3203125
254.8828125,790.0390625,959.9609375,-34.66796875
105.46875,999.51171875,999.51171875,-31.73828125
-208.984375,163.57421875,-18.06640625,-26.3671875
-326.66015625,-1000.0,-1000.0,-34.1796875
-57.12890625,-993.1640625,-493.1640625,-32.71484375
243.65234375,257.8125,830.56640625,-32.2265625
143.06640625,999.51171875,999.51171875,-52.24609375
-188.4765625,215.8203125,135.25390625,-56.15234375
-328.61328125,-1000.0,-1000.0,-57.6171875
-93.26171875,-600.09765625,-573.2421875,-38.57421875
230.46875,787.109375,776.85546875,-26.85546875
174.8046875,999.51171875,999.51171875,-44.43359375
-156.25,196.2890625,161.1328125,-73.2421875
-343.26171875,-972.16796875,-1000.0,-60.05859375
-157.71484375,-1000.0,-927.734375,-23.4375
180.6640625,-233.88671875,328.125,-19.53125
207.51953125,999.51171875,999.51171875,-17.08984375
-108.3984375,580.078125,220.703125,-49.8046875
-333.984375,-805.17578125,-1000.0,-85.44921875
-205.078125,-1000.0,-1000.0,-59.5703125
167.48046875,-229.4921875,82.03125,-52.24609375
252.9296875,999.51171875,999.51171875,-55.17578125
-65.91796875,645.5078125,307.6171875,-51.26953125
-308.10546875,-740.72265625,-958.49609375,-64.94140625
-217.7734375,-1000.0,-1000.0,-56.640625
134.27734375,-193.84765625,-106.4453125,-52.24609375
247.55859375,999.51171875,999.51171875,-54.6875
-15.13671875,966.30859375,496.09375,-66.89453125
-265.625,-281.73828125,-833.49609375,-52.734375
-260.7421875,-1000.0,-1000.0,-43.45703125
91.796875,-159.1796875,-185.546875,-28.3203125
259.765625,975.5859375,999.51171875,-42.96875
18.5546875,999.51171875,701.171875,-54.19921875
-246.09375,175.78125,-635.25390625,-39.0625
-284.66796875,-1000.0,-1000.0,-32.71484375
62.5,-350.09765625,-213.37890625,-14.16015625
280.2734375,958.984375,999.51171875,-21.484375
47.36328125,999.51171875,846.6796875,-48.33984375
-243.1640625,51.7578125,-433.10546875,-69.82421875
-299.31640625,-1000.0,-1000.0,-58.10546875
34.66796875,-648.92578125,-308.10546875,-41.015625
271.484375,707.51953125,970.21484375,-25.87890625
91.796875,999.51171875,999.51171875,-39.55078125
-199.21875,194.3359375,-182.6171875,-79.1015625
-322.265625,-1000.0,-1000.0,-67.87109375
-14.16015625,-307.6171875,-340.8203125,-24.4140625
272.94921875,953.125,921.875,-26.85546875
123.046875,999.51171875,999.51171875,-45.8984375
-177.734375,315.91796875,75.68359375,-65.91796875
-335.9375,-970.703125,-1000.0,-53.22265625
-98.6328125,-1000.0,-661.62109375,-33.69140625
231.93359375,30.76171875,678.22265625,-40.0390625
152.83203125,999.51171875,999.51171875,-28.80859375
-181.15234375,196.77734375,141.11328125,-47.36328125
-358.88671875,-1000.0,-1000.0,-67.87109375
-138.18359375,-1000.0,-842.28515625,-43.45703125
207.03125,-56.640625,460.9375,-37.59765625
184.08203125,999.51171875,999.51171875,-49.8046875
-131.8359375,511.71875,203.61328125,-61.03515625
-332.03125,-845.21484375,-1000.0,-65.91796875
-168.45703125,-1000.0,-997.0703125,-44.921875
173.828125,-150.390625,211.42578125,-23.92578125
220.21484375,999.51171875,999.51171875,-39.0625
-58.10546875,725.09765625,304.19921875,-51.26953125
-303.7109375,-629.8828125,-966.796875,-44.43359375
-202.1484375,-1000.0,-1000.0,-32.2265625
156.73828125,-178.22265625,-11.71875,-22.4609375
228.02734375,999.51171875,999.51171875,-45.8984375
-51.26953125,999.51171875,421.875,-68.359375
-281.25,-119.140625,-886.23046875,-50.29296875
-252.44140625,-1000.0,-1000.0,-25.87890625
96.19140625,-203.125,-151.85546875,-12.6953125
263.18359375,999.51171875,999.51171875,-14.6484375
-13.18359375,965.33203125,595.703125,-53.22265625
-296.875,-246.09375,-743.65234375,-62.5
-280.76171875,-1000.0,-1000.0,-36.62109375
79.58984375,-370.1171875,-202.1484375,-23.4375
263.671875,891.11328125,999.51171875,-38.0859375
46.875,999.51171875,860.83984375,-70.3125
-240.234375,159.66796875,-419.43359375,-50.78125
-320.3125,-1000.0,-1000.0,-31.25
26.3671875,-229.98046875,-216.796875,-41.015625
269.53125,999.51171875,999.51171875,-45.41015625
65.91796875,999.51171875,921.875,-55.6640625
-241.2109375,42.48046875,-301.7578125,-54.6875
-327.63671875,-1000.0,-1000.0,-31.25
-19.53125,-698.73046875,-350.09765625,-10.25390625
263.18359375,645.01953125,907.71484375,-19.53125
149.4140625,999.51171875,999.51171875,-41.9921875
-182.12890625,159.1796875,77.1484375,-52.24609375
-367.1875,-1000.0,-1000.0,-58.10546875
-105.46875,-976.5625,-693.359375,-25.87890625
241.2109375,262.6953125,642.578125,-7.8125
169.43359375,999.51171875,999.51171875,-58.59375
-140.13671875,628.90625,153.3203125,-70.3125
-345.703125,-685.05859375,-1000.0,-61.03515625
-176.7578125,-1000.0,-938.96484375,-50.78125
200.68359375,-170.41015625,320.80078125,-41.9921875
214.35546875,999.51171875,999.51171875,-47.36328125
-77.1484375,345.21484375,170.8984375,-54.6875
-314.94140625,-971.19140625,-1000.0,-35.15625
-193.84765625,-1000.0,-1000.0,-12.20703125
182.6171875,-90.33203125,162.59765625,-24.90234375
216.30859375,999.51171875,999.51171875,-34.66796875
-49.31640625,999.51171875,315.4296875,-32.2265625
-285.15625,-26.85546875,-955.078125,-18.5546875
-235.83984375,-1000.0,-1000.0,3.41796875
142.578125,-224.12109375,-61.03515625,38.57421875
247.55859375,999.51171875,999.51171875,44.921875
-26.85546875,829.1015625,481.4453125,20.5078125
-286.1328125,-504.39453125,-848.14453125,15.13671875
-273.4375,-1000.0,-1000.0,7.32421875
100.09765625,-174.8046875,-156.25,-37.109375
259.27734375,997.55859375,999.51171875,-70.3125
18.5546875,999.51171875,737.3046875,-60.05859375
-245.1171875,-93.26171875,-586.9140625,-51.7578125
-308.59375,-1000.0,-1000.0,-20.5078125
65.91796875,-194.82421875,-177.734375,33.203125
300.29296875,999.51171875,999.51171875,44.921875
43.9453125,989.74609375,882.8125,1.953125
-248.046875,-180.17578125,-378.90625,-20.01953125
-322.75390625,-1000.0,-1000.0,7.8125
0.0,-497.55859375,-214.84375,22.94921875
262.20703125,827.63671875,995.1171875,-2.44140625
84.47265625,999.51171875,999.51171875,-33.69140625
-208.984375,123.53515625,-98.14453125,-41.50390625
-314.94140625,-1000.0,-1000.0,-31.73828125
-33.203125,-693.84765625,-330.078125,-11.23046875
249.51171875,661.1328125,922.36328125,-10.7421875
137.6953125,999.51171875,999.51171875,-25.390625
-148.4375,285.64453125,153.3203125,-3.90625
-321.2890625,-1000.0,-1000.0,11.23046875
-94.7265625,-1000.0,-565.4296875,37.109375
232.91015625,200.68359375,789.0625,81.0546875
162.59765625,999.51171875,999.51171875,75.1953125
-130.859375,219.23828125,162.109375,29.78515625
-302.734375,-1000.0,-1000.0,0.48828125
-118.65234375,-999.0234375,-713.37890625,21.97265625
226.5625,244.62890625,634.27734375,53.7109375
197.75390625,999.51171875,999.51171875,64.94140625
-119.62890625,352.05078125,194.82421875,28.3203125
-329.58984375,-924.8046875,-1000.0,-19.04296875
-178.22265625,-1000.0,-893.06640625,-4.39453125
185.05859375,-124.51171875,386.23046875,31.25
231.4453125,999.51171875,999.51171875,29.78515625
-66.40625,523.4375,295.41015625,14.16015625
-339.35546875,-837.890625,-984.375,12.20703125
-229.4921875,-1000.0,-1000.0,50.29296875
147.94921875,-218.26171875,105.46875,119.140625
227.5390625,999.51171875,999.51171875,122.55859375
-57.12890625,742.1875,464.35546875,59.5703125
-319.3359375,-629.39453125,-866.69921875,33.69140625
-259.765625,-1000.0,-1000.0,44.43359375
135.25390625,-166.015625,-22.4609375,100.09765625
258.30078125,999.51171875,999.51171875,99.12109375
-28.80859375,945.3125,671.875,28.3203125
-308.59375,-294.921875,-648.4375,-15.13671875
-299.8046875,-1000.0,-1000.0,-15.13671875
88.37890625,-274.4140625,-167.96875,79.58984375
277.83203125,941.40625,999.51171875,129.39453125
51.26953125,999.51171875,867.1875,45.8984375
-262.20703125,91.30859375,-401.3671875,13.671875
-314.94140625,-1000.0,-1000.0,63.4765625
51.26953125,-490.72265625,-197.265625,129.39453125
271.97265625,855.46875,998.53515625,179.19921875
66.89453125,999.51171875,999.51171875,143.5546875
-227.5390625,208.984375,-86.42578125,76.66015625
-342.28515625,-1000.0,-1000.0,78.61328125
-1.953125,-518.06640625,-274.4140625,120.1171875
282.71484375,860.3515625,967.28515625,169.43359375
93.75,999.51171875,999.51171875,62.01171875
-241.69921875,180.6640625,32.71484375,-89.35546875
-372.55859375,-1000.0,-1000.0,-40.52734375
-101.5625,-843.75,-417.96875,41.015625
195.3125,493.1640625,887.20703125,53.22265625
95.21484375,999.51171875,999.51171875,40.0390625
-223.14453125,189.94140625,167.96875,19.53125
-384.765625,-1000.0,-1000.0,5.859375
-141.11328125,-1000.0,-629.39453125,40.52734375
201.66015625,152.83203125,729.98046875,61.03515625
148.4375,999.51171875,999.51171875,67.3828125
-161.1328125,292.96875,177.734375,35.64453125
-373.53515625,-1000.0,-1000.0,-0.9765625
-167.48046875,-1000.0,-802.734375,28.3203125
216.30859375,156.73828125,518.06640625,93.75
188.96484375,999.51171875,999.51171875,88.8671875
-138.671875,476.07421875,238.76953125,-17.08984375
-379.39453125,-899.90234375,-1000.0,-58.59375
-227.5390625,-1000.0,-997.0703125,14.6484375
182.12890625,121.58203125,228.515625,90.8203125
238.28125,999.51171875,999.51171875,81.54296875
-83.984375,528.80859375,321.77734375,27.34375
-346.19140625,-793.9453125,-948.2421875,-20.5078125
-236.81640625,-1000.0,-1000.0,-7.8125
135.7421875,-211.42578125,-57.6171875,41.015625
234.375,999.51171875,999.51171875,50.78125
-46.38671875,860.3515625,510.7421875,0.48828125
-325.68359375,-461.42578125,-821.2890625,-45.41015625
-291.9921875,-1000.0,-1000.0,-10.7421875
103.02734375,-152.34375,-142.08984375,37.109375
240.234375,967.28515625,999.51171875,44.921875
10.7421875,999.51171875,811.03515625,-17.578125
-249.51171875,209.9609375,-486.328125,-55.6640625
-322.265625,-1000.0,-1000.0,-92.7734375
22.4609375,-546.38671875,-193.84765625,-285.64453125
241.69921875,859.86328125,999.51171875,-360.83984375
49.31640625,999.51171875,908.203125,-276.3671875
-256.8359375,27.34375,-331.54296875,-196.77734375
-354.4921875,-1000.0,-1000.0,-121.58203125
-11.23046875,-487.79296875,-234.86328125,-22.4609375
260.25390625,850.5859375,977.05078125,7.32421875
88.37890625,999.51171875,999.51171875,-21.97265625
-219.7265625,207.51953125,-20.01953125,-41.50390625
-350.5859375,-1000.0,-1000.0,-31.25
-41.015625,-423.33984375,-312.98828125,3.41796875
260.7421875,912.59765625,945.80078125,45.41015625
93.75,999.51171875,999.51171875,21.97265625
-215.33203125,173.33984375,99.609375,-13.18359375
-357.91015625,-1000.0,-1000.0,-187.5
-115.72265625,-1000.0,-570.80078125,-307.6171875
229.00390625,209.47265625,775.87890625,-137.20703125
170.41015625,999.51171875,999.51171875,-33.203125
-140.13671875,147.94921875,153.3203125,-56.640625
-340.8203125,-1000.0,-1000.0,-60.546875
-167.96875,-1000.0,-781.25,-5.37109375
199.70703125,102.5390625,550.78125,60.05859375
187.5,999.51171875,999.51171875,66.40625
-131.8359375,324.70703125,182.6171875,25.390625
-330.078125,-939.94140625,-1000.0,-13.671875
-186.03515625,-1000.0,-967.7734375,-11.23046875
149.90234375,-176.26953125,263.18359375,-50.78125
184.08203125,999.51171875,999.51171875,-198.2421875
-92.28515625,605.95703125,280.76171875,-178.22265625
-323.2421875,-770.99609375,-979.98046875,-87.40234375
-248.046875,-1000.0,-1000.0,-37.59765625
142.08984375,-172.36328125,18.06640625,25.87890625
244.140625,990.72265625,999.51171875,53.22265625
-45.8984375,999.51171875,546.875,-41.9921875
-329.1015625,-60.546875,-784.1796875,-271.484375
-304.19921875,-1000.0,-1000.0,-423.33984375
87.890625,-263.18359375,-132.32421875,-430.6640625
245.60546875,980.46875,999.51171875,-416.9921875
4.39453125,999.51171875,714.35546875,-392.08984375
-298.33984375,-38.0859375,-615.72265625,-372.55859375
-340.33203125,-1000.0,-1000.0,-353.02734375
64.453125,-331.54296875,-185.546875,-320.80078125
271.484375,946.77734375,999.51171875,-306.15234375
22.4609375,999.51171875,868.65234375,-284.66796875
-254.39453125,23.92578125,-405.2734375,-271.484375
-313.4765625,-1000.0,-1000.0,-263.671875
9.27734375,-497.55859375,-202.63671875,-239.2578125
257.32421875,845.21484375,999.51171875,-236.81640625
72.75390625,999.51171875,999.51171875,-231.93359375
-230.95703125,180.6640625,-131.8359375,-212.40234375
-345.703125,-1000.0,-1000.0,-194.82421875
-44.43359375,-526.85546875,-284.66796875,-173.33984375
257.32421875,833.49609375,946.77734375,-179.19921875
116.69921875,999.51171875,999.51171875,-182.6171875
-194.82421875,417.96875,109.86328125,-179.6875
-353.02734375,-1000.0,-1000.0,-166.50390625
-101.5625,-863.76953125,-468.75,-140.625
248.046875,549.8046875,863.76953125,-130.859375
142.578125,999.51171875,999.51171875,-133.7890625
-185.05859375,137.6953125,137.20703125,-137.20703125
-357.91015625,-1000.0,-1000.0,-113.76953125
-155.2734375,-1000.0,-732.91015625,-113.28125
212.890625,8.30078125,608.88671875,-128.90625
187.98828125,999.51171875,999.51171875,-126.953125
-147.94921875,371.58203125,169.921875,-117.67578125
-337.890625,-943.359375,-1000.0,-97.16796875
-167.96875,-1000.0,-904.78515625,-87.890625
200.1953125,-7.32421875,366.2109375,-104.4921875
214.84375,999.51171875,999.51171875,-92.28515625
-97.65625,994.140625,277.34375,-65.4296875
-312.5,-148.92578125,-990.72265625,-61.03515625
-214.84375,-1000.0,-1000.0,-45.8984375
160.15625,-209.47265625,90.8203125,-41.9921875
225.5859375,999.51171875,999.51171875,-86.42578125
-65.91796875,793.9453125,343.26171875,-91.796875
-332.51953125,-551.7578125,-940.91796875,-66.40625
-259.765625,-1000.0,-1000.0,-75.68359375
138.18359375,-170.8984375,-95.703125,-69.82421875
240.234375,988.76953125,999.51171875,-54.6875
0.0,999.51171875,590.33203125,-47.36328125
-257.8125,-34.66796875,-752.9296875,-58.59375
-296.38671875,-1000.0,-1000.0,-57.6171875
92.7734375,-196.2890625,-135.7421875,-48.828125
263.18359375,999.51171875,999.51171875,-62.98828125
19.53125,999.51171875,787.59765625,-73.2421875
-293.9453125,-139.16015625,-518.06640625,-84.9609375
-350.09765625,-1000.0,-1000.0,-64.453125
45.8984375,-305.17578125,-182.6171875,-45.41015625
263.18359375,922.8515625,999.51171875,-46.875
49.31640625,999.51171875,964.84375,-50.29296875
-227.5390625,221.6796875,-214.35546875,-64.453125
-344.23828125,-1000.0,-1000.0,-60.05859375
-25.87890625,-565.91796875,-252.44140625,-43.45703125
259.765625,824.21875,976.07421875,-55.6640625
106.93359375,999.51171875,999.51171875,-69.3359375
-216.30859375,160.64453125,-16.6015625,-50.78125
-364.74609375,-1000.0,-1000.0,-45.8984375
-73.73046875,-988.76953125,-419.921875,-58.59375
229.00390625,266.6015625,884.27734375,-59.08203125
131.34765625,999.51171875,999.51171875,-75.1953125
-171.875,170.41015625,118.1640625,-65.4296875
-340.33203125,-1000.0,-1000.0,-21.97265625
-89.35546875,-875.48828125,-600.5859375,-22.4609375
229.00390625,424.31640625,749.51171875,-18.5546875
159.66796875,999.51171875,999.51171875,-30.76171875
-137.6953125,516.6015625,162.59765625,-40.0390625
-368.1640625,-808.59375,-1000.0,-46.38671875
-189.453125,-1000.0,-869.62890625,-83.49609375
195.3125,-79.58984375,430.6640625,-73.2421875
202.63671875,999.51171875,999.51171875,-40.0390625
-127.9296875,354.00390625,170.41015625,-46.875
-338.37890625,-954.58984375,-1000.0,-48.33984375
-199.70703125,-1000.0,-1000.0,-31.25
169.43359375,-119.62890625,179.19921875,-27.34375
227.5390625,999.51171875,999.51171875,-37.59765625
-95.703125,798.828125,268.06640625,-27.34375
-327.63671875,-563.4765625,-993.65234375,-25.87890625
-200.68359375,-1000.0,-1000.0,-41.50390625
168.9453125,55.6640625,35.64453125,-46.38671875
221.6796875,999.51171875,999.51171875,-56.15234375
-38.57421875,866.2109375,426.7578125,-39.55078125
-299.8046875,-376.46484375,-873.046875,-33.69140625
-271.484375,-1000.0,-1000.0,-38.57421875
112.79296875,-199.70703125,-170.8984375,-29.78515625
255.859375,999.51171875,999.51171875,-13.671875
-7.8125,999.51171875,673.828125,-48.828125
-273.4375,-140.13671875,-667.48046875,-39.0625
-265.13671875,-1000.0,-1000.0,-13.18359375
83.49609375,-259.765625,-180.6640625,-27.34375
250.48828125,951.66015625,999.51171875,-32.2265625
51.7578125,999.51171875,939.94140625,-32.2265625
-227.05078125,135.25390625,-284.66796875,-22.4609375
-335.9375,-1000.0,-1000.0,-9.27734375
19.04296875,-402.34375,-208.984375,-11.71875
279.296875,917.96875,999.51171875,-29.296875
86.9140625,999.51171875,999.51171875,-59.5703125
-234.86328125,132.32421875,-135.25390625,-62.98828125
-356.4453125,-1000.0,-1000.0,-36.1328125
-40.0390625,-778.3203125,-353.515625,-34.1796875
260.7421875,543.9453125,915.52734375,-33.203125
120.1171875,999.51171875,999.51171875,-46.875
-179.19921875,528.80859375,96.19140625,-65.4296875
-354.4921875,-843.75,-1000.0,-62.01171875
-150.390625,-1000.0,-589.84375,-57.12890625
221.19140625,176.7578125,761.71875,-45.41015625
163.57421875,999.51171875,999.51171875,-74.70703125
-181.15234375,210.9375,143.5546875,-64.94140625
-355.46875,-1000.0,-1000.0,-18.06640625
-120.60546875,-1000.0,-733.88671875,-35.64453125
213.37890625,160.64453125,610.83984375,23.92578125
177.734375,999.51171875,999.51171875,96.6796875
-124.51171875,431.15234375,168.45703125,104.00390625
-341.30859375,-1000.0,-1000.0,137.20703125
-171.875,-870.60546875,-870.1171875,185.546875
198.73046875,514.6484375,423.828125,238.76953125
206.54296875,999.51171875,999.51171875,244.62890625
-103.02734375,486.328125,216.30859375,197.265625
-347.16796875,-825.1953125,-1000.0,162.59765625
-240.234375,-1000.0,-1000.0,188.96484375
144.53125,-138.671875,72.265625,237.79296875
238.76953125,999.51171875,999.51171875,222.16796875
-38.57421875,724.12109375,377.9296875,160.64453125
-311.5234375,-627.44140625,-919.43359375,126.953125
-262.20703125,-1000.0,-1000.0,145.99609375
135.7421875,-182.12890625,-89.35546875,194.82421875
270.5078125,999.51171875,999.51171875,213.37890625
-8.30078125,999.51171875,646.484375,156.25
-297.8515625,-170.41015625,-687.01171875,88.37890625
-292.96875,-1000.0,-1000.0,107.421875
95.21484375,-233.3984375,-158.69140625,153.80859375
256.8359375,978.02734375,999.51171875,140.13671875
16.11328125,999.51171875,850.09765625,104.98046875
-274.90234375,-13.671875,-427.734375,72.75390625
-338.8671875,-1000.0,-1000.0,72.75390625
42.48046875,-174.31640625,-178.22265625,113.28125
271.97265625,984.86328125,999.51171875,124.51171875
52.734375,999.51171875,979.98046875,86.42578125
-232.91015625,209.47265625,-176.26953125,34.66796875
-349.12109375,-1000.0,-1000.0,17.08984375
-62.01171875,-878.90625,-296.38671875,36.62109375
214.84375,452.63671875,963.37890625,54.6875
94.23828125,999.51171875,999.51171875,43.9453125
-198.2421875,155.76171875,-44.921875,17.578125
-324.21875,-1000.0,-1000.0,5.859375
-63.96484375,-841.796875,-452.1484375,69.3359375
231.4453125,497.55859375,860.3515625,104.00390625
129.39453125,999.51171875,999.51171875,56.640625
-175.29296875,193.359375,121.09375,16.6015625
-317.87109375,-1000.0,-1000.0,-10.25390625
-92.28515625,-580.078125,-567.3828125,17.578125
212.890625,808.10546875,782.2265625,82.51953125
154.78515625,999.51171875,999.51171875,63.4765625
-174.8046875,140.625,160.64453125,2.9296875
-369.62890625,-1000.0,-1000.0,-45.41015625
-159.66796875,-1000.0,-862.79296875,-15.625
187.5,-92.7734375,431.15234375,44.921875
211.42578125,999.51171875,999.51171875,47.8515625
-121.58203125,451.171875,221.19140625,-20.5078125
-375.0,-888.671875,-1000.0,-85.44921875
-224.609375,-1000.0,-1000.0,-44.43359375
146.484375,-215.33203125,188.96484375,-58.10546875
216.30859375,999.51171875,999.51171875,-123.53515625
-59.08203125,687.01171875,357.91015625,-224.12109375
-325.68359375,-687.98828125,-934.5703125,-285.15625
-250.9765625,-1000.0,-1000.0,-203.61328125
107.91015625,-193.84765625,-38.57421875,-82.51953125
219.7265625,999.51171875,999.51171875,-17.08984375
-9.27734375,956.0546875,558.59375,-37.109375
-298.828125,-300.29296875,-776.85546875,-66.89453125
-289.55078125,-1000.0,-1000.0,-39.0625
99.609375,-155.2734375,-141.11328125,6.8359375
252.9296875,969.7265625,999.51171875,7.32421875
27.83203125,999.51171875,828.125,1.46484375
-241.69921875,233.3984375,-451.66015625,-22.4609375
-318.359375,-1000.0,-1000.0,-31.25
18.5546875,-458.984375,-189.453125,36.62109375
249.0234375,897.94921875,999.51171875,61.5234375
74.70703125,999.51171875,935.05859375,35.64453125
-196.2890625,181.640625,-282.2265625,15.625
-294.43359375,-1000.0,-1000.0,-0.9765625
4.39453125,-463.37890625,-227.05078125,34.66796875
267.578125,894.04296875,998.53515625,61.5234375
97.16796875,999.51171875,999.51171875,8.30078125
-211.9140625,150.87890625,-112.79296875,-13.18359375
-347.65625,-1000.0,-1000.0,-43.45703125
-26.3671875,-356.4453125,-324.70703125,3.90625
280.2734375,935.546875,935.05859375,68.84765625
126.46484375,999.51171875,999.51171875,36.1328125
-180.17578125,183.59375,77.1484375,-26.3671875
-337.40234375,-1000.0,-1000.0,-47.36328125
-81.0546875,-984.375,-600.09765625,-8.7890625
255.37109375,276.3671875,743.65234375,73.2421875
176.26953125,999.51171875,999.51171875,-65.4296875
-166.015625,136.23046875,151.3671875,-409.1796875
-357.91015625,-1000.0,-1000.0,-470.703125
-138.18359375,-1000.0,-817.87109375,-428.22265625
208.49609375,-33.203125,500.0,-427.24609375
188.4765625,999.51171875,999.51171875,-405.2734375
-103.515625,395.5078125,187.98828125,-367.1875
-310.05859375,-926.7578125,-1000.0,-347.16796875
-159.66796875,-1000.0,-979.4921875,-331.0546875
207.03125,-116.2109375,246.58203125,-300.78125
237.3046875,999.51171875,999.51171875,-294.921875
-54.19921875,559.08203125,256.8359375,-273.92578125
-305.6640625,-812.5,-991.69921875,-266.11328125
-228.02734375,-1000.0,-1000.0,-192.87109375
167.48046875,-145.5078125,15.625,-24.4140625
261.71875,999.51171875,999.51171875,42.48046875
-15.13671875,847.65625,419.921875,46.875
-294.921875,-461.42578125,-891.11328125,44.43359375
-278.80859375,-1000.0,-1000.0,50.29296875
117.1875,-199.21875,-121.09375,123.53515625
254.8828125,999.51171875,999.51171875,39.0625
2.44140625,880.37109375,611.81640625,-176.7578125
-303.22265625,-409.66796875,-723.6328125,-250.0
-340.33203125,-1000.0,-1000.0,-237.3046875
61.03515625,-300.29296875,-197.75390625,-229.98046875
266.6015625,944.3359375,999.51171875,-239.74609375
22.94921875,999.51171875,845.703125,-252.9296875
-280.2734375,-49.31640625,-444.82421875,-237.3046875
-328.125,-1000.0,-1000.0,-221.19140625
45.41015625,-175.78125,-182.12890625,-225.5859375
269.04296875,989.74609375,999.51171875,-205.56640625
54.19921875,999.51171875,982.91015625,-186.5234375
-242.1875,144.04296875,-168.45703125,-169.43359375
-354.98046875,-1000.0,-1000.0,-158.69140625
-31.25,-759.27734375,-315.4296875,-154.78515625
238.76953125,595.703125,933.10546875,-139.16015625
82.03125,999.51171875,999.51171875,-159.66796875
-204.1015625,181.15234375,91.30859375,-158.69140625
-359.375,-1000.0,-1000.0,-131.34765625
-92.28515625,-800.29296875,-457.51953125,-133.7890625
236.328125,558.59375,864.74609375,-118.65234375
150.87890625,999.51171875,999.51171875,-111.328125
-186.03515625,165.0390625,160.64453125,-112.79296875
-361.81640625,-1000.0,-1000.0,-104.00390625
-135.7421875,-1000.0,-725.09765625,-102.05078125
193.84765625,23.4375,620.60546875,-101.07421875
174.31640625,999.51171875,999.51171875,-90.8203125
-99.609375,567.87109375,178.22265625,-88.8671875
-339.35546875,-798.33984375,-1000.0,-97.16796875
-221.19140625,-1000.0,-938.4765625,-92.7734375
183.59375,-19.53125,323.73046875,-82.51953125
205.078125,999.51171875,999.51171875,-81.54296875
-108.3984375,789.55078125,215.33203125,-91.30859375
-330.078125,-506.34765625,-1000.0,-62.98828125
-228.02734375,-1000.0,-1000.0,-56.15234375
142.578125,-220.21484375,59.08203125,-82.51953125
231.93359375,999.51171875,999.51171875,-72.265625
-61.03515625,628.90625,295.8984375,-62.98828125
-328.125,-760.7421875,-963.8671875,-68.84765625
-270.01953125,-1000.0,-1000.0,-61.5234375
123.046875,-172.36328125,-125.48828125,-56.640625
252.44140625,979.4921875,999.51171875,-74.21875
-10.25390625,999.51171875,606.93359375,-65.91796875
-277.83203125,13.671875,-738.28125,-54.6875
-290.52734375,-1000.0,-1000.0,-52.734375
81.54296875,-183.59375,-162.59765625,-65.91796875
252.44140625,999.51171875,999.51171875,-69.3359375
25.87890625,999.51171875,747.55859375,-69.82421875
-266.6015625,-35.64453125,-571.2890625,-72.265625
-345.21484375,-1000.0,-1000.0,-54.19921875
26.85546875,-464.84375,-214.35546875,-42.96875
267.08984375,872.55859375,999.51171875,-51.26953125
65.4296875,999.51171875,909.1796875,-33.203125
-232.421875,46.38671875,-341.30859375,-25.87890625
-331.54296875,-1000.0,-1000.0,-39.55078125
27.83203125,-410.15625,-206.54296875,-45.41015625
274.4140625,881.8359375,994.140625,-39.0625
51.26953125,999.51171875,999.51171875,-41.50390625
-229.4921875,388.671875,-56.640625,-47.8515625
-339.84375,-1000.0,-1000.0,-49.31640625
-46.875,-910.64453125,-328.61328125,-29.296875
254.8828125,469.7265625,942.87109375,-34.66796875
97.16796875,999.51171875,999.51171875,-55.17578125
-216.796875,165.52734375,48.33984375,-46.38671875
-325.1953125,-1000.0,-1000.0,-26.3671875
-80.078125,-918.9453125,-467.28515625,-28.80859375
226.07421875,388.18359375,855.46875,-66.89453125
164.55078125,999.51171875,999.51171875,-35.15625
-169.43359375,139.16015625,122.0703125,-5.859375
-368.1640625,-1000.0,-1000.0,-31.25
-161.1328125,-1000.0,-878.90625,-48.828125
194.82421875,26.3671875,404.78515625,-46.38671875
183.10546875,999.51171875,999.51171875,-39.0625
-120.60546875,451.171875,171.38671875,-21.484375
-341.796875,-875.48828125,-1000.0,-33.69140625
-217.7734375,-1000.0,-1000.0,-56.640625
150.390625,-207.51953125,108.3984375,-71.77734375
215.33203125,999.51171875,999.51171875,-60.546875
-71.77734375,488.76953125,231.4453125,-39.55078125
-335.9375,-899.90234375,-1000.0,-59.5703125
-241.2109375,-1000.0,-1000.0,-61.03515625
170.8984375,-111.328125,48.828125,-52.734375
240.234375,999.51171875,999.51171875,-63.96484375
-62.5,723.6328125,337.40234375,-54.19921875
-293.45703125,-621.09375,-946.77734375,-35.64453125
-227.05078125,-1000.0,-1000.0,-29.296875
145.99609375,-191.89453125,-100.5859375,-25.87890625
270.5078125,999.51171875,999.51171875,-25.87890625
-15.13671875,956.0546875,526.85546875,-39.55078125
-290.52734375,-299.8046875,-808.59375,-32.71484375
-280.2734375,-1000.0,-1000.0,-9.27734375
110.3515625,-156.25,-156.25,-34.66796875
275.87890625,971.19140625,999.51171875,-66.89453125
-0.48828125,999.51171875,847.16796875,-35.64453125
-285.15625,217.7734375,-425.29296875,-34.1796875
-325.1953125,-1000.0,-1000.0,-38.57421875
50.29296875,-427.734375,-197.265625,-33.69140625
276.3671875,908.69140625,999.51171875,-43.9453125
47.36328125,999.51171875,940.91796875,-31.25
-247.55859375,207.03125,-264.6484375,-36.1328125
-330.078125,-1000.0,-1000.0,-36.62109375
-0.9765625,-578.61328125,-243.65234375,-28.3203125
272.94921875,808.59375,973.6328125,-29.78515625
111.81640625,999.51171875,999.51171875,-25.390625
-199.70703125,167.48046875,3.90625,-38.0859375
-338.37890625,-1000.0,-1000.0,-41.50390625
-48.828125,-979.00390625,-384.765625,-55.17578125
243.65234375,285.64453125,908.69140625,-59.08203125
135.25390625,999.51171875,999.51171875,-56.15234375
-181.15234375,160.15625,123.53515625,-64.94140625
-341.796875,-1000.0,-1000.0,-47.8515625
-84.47265625,-966.30859375,-579.1015625,-31.73828125
232.91015625,289.55078125,770.5078125,-37.59765625
159.66796875,999.51171875,999.51171875,-44.921875
-156.73828125,296.875,167.96875,-37.59765625
-366.2109375,-1000.0,-1000.0,-31.73828125
-152.34375,-937.01171875,-776.85546875,-28.3203125
226.5625,375.9765625,562.01171875,-52.734375
191.89453125,999.51171875,999.51171875,-54.6875
-120.60546875,377.44140625,187.5,-27.34375
-334.9609375,-891.11328125,-1000.0,-36.1328125
-223.6328125,-1000.0,-1000.0,-45.41015625
151.85546875,-217.7734375,92.7734375,-54.6875
228.515625,999.51171875,999.51171875,-48.33984375
-54.19921875,882.8125,414.0625,-36.62109375
-305.17578125,-417.48046875,-893.5546875,-17.08984375
-280.2734375,-1000.0,-1000.0,-27.34375
97.16796875,-155.76171875,-69.3359375,-59.08203125
247.55859375,967.28515625,999.51171875,-62.01171875
0.9765625,999.51171875,752.44140625,-78.125
-256.34765625,208.0078125,-555.17578125,-72.75390625
-317.3828125,-1000.0,-1000.0,-62.01171875
24.4140625,-211.9140625,-163.0859375,-45.8984375
270.01953125,999.51171875,999.51171875,-30.2734375
38.57421875,999.51171875,838.37890625,-60.546875
-273.4375,77.1484375,-444.3359375,-60.05859375
-330.56640625,-1000.0,-1000.0,-40.52734375
39.55078125,-467.28515625,-202.1484375,-32.2265625
278.80859375,869.62890625,999.51171875,-27.83203125
75.68359375,999.51171875,987.79296875,-48.828125
-244.140625,175.29296875,-179.19921875,-51.7578125
-371.58203125,-1000.0,-1000.0,-52.24609375
-27.83203125,-455.078125,-229.98046875,-56.15234375
271.97265625,891.11328125,973.6328125,-29.78515625
78.61328125,999.51171875,999.51171875,-31.73828125
-242.1875,207.03125,67.87109375,-55.6640625
-390.13671875,-1000.0,-1000.0,-62.98828125
-86.9140625,-433.59375,-328.61328125,11.23046875
249.51171875,906.73828125,938.96484375,55.17578125
104.98046875,999.51171875,999.51171875,-21.484375
-200.68359375,172.8515625,163.0859375,-43.9453125
-370.60546875,-1000.0,-1000.0,-29.78515625
-134.27734375,-1000.0,-625.9765625,-5.859375
234.375,208.984375,729.98046875,-2.9296875
184.08203125,999.51171875,999.51171875,-27.34375
-161.1328125,185.546875,165.52734375,-41.50390625
-363.76953125,-1000.0,-1000.0,-33.69140625
-167.96875,-1000.0,-874.51171875,-12.20703125
194.82421875,-9.765625,420.41015625,0.48828125
228.02734375,999.51171875,999.51171875,-24.90234375
-100.5859375,509.27734375,206.0546875,-46.38671875
-343.26171875,-837.40234375,-1000.0,-38.0859375
-204.58984375,-1000.0,-1000.0,-30.2734375
159.1796875,-131.34765625,144.04296875,-39.0625
225.09765625,999.51171875,999.51171875,-17.08984375
-24.90234375,969.23828125,315.91796875,-2.44140625
-285.15625,-241.2109375,-947.265625,-19.04296875
-266.6015625,-1000.0,-1000.0,9.765625
134.27734375,-196.77734375,-123.53515625,30.76171875
260.7421875,999.51171875,999.51171875,-1.953125
-20.01953125,940.91796875,495.1171875,-31.25
-292.48046875,-325.68359375,-841.796875,-44.921875
-265.13671875,-1000.0,-1000.0,-19.04296875
110.83984375,-166.50390625,-167.96875,-21.97265625
236.328125,985.83984375,999.51171875,-53.7109375
13.671875,999.51171875,789.55078125,-53.22265625
-275.390625,40.52734375,-524.90234375,-55.17578125
-338.8671875,-1000.0,-1000.0,-49.31640625
56.15234375,-211.42578125,-176.26953125,-61.03515625
260.25390625,999.51171875,999.51171875,-57.6171875
34.1796875,972.65625,872.55859375,-17.578125
-240.72265625,-223.14453125,-391.11328125,15.13671875
-313.96484375,-1000.0,-1000.0,82.51953125
15.625,-397.94921875,-225.09765625,161.1328125
272.94921875,888.671875,991.2109375,194.82421875
89.35546875,999.51171875,999.51171875,144.04296875
-231.93359375,83.49609375,-96.6796875,-10.7421875
-351.5625,-1000.0,-1000.0,-33.203125
-42.48046875,-693.359375,-363.28125,65.91796875
249.0234375,666.50390625,911.1328125,36.62109375
105.95703125,999.51171875,999.51171875,-77.63671875
-198.2421875,173.828125,113.28125,-103.515625
-361.81640625,-1000.0,-1000.0,-27.83203125
-111.81640625,-872.55859375,-546.38671875,66.40625
228.02734375,458.49609375,800.78125,131.8359375
167.96875,999.51171875,999.51171875,147.94921875
-151.3671875,139.16015625,145.5078125,111.81640625
-363.28125,-1000.0,-1000.0,65.91796875
-165.52734375,-1000.0,-835.44921875,135.7421875
201.171875,60.05859375,473.6328125,200.1953125
189.453125,999.51171875,999.51171875,151.85546875
-98.6328125,849.12109375,194.3359375,100.5859375
-322.75390625,-403.3203125,-1000.0,-6.8359375
-211.9140625,-1000.0,-1000.0,-112.79296875
150.87890625,-212.40234375,152.34375,-35.15625
224.609375,999.51171875,999.51171875,53.22265625
-86.9140625,470.21484375,203.61328125,-0.48828125
-351.5625,-898.92578125,-1000.0,-49.8046875
-253.90625,-1000.0,-1000.0,16.6015625
139.6484375,-217.28515625,-63.4765625,120.60546875
243.1640625,999.51171875,999.51171875,92.28515625
-23.92578125,825.68359375,364.2578125,-4.8828125
-300.29296875,-515.625,-939.94140625,-26.3671875
-262.6953125,-1000.0,-1000.0,29.296875
132.8125,-162.59765625,-119.140625,3.41796875
242.67578125,999.51171875,999.51171875,-173.33984375
-25.87890625,843.75,587.890625,-249.51171875
-286.1328125,-464.35546875,-748.53515625,-213.37890625
-268.5546875,-1000.0,-1000.0,-217.7734375
79.1015625,-220.21484375,-188.4765625,-204.58984375
256.34765625,944.3359375,999.51171875,-177.24609375
41.9921875,999.51171875,845.703125,-203.125
-259.765625,200.1953125,-433.10546875,-203.61328125
-317.3828125,-1000.0,-1000.0,-147.94921875
29.78515625,-435.546875,-208.0078125,-137.6953125
260.25390625,909.1796875,999.51171875,-140.625
94.7265625,999.51171875,979.4921875,-127.9296875
-218.26171875,145.5078125,-186.03515625,-117.67578125
-355.95703125,-1000.0,-1000.0,-51.7578125
-44.43359375,-760.7421875,-313.4765625,53.22265625
263.18359375,598.6328125,945.80078125,112.3046875
110.83984375,999.51171875,999.51171875,81.0546875
-210.9375,187.98828125,11.71875,73.73046875
-339.35546875,-1000.0,-1000.0,72.75390625
-63.96484375,-686.03515625,-443.359375,117.67578125
250.0,677.734375,867.1875,177.24609375
156.25,999.51171875,999.51171875,148.4375
-150.87890625,584.9609375,152.83203125,79.1015625
-345.21484375,-779.296875,-1000.0,63.96484375
-141.6015625,-1000.0,-697.265625,85.9375
213.37890625,113.76953125,651.3671875,109.375
175.29296875,999.51171875,999.51171875,102.05078125
-152.83203125,316.89453125,161.62109375,58.10546875
-364.2578125,-955.078125,-1000.0,20.5078125
-181.15234375,-1000.0,-923.33984375,37.109375
183.10546875,-108.3984375,339.35546875,118.1640625
209.47265625,999.51171875,999.51171875,85.9375
-91.796875,482.421875,218.75,-78.125
-338.37890625,-912.109375,-1000.0,-103.02734375
-212.40234375,-1000.0,-1000.0,-16.6015625
165.0390625,64.94140625,176.7578125,52.24609375
217.7734375,999.51171875,999.51171875,75.68359375
-51.7578125,842.7734375,368.1640625,32.71484375
-298.828125,-413.0859375,-916.9921875,-25.87890625
-244.140625,-1000.0,-1000.0,-7.8125
131.34765625,-191.89453125,-97.16796875,44.43359375
240.72265625,999.51171875,999.51171875,29.296875
-2.9296875,947.265625,513.18359375,-8.7890625
-282.71484375,-315.91796875,-816.40625,-50.78125
-295.8984375,-1000.0,-1000.0,-38.0859375
83.49609375,-189.94140625,-186.03515625,-2.44140625
263.671875,999.51171875,999.51171875,10.25390625
22.4609375,960.44921875,706.54296875,5.859375
-281.25,-267.578125,-630.37109375,-47.36328125
-316.40625,-1000.0,-1000.0,-52.734375
33.69140625,-328.61328125,-205.078125,2.9296875
245.1171875,915.0390625,999.51171875,36.62109375
58.10546875,999.51171875,913.0859375,2.9296875
-237.3046875,121.09375,-323.73046875,-47.8515625
-327.1484375,-1000.0,-1000.0,-34.66796875
-2.44140625,-549.8046875,-293.9453125,27.34375
276.85546875,796.875,951.66015625,40.0390625
132.8125,999.51171875,999.51171875,17.08984375
-170.41015625,442.87109375,-15.625,2.44140625
-336.42578125,-1000.0,-1000.0,-15.625
-103.02734375,-783.69140625,-420.8984375,-19.04296875
239.2578125,658.69140625,891.11328125,22.94921875
150.390625,999.51171875,999.51171875,32.2265625
-184.08203125,176.26953125,96.19140625,-5.37109375
-329.1015625,-1000.0,-1000.0,-17.578125
-83.984375,-883.7890625,-605.46875,12.20703125
214.84375,429.19921875,741.69921875,53.7109375
165.52734375,999.51171875,999.51171875,55.17578125
-121.58203125,283.69140625,167.48046875,-23.4375
-350.5859375,-1000.0,-1000.0,-69.3359375
-169.921875,-909.66796875,-769.53125,5.859375
196.77734375,440.4296875,571.2890625,53.22265625
179.19921875,999.51171875,999.51171875,37.109375
-130.859375,145.01953125,168.45703125,1.953125
-346.19140625,-1000.0,-1000.0,-32.71484375
-202.1484375,-1000.0,-974.609375,-20.01953125
181.640625,-75.1953125,243.65234375,47.8515625
230.95703125,999.51171875,999.51171875,32.71484375
-50.78125,699.70703125,302.24609375,-29.78515625
-315.91796875,-636.71875,-962.890625,-42.96875
-254.39453125,-1000.0,-1000.0,-39.55078125
140.625,-176.26953125,-22.94921875,23.92578125
242.67578125,994.140625,999.51171875,26.85546875
-18.5546875,999.51171875,563.4765625,-27.83203125
-303.22265625,-86.42578125,-770.01953125,-50.29296875
-291.015625,-1000.0,-1000.0,-40.0390625
119.62890625,-212.40234375,-151.3671875,24.90234375
270.5078125,999.51171875,999.51171875,27.34375
10.7421875,999.51171875,670.41015625,-33.203125
-258.30078125,-111.81640625,-668.45703125,-28.80859375
-279.296875,-1000.0,-1000.0,-27.83203125
75.68359375,-202.63671875,-196.77734375,2.9296875
280.76171875,969.23828125,999.51171875,38.0859375
51.26953125,999.51171875,820.3125,-6.8359375
-260.25390625,195.80078125,-464.84375,-69.82421875
-332.03125,-1000.0,-1000.0,-76.66015625
-0.9765625,-641.6015625,-267.578125,-8.30078125
261.23046875,762.20703125,999.51171875,48.828125
81.0546875,999.51171875,940.91796875,-8.7890625
-232.421875,62.98828125,-280.76171875,-66.40625
-326.66015625,-1000.0,-1000.0,-58.59375
-46.38671875,-748.53515625,-393.06640625,-11.71875
240.72265625,597.65625,903.80859375,68.359375
110.3515625,999.51171875,999.51171875,-101.07421875
-223.6328125,195.80078125,-9.27734375,-348.6328125
-342.7734375,-1000.0,-1000.0,-269.53125
-37.109375,-471.19140625,-484.86328125,-103.515625
252.9296875,886.71875,840.33203125,-185.546875
140.625,999.51171875,999.51171875,-403.80859375
-174.8046875,162.109375,124.0234375,-409.1796875
-367.1875,-1000.0,-1000.0,-384.27734375
-142.578125,-1000.0,-795.41015625,-361.81640625
200.1953125,99.609375,528.80859375,-351.07421875
192.87109375,999.51171875,999.51171875,-342.7734375
-111.328125,374.0234375,154.78515625,-317.3828125
-338.8671875,-947.75390625,-1000.0,-286.62109375
-171.875,-1000.0,-935.546875,-269.04296875
215.33203125,38.0859375,316.89453125,-272.4609375
243.1640625,999.51171875,999.51171875,-268.5546875
-88.37890625,458.984375,224.12109375,-270.99609375
-346.6796875,-868.65234375,-1000.0,-226.07421875
-234.375,-1000.0,-1000.0,-192.87109375
161.62109375,-208.984375,40.0390625,-210.9375
247.55859375,999.51171875,999.51171875,-208.49609375
-28.80859375,811.03515625,366.69921875,-180.17578125
-296.875,-529.78515625,-927.24609375,-144.53125
-240.72265625,-1000.0,-1000.0,-135.25390625
146.484375,-154.78515625,-116.2109375,-154.296875
269.04296875,975.5859375,999.51171875,-166.50390625
-16.11328125,999.51171875,575.68359375,-153.80859375
-312.01171875,105.95703125,-759.27734375,-144.53125
-314.453125,-1000.0,-1000.0,-148.92578125
74.70703125,-224.12109375,-189.453125,-145.01953125
287.109375,999.51171875,999.51171875,-125.48828125
41.9921875,999.51171875,802.24609375,-118.65234375
-266.11328125,51.26953125,-504.8828125,-117.1875
-323.73046875,-1000.0,-1000.0,-102.5390625
22.4609375,-437.5,-215.8203125,-106.93359375
252.44140625,884.27734375,999.51171875,-100.09765625
62.01171875,999.51171875,950.1953125,-94.7265625
-219.7265625,168.9453125,-262.20703125,-122.0703125
-334.9609375,-1000.0,-1000.0,-102.5390625
-19.04296875,-352.05078125,-284.1796875,-77.63671875
280.76171875,941.40625,967.7734375,-86.9140625
122.0703125,999.51171875,999.51171875,-91.796875
-200.1953125,180.17578125,-72.75390625,-61.03515625
-349.609375,-1000.0,-1000.0,-57.12890625
-69.82421875,-923.33984375,-499.51171875,-84.9609375
261.71875,375.0,827.1484375,-71.2890625
157.71484375,999.51171875,999.51171875,-68.359375
-157.71484375,145.99609375,83.984375,-58.59375
-330.078125,-1000.0,-1000.0,-40.52734375
-123.53515625,-1000.0,-713.37890625,-75.68359375
223.6328125,118.1640625,624.51171875,-32.71484375
177.734375,999.51171875,999.51171875,32.2265625
-152.34375,359.375,156.73828125,39.0625
-340.8203125,-1000.0,-1000.0,68.84765625
-145.99609375,-924.8046875,-843.26171875,141.6015625
215.8203125,409.1796875,466.796875,219.7265625
214.84375,999.51171875,999.51171875,223.14453125
-98.14453125,439.453125,176.7578125,191.89453125
-334.47265625,-857.91015625,-1000.0,142.578125
-202.63671875,-1000.0,-1000.0,146.484375
176.7578125,-195.80078125,96.19140625,201.66015625
233.88671875,999.51171875,999.51171875,181.640625
-58.59375,769.53125,311.5234375,135.7421875
-302.24609375,-577.63671875,-969.23828125,101.5625
-261.71875,-1000.0,-1000.0,91.30859375
105.95703125,-187.98828125,-16.11328125,126.953125
231.93359375,999.51171875,999.51171875,133.7890625
-41.9921875,978.02734375,543.9453125,78.125
-310.05859375,-253.41796875,-791.50390625,40.52734375
-286.1328125,-1000.0,-1000.0,35.15625
94.23828125,-177.734375,-117.67578125,17.578125
263.18359375,999.51171875,999.51171875,-36.1328125
7.32421875,999.51171875,746.58203125,-54.19921875
-283.69140625,-89.35546875,-571.2890625,-19.53125
-310.546875,-1000.0,-1000.0,17.578125
59.5703125,-188.96484375,-187.5,4.39453125
269.53125,999.51171875,999.51171875,-50.78125
33.69140625,999.51171875,838.37890625,-82.03125
-251.953125,-99.609375,-442.3828125,-33.203125
-298.828125,-1000.0,-1000.0,13.671875
3.90625,-472.65625,-248.53515625,6.8359375
255.859375,841.30859375,991.2109375,-55.17578125
92.7734375,999.51171875,-1000.0,-107.421875
-214.35546875,197.75390625,-816.40625,-53.7109375
-332.03125,-1000.0,499.51171875,9.27734375
-19.53125,-644.04296875,999.51171875,-12.6953125
282.2265625,746.58203125,182.6171875,-46.875
119.62890625,999.51171875,-1000.0,-45.8984375
-194.3359375,163.0859375,-889.16015625,-14.16015625
-348.14453125,-1000.0,394.04296875,-16.6015625
-96.6796875,-983.3984375,999.51171875,-32.71484375
249.51171875,270.5078125,245.1171875,-63.96484375
187.5,999.51171875,-994.140625,-89.84375
-155.2734375,194.82421875,-1000.0,-55.17578125
145.5078125,-1000.0,33.203125,-13.18359375
215.8203125,-1000.0,999.51171875,-19.53125
-46.38671875,-2.9296875,444.3359375,-49.8046875
-290.0390625,999.51171875,-888.671875,-79.58984375
-244.62890625,308.59375,-1000.0,-59.5703125
123.53515625,-996.58203125,-19.04296875,-8.30078125
245.1171875,-1000.0,999.51171875,-42.96875
-29.296875,73.2421875,609.86328125,-62.01171875
-307.6171875,999.51171875,-707.03125,-65.4296875
-310.05859375,409.66796875,-1000.0,-60.546875
47.8515625,-891.6015625,-190.4296875,-21.97265625
265.625,-1000.0,999.51171875,-9.765625
58.59375,-214.84375,832.51953125,-57.6171875
-261.71875,999.51171875,-453.61328125,-80.56640625
-328.61328125,916.015625,-1000.0,-95.703125
26.85546875,-423.33984375,-213.8671875,-50.29296875
260.7421875,-1000.0,999.51171875,2.9296875
62.01171875,87.40234375,975.5859375,-50.29296875
-229.00390625,999.51171875,-198.73046875,-102.05078125
-343.26171875,983.3984375,-1000.0,-86.42578125
-16.11328125,-96.19140625,-313.4765625,-49.8046875
282.2265625,-1000.0,947.75390625,-22.94921875
119.140625,-381.34765625,999.51171875,-62.98828125
-178.7109375,900.390625,0.9765625,-125.48828125
-337.890625,999.51171875,-1000.0,-136.71875
-99.609375,130.859375,-499.51171875,-89.35546875
249.51171875,-1000.0,828.61328125,-39.0625
166.015625,-477.05078125,999.51171875,-71.77734375
-161.62109375,870.60546875,136.23046875,-118.1640625
-328.125,999.51171875,-1000.0,-118.1640625
-106.4453125,210.44921875,-699.70703125,-71.2890625
216.30859375,-1000.0,647.4609375,-31.25
207.03125,-467.7734375,999.51171875,-42.96875
-106.93359375,870.60546875,163.0859375,-84.9609375
-336.9140625,999.51171875,-1000.0,-126.953125
-159.66796875,427.734375,-880.37109375,-88.8671875
201.66015625,-950.68359375,407.71484375,-11.23046875
214.84375,-1000.0,999.51171875,-36.1328125
-65.91796875,264.16015625,266.11328125,-96.6796875
-310.546875,999.51171875,-1000.0,-106.93359375
-197.75390625,154.296875,-1000.0,-77.1484375
184.08203125,-1000.0,184.08203125,-26.3671875
244.140625,-1000.0,999.51171875,-23.92578125
-54.6875,-77.1484375,310.546875,-65.4296875
-314.94140625,999.51171875,-959.9609375,-90.33203125
-230.46875,275.87890625,-1000.0,-69.82421875
147.4609375,-1000.0,-39.0625,-16.11328125
259.765625,-1000.0,999.51171875,-23.92578125
-6.8359375,999.51171875,555.17578125,-65.91796875
-299.31640625,-164.55078125,-777.34375,-92.7734375
-298.828125,-1000.0,-1000.0,-79.58984375
90.8203125,-161.1328125,-158.203125,-21.484375
274.90234375,975.5859375,999.51171875,-25.390625
57.6171875,999.51171875,792.96875,-67.3828125
-238.76953125,228.515625,-511.23046875,-75.1953125
-325.68359375,-1000.0,-1000.0,-62.01171875
40.52734375,-326.171875,-192.87109375,-20.99609375
272.4609375,977.05078125,999.51171875,-2.9296875
56.15234375,999.51171875,905.2734375,-54.6875
-243.1640625,49.8046875,-334.9609375,-97.65625
-335.44921875,-1000.0,-1000.0,-94.7265625
-4.39453125,-599.12109375,-260.7421875,-48.828125
261.23046875,762.20703125,982.91015625,-6.34765625
91.796875,999.51171875,999.51171875,-33.203125
-216.30859375,145.01953125,-117.1875,-79.1015625
-314.94140625,-1000.0,-1000.0,-51.7578125
-17.08984375,-768.5546875,-374.0234375,-20.01953125
249.0234375,591.796875,907.2265625,-13.671875
95.703125,999.51171875,999.51171875,-33.203125
-219.23828125,152.83203125,91.30859375,-68.359375
-358.3984375,-1000.0,-1000.0,-47.36328125
-93.75,-1000.0,-602.05078125,8.30078125
233.3984375,190.4296875,744.140625,63.4765625
141.11328125,999.51171875,999.51171875,62.5
-164.55078125,396.484375,164.0625,34.1796875
-345.21484375,-1000.0,-1000.0,16.11328125
-143.5546875,-877.44140625,-752.44140625,53.22265625
200.1953125,507.32421875,595.703125,132.8125
166.015625,999.51171875,999.51171875,126.46484375
-138.18359375,278.3203125,154.78515625,66.40625
-354.98046875,-939.94140625,-1000.0,18.06640625
-213.8671875,-1000.0,-1000.0,55.17578125
181.15234375,-217.7734375,146.484375,129.39453125
250.0,999.51171875,999.51171875,123.046875
-70.3125,541.9921875,221.6796875,51.26953125
-338.8671875,-836.9140625,-997.0703125,9.27734375
-240.72265625,-1000.0,-1000.0,45.8984375
123.53515625,-164.0625,-82.51953125,98.6328125
238.76953125,959.47265625,999.51171875,91.796875
-3.90625,999.51171875,479.98046875,53.7109375
-289.55078125,214.84375,-849.12109375,17.08984375
-271.97265625,-1000.0,-1000.0,6.34765625
123.53515625,-252.44140625,-170.41015625,67.87109375
269.04296875,999.51171875,999.51171875,77.63671875
-0.9765625,843.75,552.734375,34.66796875
-287.109375,-466.796875,-793.9453125,0.0
-299.8046875,-1000.0,-1000.0,-20.5078125
77.1484375,-222.65625,-197.75390625,43.45703125
279.296875,958.49609375,999.51171875,58.59375
27.83203125,999.51171875,854.98046875,-3.41796875
-283.203125,71.2890625,-421.875,-23.4375
-333.0078125,-1000.0,-1000.0,-27.34375
28.3203125,-601.5625,-223.14453125,18.5546875
273.4375,767.578125,999.51171875,61.5234375
91.796875,999.51171875,981.93359375,15.625
-215.33203125,119.62890625,-191.89453125,-30.2734375
-350.5859375,-1000.0,-1000.0,-52.734375
-41.9921875,-637.20703125,-305.6640625,-6.8359375
266.11328125,737.79296875,944.3359375,60.05859375
118.1640625,999.51171875,999.51171875,29.296875
-202.1484375,181.640625,37.109375,-22.4609375
-341.30859375,-1000.0,-1000.0,-57.12890625
-70.80078125,-819.82421875,-484.375,-20.01953125
250.48828125,518.5546875,838.37890625,45.8984375
153.3203125,999.51171875,999.51171875,-0.48828125
-150.390625,271.97265625,169.921875,-66.89453125
-350.09765625,-975.5859375,-1000.0,-47.8515625
-156.73828125,-1000.0,-739.74609375,-23.4375
200.68359375,30.2734375,611.328125,25.390625
176.26953125,999.51171875,999.51171875,39.0625
-141.11328125,238.76953125,156.25,-46.38671875
-338.8671875,-1000.0,-1000.0,-87.890625
-164.0625,-1000.0,-914.0625,-34.1796875
188.96484375,48.828125,350.09765625,29.78515625
188.4765625,999.51171875,999.51171875,4.39453125
-99.609375,951.66015625,253.41796875,-60.05859375
-297.36328125,-229.98046875,-993.65234375,-77.1484375
-210.44921875,-1000.0,-1000.0,-56.15234375
127.44140625,-192.3828125,48.33984375,-21.97265625
217.28515625,999.51171875,999.51171875,-22.94921875
-62.5,625.9765625,322.265625,-94.7265625
-324.70703125,-754.8828125,-952.63671875,-186.5234375
-259.27734375,-1000.0,-1000.0,-202.63671875
119.62890625,-213.8671875,-115.72265625,-161.1328125
258.7890625,999.51171875,999.51171875,-148.92578125
-22.94921875,803.7109375,490.72265625,-190.91796875
-300.78125,-540.52734375,-841.30859375,-208.984375
-283.69140625,-1000.0,-1000.0,-216.796875
67.3828125,-176.26953125,-179.6875,-171.38671875
237.3046875,998.046875,999.51171875,-140.625
8.30078125,999.51171875,751.46484375,-180.17578125
-274.90234375,-104.4921875,-571.77734375,-221.19140625
-319.3359375,-1000.0,-1000.0,-221.6796875
61.5234375,-173.828125,-188.4765625,-176.7578125
280.76171875,990.72265625,999.51171875,-150.87890625
66.89453125,999.51171875,939.453125,-157.71484375
-229.98046875,104.98046875,-275.87890625,-195.3125
-332.03125,-1000.0,-1000.0,-200.68359375
-0.9765625,-506.8359375,-246.09375,-157.71484375
290.52734375,847.65625,971.6796875,-93.26171875
97.65625,999.51171875,999.51171875,-120.60546875
-235.3515625,182.6171875,0.9765625,-168.9453125
-350.5859375,-1000.0,-1000.0,-151.3671875
-66.40625,-789.0625,-376.953125,-102.5390625
265.13671875,569.82421875,908.203125,-59.08203125
170.41015625,999.51171875,999.51171875,-67.87109375
-171.875,217.28515625,154.296875,-117.1875
-356.93359375,-1000.0,-1000.0,-112.79296875
-67.3828125,-487.79296875,-487.79296875,0.48828125
265.625,874.51171875,846.6796875,90.8203125
171.38671875,999.51171875,999.51171875,91.30859375
-111.81640625,724.609375,210.44921875,39.0625
-338.37890625,-618.1640625,-1000.0,4.39453125
-150.87890625,-1000.0,-794.43359375,41.9921875
214.84375,59.5703125,542.48046875,123.046875
192.3828125,999.51171875,999.51171875,124.0234375
-95.21484375,380.859375,208.49609375,58.10546875
-298.828125,-914.0625,-1000.0,43.45703125
-166.50390625,-1000.0,-995.60546875,60.05859375
198.73046875,-227.5390625,217.7734375,120.1171875
241.69921875,999.51171875,999.51171875,116.2109375
-71.2890625,488.28125,278.80859375,39.55078125
-323.2421875,-921.875,-992.67578125,13.18359375
-219.7265625,-1000.0,-1000.0,49.31640625
174.31640625,16.11328125,63.96484375,110.3515625
279.78515625,999.51171875,999.51171875,120.1171875
-14.6484375,711.42578125,439.453125,68.359375
-319.82421875,-608.88671875,-868.65234375,-12.20703125
-265.625,-1000.0,-1000.0,6.8359375
138.671875,-181.640625,-132.8125,75.68359375
273.4375,999.51171875,999.51171875,53.22265625
12.20703125,999.51171875,722.16796875,-27.34375
-271.484375,-169.43359375,-604.4921875,-62.98828125
-306.640625,-1000.0,-1000.0,-47.36328125
72.265625,-177.734375,-168.45703125,19.53125
276.85546875,999.51171875,999.51171875,42.48046875
41.50390625,999.51171875,916.015625,18.5546875
-251.46484375,-29.296875,-317.87109375,-21.97265625
-327.63671875,-1000.0,-1000.0,-62.5
6.8359375,-536.1328125,-198.2421875,-68.359375
254.8828125,809.5703125,996.58203125,-95.21484375
65.4296875,999.51171875,999.51171875,-167.48046875
-233.88671875,133.30078125,-56.15234375,-287.109375
-343.26171875,-1000.0,-1000.0,-339.35546875
-8.7890625,-482.421875,-255.859375,-337.890625
289.0625,864.74609375,962.890625,-354.4921875
129.8828125,999.51171875,999.51171875,-341.30859375
-166.015625,221.19140625,136.23046875,-319.82421875
-324.70703125,-1000.0,-1000.0,-272.94921875
-84.9609375,-1000.0,-510.7421875,-255.37109375
247.55859375,239.74609375,833.0078125,-284.66796875
172.36328125,999.51171875,999.51171875,-267.08984375
-141.11328125,269.53125,159.66796875,-251.46484375
-284.66796875,-971.6796875,-1000.0,-247.0703125
-104.98046875,-1000.0,-772.94921875,-230.95703125
201.171875,-65.91796875,562.01171875,-240.234375
193.359375,999.51171875,999.51171875,-228.02734375
-116.2109375,376.953125,177.734375,-188.4765625
-344.7265625,-1000.0,-1000.0,-184.5703125
-172.36328125,-740.72265625,-833.49609375,-107.421875
214.35546875,659.66796875,478.02734375,-19.04296875
202.1484375,999.51171875,999.51171875,-86.9140625
-97.16796875,597.65625,245.60546875,-73.73046875
-298.828125,-705.078125,-1000.0,26.85546875
-202.1484375,-1000.0,-1000.0,79.58984375
138.671875,-187.98828125,82.03125,117.1875
238.28125,999.51171875,999.51171875,152.34375
-35.15625,784.1796875,392.08984375,121.58203125
-296.38671875,-568.84765625,-911.1328125,104.98046875
-245.1171875,-1000.0,-1000.0,114.74609375
116.2109375,-129.8828125,-63.4765625,157.71484375
267.578125,999.51171875,999.51171875,189.94140625
22.94921875,999.51171875,671.875,111.328125
-298.33984375,-126.46484375,-652.83203125,-43.45703125
-321.77734375,-1000.0,-1000.0,-65.4296875
87.890625,-263.18359375,-174.31640625,69.82421875
269.04296875,962.890625,999.51171875,112.3046875
29.296875,999.51171875,851.5625,90.33203125
-258.7890625,40.0390625,-431.15234375,61.5234375
-333.0078125,-1000.0,-1000.0,41.9921875
14.6484375,-360.3515625,-184.08203125,91.796875
254.39453125,916.9921875,999.51171875,131.34765625
65.4296875,999.51171875,984.86328125,64.94140625
-229.98046875,215.8203125,-169.43359375,32.71484375
-331.54296875,-1000.0,-1000.0,51.26953125
10.25390625,-623.53515625,-261.71875,105.46875
267.08984375,767.578125,964.35546875,130.859375
95.21484375,999.51171875,999.51171875,91.30859375
-208.0078125,178.22265625,48.33984375,40.52734375
-367.1875,-1000.0,-1000.0,0.48828125
-69.82421875,-872.55859375,-428.7109375,34.66796875
236.81640625,458.984375,883.7890625,86.42578125
129.39453125,999.51171875,999.51171875,62.5
-166.50390625,194.82421875,143.06640625,-0.9765625
-351.5625,-1000.0,-1000.0,-28.3203125
-111.328125,-515.625,-541.9921875,5.859375
231.4453125,843.75,806.640625,59.5703125
171.38671875,999.51171875,999.51171875,56.640625
-145.99609375,536.1328125,179.6875,4.8828125
-350.09765625,-785.15625,-1000.0,-3.90625
-169.43359375,-1000.0,-903.80859375,9.765625
195.80078125,-167.48046875,379.8828125,35.64453125
190.91796875,999.51171875,999.51171875,13.18359375
-143.06640625,288.0859375,191.40625,-23.4375
-349.609375,-985.83984375,-1000.0,-12.20703125
-192.3828125,-1000.0,-1000.0,-8.30078125
171.38671875,-226.07421875,172.36328125,37.109375
237.3046875,999.51171875,999.51171875,56.640625
-50.78125,666.9921875,334.47265625,-0.9765625
-328.61328125,-711.42578125,-952.1484375,-50.78125
-256.34765625,-1000.0,-1000.0,-43.45703125
130.37109375,-184.5703125,-17.08984375,13.671875
235.3515625,999.51171875,999.51171875,42.96875
-28.3203125,999.51171875,570.80078125,-20.99609375
-287.109375,-171.38671875,-761.71875,-61.03515625
-278.80859375,-1000.0,-1000.0,-29.78515625
86.9140625,-175.29296875,-155.76171875,-1.46484375
250.48828125,979.00390625,999.51171875,7.32421875
16.6015625,999.51171875,737.79296875,-40.52734375
-279.296875,147.94921875,-583.0078125,-82.03125
-314.453125,-1000.0,-1000.0,-78.61328125
64.453125,-294.43359375,-191.40625,-36.1328125
266.11328125,988.28125,999.51171875,-51.26953125
43.9453125,999.51171875,877.9296875,-141.6015625
-239.74609375,-9.765625,-383.30078125,-173.33984375
-313.4765625,-1000.0,-1000.0,-119.62890625
1.46484375,-568.359375,-247.0703125,-47.36328125
229.4921875,775.87890625,980.46875,-8.30078125
84.47265625,999.51171875,999.51171875,-28.80859375
-207.51953125,194.3359375,-88.37890625,-108.3984375
-360.83984375,-1000.0,-1000.0,-116.2109375
-40.0390625,-420.41015625,-315.4296875,-17.578125
278.80859375,913.0859375,940.91796875,36.62109375
133.30078125,999.51171875,999.51171875,8.30078125
-191.89453125,190.4296875,83.0078125,-35.15625
-346.6796875,-1000.0,-1000.0,-70.80078125
-79.1015625,-892.578125,-539.0625,-18.5546875
230.95703125,430.17578125,801.7578125,42.48046875
123.046875,999.51171875,999.51171875,-6.34765625
-173.828125,138.18359375,142.578125,-63.4765625
-338.8671875,-1000.0,-1000.0,-68.84765625
-150.87890625,-1000.0,-791.50390625,-22.94921875
202.63671875,42.96875,531.25,35.64453125
190.4296875,999.51171875,999.51171875,13.671875
-119.140625,815.91796875,195.3125,-49.8046875
-327.63671875,-459.47265625,-1000.0,-74.70703125
-193.359375,-1000.0,-989.2578125,-35.64453125
163.57421875,-195.3125,229.98046875,21.484375
208.0078125,999.51171875,999.51171875,29.78515625
-88.8671875,528.3203125,236.328125,-41.50390625
-332.03125,-852.05078125,-999.0234375,-74.21875
-240.234375,-1000.0,-1000.0,-25.87890625
132.8125,-223.6328125,-3.41796875,11.71875
230.46875,999.51171875,999.51171875,17.578125
-55.6640625,679.6875,341.30859375,-30.76171875
-298.828125,-696.77734375,-941.40625,-62.5
-250.9765625,-1000.0,-1000.0,-48.828125
90.8203125,-204.1015625,-161.62109375,-5.859375
243.1640625,999.51171875,999.51171875,30.2734375
-23.92578125,875.0,546.875,-21.484375
-292.96875,-425.29296875,-797.8515625,-83.49609375
-284.1796875,-1000.0,-1000.0,-70.80078125
66.89453125,-240.234375,-205.56640625,0.9765625
268.06640625,956.54296875,999.51171875,22.4609375
37.59765625,999.51171875,789.55078125,-32.71484375
-256.8359375,34.66796875,-525.87890625,-88.8671875
-303.7109375,-1000.0,-1000.0,-82.03125
30.2734375,-187.5,-204.1015625,-10.7421875
259.765625,997.55859375,999.51171875,13.18359375
53.22265625,999.51171875,930.6640625,-26.3671875
-262.20703125,125.9765625,-283.203125,-78.61328125
-344.23828125,-1000.0,-1000.0,-80.56640625
-15.625,-598.14453125,-299.31640625,-23.92578125
255.37109375,771.484375,946.2890625,14.6484375
119.62890625,999.51171875,999.51171875,-15.625
-183.10546875,177.734375,13.18359375,-68.84765625
-338.37890625,-1000.0,-1000.0,-55.17578125
-95.703125,-873.53515625,-468.26171875,-10.7421875
210.44921875,440.4296875,847.16796875,6.34765625
135.7421875,999.51171875,999.51171875,-20.99609375
-169.43359375,292.48046875,171.38671875,-85.44921875
-345.703125,-1000.0,-1000.0,-99.12109375
-123.53515625,-1000.0,-663.57421875,-56.640625
237.79296875,248.53515625,696.77734375,6.34765625
178.22265625,999.51171875,999.51171875,28.3203125
-175.29296875,280.76171875,168.9453125,-53.7109375
-363.28125,-983.88671875,-1000.0,-103.515625
-167.48046875,-1000.0,-871.09375,-50.78125
187.01171875,41.50390625,426.26953125,15.13671875
190.91796875,999.51171875,999.51171875,18.5546875
-112.79296875,447.75390625,217.7734375,-47.36328125
-319.82421875,-877.9296875,-1000.0,-73.73046875
-167.96875,-1000.0,-1000.0,-28.80859375
165.0390625,-194.82421875,176.7578125,7.8125
172.36328125,999.51171875,999.51171875,-38.0859375
-106.93359375,550.78125,317.3828125,-95.21484375
-348.6328125,-826.66015625,-952.1484375,-120.60546875
-278.3203125,-1000.0,-1000.0,-126.46484375
80.56640625,-221.19140625,-69.82421875,-83.0078125
183.59375,999.51171875,999.51171875,-83.0078125
-62.01171875,768.5546875,474.609375,-135.7421875
-346.19140625,-590.8203125,-850.5859375,-161.62109375
-350.5859375,-1000.0,-1000.0,-166.9921875
60.546875,-187.5,-171.875,-101.07421875
227.05078125,999.51171875,999.51171875,-46.875
-29.296875,968.75,678.22265625,-94.7265625
-305.17578125,-238.76953125,-660.15625,-128.90625
-327.1484375,-1000.0,-1000.0,-124.0234375
31.73828125,-434.08203125,-216.30859375,-56.15234375
261.23046875,859.375,999.51171875,-21.484375
60.05859375,999.51171875,893.06640625,-57.12890625
-250.9765625,144.04296875,-368.65234375,-110.3515625
-336.9140625,-1000.0,-1000.0,-117.67578125
7.32421875,-397.94921875,-239.74609375,-53.7109375
280.76171875,915.52734375,975.09765625,-22.94921875
103.515625,999.51171875,999.51171875,-15.13671875
-197.75390625,216.796875,-29.296875,-75.1953125
-339.35546875,-1000.0,-1000.0,-121.58203125
-52.24609375,-471.19140625,-363.76953125,-68.359375
269.53125,886.71875,924.31640625,-5.37109375
135.25390625,999.51171875,999.51171875,-26.85546875
-205.56640625,178.7109375,70.3125,-93.75
-360.83984375,-1000.0,-1000.0,-92.7734375
-94.23828125,-950.1953125,-593.26171875,-44.43359375
242.1875,323.2421875,749.0234375,-6.34765625
155.2734375,999.51171875,999.51171875,-20.01953125
-170.8984375,229.00390625,160.64453125,-70.80078125
-354.00390625,-1000.0,-1000.0,-94.23828125
-149.4140625,-1000.0,-826.171875,-44.43359375
217.7734375,58.59375,495.1171875,23.92578125
196.77734375,999.51171875,999.51171875,-9.765625
-130.859375,361.328125,166.015625,-70.3125
-347.65625,-932.12890625,-1000.0,-83.0078125
-193.84765625,-1000.0,-977.5390625,-69.3359375
172.36328125,-135.7421875,238.76953125,-9.765625
204.1015625,999.51171875,999.51171875,11.71875
-107.421875,562.5,245.60546875,-57.6171875
-332.51953125,-832.03125,-1000.0,-90.33203125
-225.09765625,-1000.0,-1000.0,-66.89453125
143.06640625,-45.8984375,46.38671875,-22.4609375
226.07421875,999.51171875,999.51171875,3.90625
-64.453125,615.234375,348.6328125,-61.03515625
-335.44921875,-733.88671875,-933.10546875,-114.2578125
-286.62109375,-1000.0,-1000.0,-89.84375
100.5859375,-186.03515625,-147.4609375,-31.25
255.37109375,999.51171875,999.51171875,16.6015625
7.8125,999.51171875,595.21484375,-31.25
-274.90234375,-172.8515625,-748.046875,-77.1484375
-289.0625,-1000.0,-1000.0,-73.73046875
87.40234375,-162.59765625,-174.31640625,-31.25
241.69921875,978.515625,999.51171875,11.23046875
11.23046875,999.51171875,861.81640625,-39.0625
-266.6015625,196.2890625,-406.73828125,-114.74609375
-331.54296875,-1000.0,-1000.0,-88.8671875
36.62109375,-560.546875,-225.09765625,-25.87890625
274.4140625,846.6796875,999.51171875,0.0
58.59375,999.51171875,959.47265625,-20.01953125
-246.09375,20.99609375,-243.65234375,-68.84765625
-328.125,-1000.0,-1000.0,-86.42578125
-4.39453125,-511.71875,-262.20703125,-16.11328125
258.30078125,835.44921875,949.70703125,-187.5
100.09765625,999.51171875,999.51171875,-495.1171875
-190.91796875,207.03125,111.81640625,-501.953125
-352.05078125,-1000.0,-1000.0,-482.421875
-55.6640625,-520.01953125,-377.9296875,-478.02734375
275.87890625,859.86328125,922.8515625,-449.70703125
137.20703125,999.51171875,999.51171875,-425.29296875
-206.0546875,135.7421875,129.8828125,-394.04296875
-368.1640625,-1000.0,-1000.0,-364.74609375
-124.0234375,-1000.0,-711.9140625,-348.14453125
222.16796875,-0.9765625,630.859375,-322.265625
183.59375,999.51171875,999.51171875,-222.16796875
-111.328125,395.01953125,166.50390625,-143.06640625
-302.734375,-960.9375,-1000.0,-90.8203125
-145.99609375,-1000.0,-902.83203125,3.41796875
212.890625,118.65234375,379.39453125,86.9140625
208.0078125,999.51171875,999.51171875,94.23828125
-109.86328125,515.625,203.125,52.24609375
-321.77734375,-807.12890625,-1000.0,22.94921875
-191.40625,-1000.0,-1000.0,41.50390625
163.0859375,-205.56640625,83.49609375,77.1484375
243.1640625,999.51171875,999.51171875,95.21484375
-38.0859375,735.3515625,312.98828125,78.61328125
-304.6875,-635.7421875,-960.9375,54.19921875
-208.0078125,-1000.0,-1000.0,58.59375
179.6875,-125.9765625,-63.96484375,127.9296875
257.32421875,974.609375,999.51171875,145.5078125
-18.5546875,999.51171875,667.48046875,81.54296875
-281.25,165.0390625,-662.109375,36.1328125
-281.73828125,-1000.0,-1000.0,45.8984375
102.5390625,-285.15625,-148.4375,113.28125
246.09375,999.51171875,999.51171875,130.37109375
-31.25,950.1953125,781.25,79.1015625
-280.2734375,-307.12890625,-529.78515625,36.1328125
-303.7109375,-1000.0,-1000.0,48.828125
72.75390625,-256.34765625,-174.31640625,113.28125
272.4609375,947.75390625,999.51171875,128.41796875
33.69140625,999.51171875,976.07421875,84.47265625
-250.0,97.16796875,-200.68359375,34.66796875
-335.9375,-1000.0,-1000.0,8.7890625
-0.9765625,-386.71875,-200.68359375,72.75390625
257.8125,912.109375,989.2578125,119.140625
98.14453125,999.51171875,999.51171875,73.73046875
-212.890625,201.171875,32.2265625,12.20703125
-336.9140625,-1000.0,-1000.0,15.13671875
-28.3203125,-790.0390625,-371.58203125,68.359375
239.74609375,553.22265625,915.52734375,91.30859375
114.74609375,999.51171875,999.51171875,58.10546875
-174.31640625,365.72265625,143.06640625,4.8828125
-352.05078125,-1000.0,-1000.0,-8.30078125
-115.72265625,-870.1171875,-566.40625,22.4609375
232.91015625,525.390625,789.55078125,65.91796875
167.48046875,999.51171875,999.51171875,61.03515625
-155.76171875,151.85546875,148.92578125,-14.6484375
-331.0546875,-1000.0,-1000.0,-51.26953125
-144.53125,-1000.0,-842.7734375,-10.7421875
205.078125,-41.9921875,463.8671875,51.7578125
216.796875,999.51171875,999.51171875,53.7109375
-88.8671875,530.2734375,186.03515625,-6.34765625
-321.2890625,-841.30859375,-1000.0,-36.1328125
-206.54296875,-1000.0,-986.81640625,-5.859375
162.109375,-6.8359375,224.12109375,39.55078125
224.609375,999.51171875,999.51171875,53.7109375
-49.31640625,971.6796875,312.5,-25.390625
-290.52734375,-201.171875,-970.703125,-78.61328125
-220.21484375,-1000.0,-1000.0,-25.390625
146.484375,-221.6796875,44.43359375,44.43359375
225.5859375,999.51171875,999.51171875,44.921875
-79.58984375,705.56640625,307.12890625,-28.3203125
-317.87109375,-668.45703125,-961.42578125,-59.5703125
-225.5859375,-1000.0,-1000.0,-34.1796875
120.1171875,-187.01171875,-111.328125,-4.8828125
221.19140625,999.51171875,999.51171875,12.20703125
-33.203125,992.1875,579.58984375,-42.96875
-290.52734375,-213.8671875,-761.71875,-90.33203125
-283.69140625,-1000.0,-1000.0,-62.98828125
107.91015625,-236.81640625,-162.59765625,5.859375
276.85546875,975.5859375,999.51171875,27.83203125
3.90625,999.51171875,800.29296875,-26.3671875
-244.140625,-11.71875,-501.953125,-52.24609375
-294.921875,-1000.0,-1000.0,-64.453125
35.64453125,-427.24609375,-199.70703125,-19.04296875
283.203125,881.8359375,999.51171875,39.55078125
65.4296875,999.51171875,949.70703125,-0.9765625
-234.375,169.921875,-250.48828125,-53.7109375
-321.2890625,-1000.0,-1000.0,-61.03515625
-25.390625,-661.62109375,-299.8046875,-26.85546875
268.06640625,723.14453125,936.03515625,29.78515625
124.51171875,999.51171875,999.51171875,-14.16015625
-215.33203125,179.19921875,82.51953125,-81.0546875
-347.16796875,-1000.0,-1000.0,-86.42578125
-70.3125,-837.40234375,-475.5859375,-33.69140625
239.74609375,498.53515625,850.5859375,27.83203125
161.1328125,999.51171875,999.51171875,3.90625
-153.80859375,234.86328125,161.62109375,-57.12890625
-337.40234375,-1000.0,-1000.0,-77.63671875
-109.375,-1000.0,-688.96484375,-57.12890625
191.40625,162.109375,657.71484375,-29.296875
128.90625,999.51171875,999.51171875,-26.85546875
-129.8828125,806.15234375,198.73046875,-103.02734375
-331.54296875,-459.9609375,-1000.0,-153.3203125
-181.640625,-1000.0,-943.359375,-165.0390625
169.43359375,-169.43359375,319.82421875,-125.0
188.4765625,999.51171875,999.51171875,-81.0546875
-106.4453125,389.6484375,210.9375,-99.609375
-336.42578125,-939.94140625,-1000.0,-113.76953125
-209.9609375,-1000.0,-1000.0,-74.21875
163.0859375,-192.87109375,87.890625,-34.66796875
225.5859375,999.51171875,999.51171875,-4.8828125
-63.96484375,958.49609375,374.51171875,-19.04296875
-309.08203125,-345.703125,-936.5234375,-81.0546875
-240.72265625,-1000.0,-1000.0,-56.640625
132.32421875,64.453125,13.671875,8.30078125
234.86328125,999.51171875,999.51171875,-25.390625
-42.96875,779.78515625,535.15625,-128.90625
-309.5703125,-504.39453125,-784.66796875,-249.0234375
-288.0859375,-1000.0,-1000.0,-247.55859375
80.078125,-213.8671875,-188.96484375,-120.1171875
251.46484375,994.140625,999.51171875,-46.38671875
19.04296875,999.51171875,728.515625,-52.24609375
-256.8359375,-153.3203125,-604.4921875,-74.70703125
-302.24609375,-1000.0,-1000.0,-67.3828125
72.75390625,-216.796875,-187.98828125,-20.5078125
294.43359375,961.42578125,999.51171875,16.6015625
48.33984375,999.51171875,943.84765625,-25.87890625
-243.65234375,193.359375,-263.671875,-58.10546875
-337.40234375,-1000.0,-1000.0,-83.49609375
5.37109375,-602.05078125,-273.4375,-53.7109375
280.2734375,782.71484375,972.16796875,15.13671875
80.078125,999.51171875,999.51171875,-14.16015625
-223.14453125,166.015625,-70.80078125,-65.91796875
-336.42578125,-1000.0,-1000.0,-70.3125
-51.7578125,-879.39453125,-433.59375,-28.3203125
260.25390625,422.8515625,864.74609375,10.25390625
150.87890625,999.51171875,999.51171875,5.37109375
-147.4609375,674.31640625,146.97265625,-48.33984375
-306.15234375,-732.421875,-1000.0,-80.56640625
-101.07421875,-1000.0,-622.0703125,-42.48046875
214.35546875,324.70703125,737.3046875,2.9296875
168.45703125,999.51171875,999.51171875,14.6484375
-150.87890625,174.31640625,155.76171875,-46.38671875
-355.95703125,-1000.0,-1000.0,-89.84375
-152.83203125,-1000.0,-828.61328125,-37.109375
204.58984375,92.28515625,484.86328125,11.23046875
220.703125,999.51171875,999.51171875,14.6484375
-81.54296875,408.203125,202.1484375,-35.15625
-324.21875,-949.21875,-1000.0,-81.54296875
-187.01171875,-1000.0,-955.078125,-44.43359375
197.265625,155.2734375,289.55078125,9.27734375
230.95703125,999.51171875,999.51171875,14.6484375
-68.84765625,679.19921875,304.19921875,-37.59765625
-322.75390625,-627.9296875,-957.03125,-72.75390625
-244.140625,-1000.0,-1000.0,-54.19921875
146.484375,-189.453125,-37.109375,-17.08984375
232.421875,999.51171875,999.51171875,-4.39453125
-31.25,827.63671875,466.796875,-51.7578125
-291.9921875,-501.46484375,-852.5390625,-87.40234375
-267.578125,-1000.0,-1000.0,-68.359375
116.2109375,-196.77734375,-169.921875,-26.85546875
257.32421875,999.51171875,999.51171875,-20.5078125
-1.953125,898.4375,644.53125,-49.8046875
-265.625,-370.60546875,-700.1953125,-92.7734375
-306.15234375,-1000.0,-1000.0,-125.0
32.2265625,-378.41796875,-209.47265625,-57.12890625
247.55859375,889.16015625,999.51171875,-10.7421875
33.203125,999.51171875,852.05078125,-59.08203125
-246.58203125,99.609375,-427.734375,-115.234375
-318.84765625,-1000.0,-1000.0,-116.69921875
9.765625,-314.453125,-244.62890625,-71.2890625
253.41796875,936.5234375,994.140625,-29.296875
73.2421875,999.51171875,991.2109375,-54.19921875
-214.84375,334.9609375,-155.2734375,-117.1875
-328.61328125,-1000.0,-1000.0,-153.3203125
-44.43359375,-880.859375,-467.28515625,-108.3984375
256.8359375,491.2109375,871.58203125,-73.73046875
123.046875,999.51171875,999.51171875,-128.41796875
-188.96484375,155.76171875,-73.2421875,-171.38671875
-325.1953125,-1000.0,-1000.0,-176.7578125
-102.5390625,-963.8671875,-621.58203125,-115.72265625
243.65234375,311.03515625,710.9375,-32.71484375
187.01171875,999.51171875,999.51171875,-7.8125
-147.4609375,160.15625,92.28515625,-51.7578125
-323.2421875,-1000.0,-1000.0,-58.10546875
-110.3515625,-967.7734375,-734.86328125,-63.96484375
226.5625,298.828125,596.6796875,-128.90625
194.3359375,999.51171875,999.51171875,-165.52734375
-104.00390625,185.05859375,187.01171875,-154.296875
-315.91796875,-999.0234375,-1000.0,-184.08203125
-182.12890625,-1000.0,-853.515625,-197.265625
175.78125,-98.6328125,443.359375,-94.23828125
217.28515625,999.51171875,999.51171875,-22.4609375
-78.125,612.79296875,433.59375,-58.59375
-323.2421875,-767.578125,-966.796875,-83.0078125
-225.09765625,-1000.0,-928.22265625,-32.71484375
160.64453125,-41.015625,435.546875,51.26953125
239.2578125,999.51171875,999.51171875,42.48046875
-18.06640625,940.91796875,770.5078125,-16.6015625
-276.85546875,-278.3203125,-565.91796875,-37.109375
-261.23046875,-1000.0,-1000.0,-25.390625
141.6015625,-183.10546875,260.25390625,37.59765625
251.46484375,999.51171875,999.51171875,50.78125
-33.69140625,999.51171875,862.79296875,3.90625
-291.50390625,-177.24609375,-373.53515625,-41.50390625
-275.390625,-1000.0,-1000.0,-20.99609375
108.3984375,-161.62109375,16.11328125,43.9453125
250.48828125,976.07421875,999.51171875,36.62109375
28.3203125,999.51171875,918.9453125,-3.41796875
-247.55859375,223.14453125,-265.13671875,-35.64453125
-312.98828125,-1000.0,-1000.0,-34.66796875
44.921875,-480.95703125,-162.59765625,15.13671875
244.62890625,911.1328125,999.51171875,15.13671875
48.828125,999.51171875,956.0546875,-30.76171875
-247.0703125,-22.4609375,-233.88671875,-62.5
-329.58984375,-1000.0,-1000.0,-47.36328125
33.203125,-606.93359375,-235.3515625,18.5546875
272.4609375,740.234375,999.51171875,58.10546875
83.49609375,999.51171875,999.51171875,2.44140625
-234.86328125,183.59375,-132.32421875,-47.36328125
-356.93359375,-1000.0,-1000.0,-33.203125
-35.15625,-340.8203125,-335.44921875,20.99609375
248.53515625,948.73046875,937.98828125,47.36328125
114.2578125,999.51171875,999.51171875,30.76171875
-182.12890625,178.22265625,6.8359375,-23.92578125
-337.40234375,-1000.0,-1000.0,-32.2265625
-85.9375,-1000.0,-683.10546875,30.2734375
236.328125,182.6171875,654.78515625,36.1328125
158.203125,999.51171875,999.51171875,-0.48828125
-186.5234375,192.87109375,74.21875,-49.8046875
-345.703125,-1000.0,-1000.0,-61.03515625
-134.27734375,-1000.0,-923.33984375,-5.37109375
200.1953125,-9.765625,330.078125,49.8046875
186.03515625,999.51171875,999.51171875,26.85546875
-143.5546875,355.46875,107.91015625,-25.87890625
-312.98828125,-929.6875,-1000.0,-53.7109375
-164.55078125,-1000.0,-1000.0,-29.296875
187.98828125,-230.95703125,-36.1328125,38.0859375
231.93359375,999.51171875,999.51171875,27.34375
-98.6328125,729.4921875,150.390625,-43.9453125
-292.48046875,-641.11328125,-1000.0,-67.87109375
-181.15234375,-1000.0,-1000.0,-12.20703125
140.625,-182.6171875,-165.0390625,35.15625
230.46875,999.51171875,999.51171875,10.7421875
-36.62109375,999.51171875,261.23046875,-33.69140625
-284.1796875,-173.33984375,-994.62890625,-41.9921875
-256.34765625,-1000.0,-1000.0,-35.15625
103.515625,-201.66015625,-194.82421875,-29.78515625
233.3984375,999.51171875,999.51171875,-28.80859375
-63.96484375,936.5234375,509.765625,-56.15234375
-336.9140625,-325.1953125,-831.54296875,-75.68359375
-317.3828125,-1000.0,-1000.0,-67.87109375
51.26953125,-205.56640625,-188.4765625,-26.3671875
207.51953125,970.21484375,999.51171875,-17.08984375
-42.96875,999.51171875,869.140625,-62.5
-307.12890625,55.6640625,-402.34375,-93.75
-355.46875,-1000.0,-1000.0,-96.19140625
4.39453125,-176.7578125,-159.66796875,-41.9921875
229.98046875,983.88671875,993.1640625,-12.6953125
29.78515625,999.51171875,999.51171875,-46.38671875
-255.37109375,309.5703125,32.2265625,-81.54296875
-354.00390625,-1000.0,-1000.0,-90.8203125
-52.734375,-916.50390625,-233.88671875,-30.2734375
211.42578125,427.734375,975.09765625,14.6484375
72.265625,999.51171875,999.51171875,-30.2734375
-229.98046875,175.78125,179.19921875,-73.73046875
-354.4921875,-1000.0,-1000.0,-72.75390625
-73.73046875,-814.94140625,-310.546875,-42.48046875
232.421875,521.97265625,952.1484375,13.18359375
125.48828125,999.51171875,999.51171875,5.859375
-176.7578125,296.38671875,242.1875,-68.84765625
-349.609375,-965.33203125,-1000.0,-71.2890625
-139.6484375,-1000.0,-541.50390625,-16.11328125
210.44921875,37.59765625,814.94140625,23.92578125
164.55078125,999.51171875,999.51171875,22.4609375
-155.2734375,680.17578125,257.32421875,-47.8515625
-345.21484375,-654.78515625,-1000.0,-88.37890625
-166.015625,-1000.0,-832.51953125,-39.55078125
201.66015625,-145.01953125,501.953125,11.71875
191.89453125,999.51171875,999.51171875,-24.4140625
-129.39453125,444.3359375,224.12109375,-81.54296875
-348.14453125,-903.80859375,-999.0234375,-93.75
-231.93359375,-1000.0,-1000.0,-77.63671875
137.20703125,-233.3984375,23.92578125,-19.04296875
215.33203125,999.51171875,999.51171875,9.27734375
-85.9375,708.0078125,260.7421875,-52.734375
-326.171875,-668.9453125,-977.5390625,-105.46875
-252.44140625,-1000.0,-1000.0,-84.47265625
113.28125,-199.70703125,-179.6875,-27.34375
244.62890625,999.51171875,999.51171875,-0.9765625
-40.52734375,904.296875,372.0703125,-53.22265625
-302.734375,-388.18359375,-936.03515625,-108.3984375
-283.203125,-1000.0,-1000.0,-81.0546875
100.09765625,-171.875,-234.375,-32.2265625
278.3203125,999.0234375,999.51171875,-4.8828125
-2.44140625,999.51171875,524.90234375,-39.0625
-283.203125,-62.01171875,-822.265625,-86.42578125
-308.10546875,-1000.0,-1000.0,-78.125
38.0859375,-414.55078125,-287.109375,-14.6484375
273.92578125,882.32421875,999.51171875,16.11328125
41.50390625,999.51171875,790.0390625,-47.36328125
-268.5546875,180.17578125,-533.203125,-83.984375
-303.7109375,-1000.0,-1000.0,-61.03515625
37.109375,-520.99609375,-342.28515625,-22.4609375
270.99609375,836.9140625,931.640625,7.8125
102.05078125,999.51171875,999.51171875,-17.578125
-176.7578125,622.55859375,-76.66015625,-61.5234375
-329.1015625,-839.84375,-1000.0,-80.078125
-61.03515625,-971.19140625,-515.13671875,-24.4140625
247.0703125,470.703125,828.61328125,29.296875
119.140625,999.51171875,999.51171875,-29.78515625
-190.4296875,159.66796875,22.94921875,-64.453125
-335.9375,-1000.0,-1000.0,-61.03515625
-90.33203125,-954.1015625,-636.23046875,-29.296875
250.0,306.15234375,703.125,14.16015625
179.6875,999.51171875,999.51171875,-10.25390625
-155.2734375,315.91796875,137.6953125,-57.12890625
-333.0078125,-956.0546875,-1000.0,-78.125
-152.34375,-1000.0,-828.61328125,-34.1796875
192.3828125,-2.9296875,479.98046875,10.7421875
180.6640625,999.51171875,999.51171875,-16.11328125
-150.87890625,332.03125,182.12890625,-83.0078125
-348.6328125,-941.89453125,-1000.0,-97.16796875
-172.36328125,-1000.0,-995.1171875,-10.25390625
187.01171875,-238.76953125,207.03125,11.23046875
206.54296875,999.51171875,999.51171875,-32.2265625
-109.86328125,585.44921875,280.2734375,-45.41015625
-329.58984375,-819.3359375,-989.74609375,-69.3359375
-219.7265625,-1000.0,-1000.0,-49.8046875
152.34375,-97.16796875,58.59375,5.37109375
240.72265625,999.51171875,999.51171875,6.34765625
-51.26953125,779.296875,443.359375,-12.6953125
-292.96875,-541.015625,-862.79296875,-63.4765625
-257.32421875,-1000.0,-1000.0,-91.30859375
102.05078125,-187.98828125,-137.6953125,1.46484375
264.6484375,987.3046875,999.51171875,37.59765625
16.11328125,999.51171875,705.56640625,-28.3203125
-261.71875,-55.17578125,-620.60546875,-86.42578125
-270.99609375,-1000.0,-1000.0,-70.80078125
96.19140625,-339.84375,-177.734375,-4.39453125
283.203125,914.55078125,999.51171875,22.4609375
51.26953125,999.51171875,948.73046875,-32.71484375
-211.42578125,219.7265625,-257.32421875,-91.796875
-291.015625,-1000.0,-1000.0,-80.56640625
47.8515625,-480.95703125,-223.14453125,-27.83203125
314.94140625,883.30078125,999.51171875,1.46484375
99.12109375,999.51171875,969.23828125,-19.04296875
-212.40234375,186.03515625,-202.63671875,-61.5234375
-289.55078125,-1000.0,-1000.0,-49.8046875
18.5546875,-734.86328125,-368.65234375,0.0
308.59375,641.11328125,921.875,43.45703125
150.87890625,999.51171875,999.51171875,11.23046875
-179.6875,168.45703125,-20.5078125,-64.453125
-290.0390625,-1000.0,-1000.0,-60.05859375
-5.859375,-910.15625,-548.828125,-7.32421875
291.50390625,391.6015625,783.203125,9.27734375
159.66796875,999.51171875,999.51171875,0.48828125
-163.57421875,208.0078125,86.42578125,-38.57421875
-303.22265625,-1000.0,-1000.0,-66.89453125
-97.65625,-1000.0,-801.7578125,-18.5546875
234.86328125,147.4609375,513.18359375,43.9453125
194.3359375,999.51171875,999.51171875,-3.41796875
-128.90625,430.6640625,140.625,-71.77734375
-293.45703125,-916.015625,-1000.0,-68.84765625
-132.32421875,-1000.0,-962.890625,-47.8515625
209.47265625,61.03515625,269.04296875,16.6015625
235.3515625,999.51171875,999.51171875,16.11328125
-84.9609375,444.3359375,197.75390625,-53.7109375
-297.8515625,-874.0234375,-1000.0,-75.68359375
-187.98828125,-1000.0,-1000.0,-43.45703125
167.48046875,-231.93359375,10.7421875,5.859375
235.3515625,999.51171875,999.51171875,-15.625
-59.08203125,697.75390625,313.96484375,-51.26953125
-297.36328125,-682.12890625,-957.51953125,-72.75390625
-252.9296875,-1000.0,-1000.0,-72.265625
138.671875,-158.69140625,-130.859375,-0.9765625
260.7421875,962.890625,999.51171875,14.16015625
-14.16015625,999.51171875,670.41015625,-43.45703125
-266.6015625,188.4765625,-664.0625,-88.37890625
-275.87890625,-1000.0,-1000.0,-65.91796875
89.84375,-211.42578125,-171.875,-16.6015625
249.0234375,999.51171875,999.51171875,2.9296875
8.7890625,999.51171875,821.2890625,-34.1796875
-270.99609375,40.52734375,-470.21484375,-95.21484375
-316.40625,-1000.0,-1000.0,-96.6796875
50.29296875,-494.62890625,-199.21875,-31.73828125
264.16015625,868.65234375,999.51171875,-3.41796875
40.0390625,999.51171875,935.546875,-45.8984375
-251.953125,20.5078125,-277.83203125,-74.21875
-330.56640625,-1000.0,-1000.0,-79.1015625
1.953125,-659.66796875,-261.23046875,-26.85546875
260.7421875,693.359375,975.09765625,6.8359375
93.75,999.51171875,999.51171875,-37.109375
-231.93359375,177.24609375,-52.734375,-81.0546875
-363.76953125,-1000.0,-1000.0,-111.81640625
-52.24609375,-653.3203125,-394.53125,-42.96875
265.13671875,730.46875,895.99609375,31.25
156.25,999.51171875,999.51171875,-20.99609375
-189.94140625,175.78125,129.39453125,-77.63671875
-373.53515625,-1000.0,-1000.0,-88.8671875
-131.34765625,-1000.0,-707.51953125,-39.0625
238.76953125,113.76953125,636.71875,-0.48828125
182.6171875,999.51171875,999.51171875,-15.13671875
-178.22265625,343.26171875,150.390625,-69.82421875
-355.46875,-958.984375,-1000.0,-103.02734375
-154.296875,-1000.0,-892.08984375,-40.0390625
189.94140625,25.390625,393.06640625,3.90625
183.10546875,999.51171875,999.51171875,-10.25390625
-114.74609375,503.41796875,178.22265625,-58.10546875
-337.890625,-842.28515625,-1000.0,-83.984375
-195.3125,-1000.0,-1000.0,-50.29296875
171.38671875,-78.125,112.79296875,1.46484375
221.19140625,999.51171875,999.51171875,-3.41796875
-73.73046875,999.51171875,327.63671875,-72.75390625
-327.63671875,1.46484375,-948.2421875,-106.4453125
-251.953125,-1000.0,-1000.0,-59.5703125
129.8828125,-237.79296875,-88.37890625,-0.9765625
229.4921875,999.51171875,999.51171875,21.484375
-66.89453125,703.125,390.625,-34.1796875
-304.19921875,-669.43359375,-913.0859375,-70.80078125
-260.7421875,-1000.0,-1000.0,-53.22265625
107.91015625,-187.01171875,-186.03515625,-25.87890625
263.671875,999.51171875,999.51171875,0.9765625
-14.6484375,999.0234375,630.37109375,-24.4140625
-282.71484375,-221.6796875,-716.30859375,-71.77734375
-293.45703125,-1000.0,-1000.0,-69.82421875
87.40234375,-120.1171875,-179.19921875,19.53125
281.25,999.51171875,999.51171875,34.66796875
33.203125,999.51171875,856.93359375,-48.33984375
-274.90234375,26.85546875,-409.66796875,-97.16796875
-340.33203125,-1000.0,-1000.0,-94.23828125
-4.39453125,-570.3125,-239.2578125,-34.66796875
255.859375,777.34375,988.28125,1.953125
66.40625,999.51171875,999.51171875,-37.59765625
-254.39453125,182.6171875,-113.28125,-71.2890625
-329.1015625,-1000.0,-1000.0,-62.5
-25.390625,-804.6875,-362.3046875,-64.453125
248.046875,555.17578125,913.57421875,-67.3828125
119.140625,999.51171875,999.51171875,-65.91796875
-201.66015625,153.3203125,93.75,-101.5625
-327.63671875,-1000.0,-1000.0,-105.95703125
-94.23828125,-1000.0,-541.50390625,-57.6171875
203.125,210.44921875,797.36328125,-23.4375
125.9765625,999.51171875,999.51171875,-16.6015625
-186.03515625,370.60546875,160.15625,-45.8984375
-346.6796875,-940.4296875,-1000.0,-86.9140625
-144.53125,-1000.0,-745.60546875,-42.48046875
213.8671875,57.12890625,589.84375,7.8125
176.26953125,999.51171875,999.51171875,-5.37109375
-132.32421875,817.87109375,217.28515625,-32.2265625
-315.4296875,-459.47265625,-1000.0,-75.68359375
-166.9921875,-1000.0,-955.078125,-68.84765625
197.75390625,-173.33984375,302.24609375,-0.48828125
219.23828125,999.51171875,999.51171875,-6.8359375
-88.37890625,520.5078125,250.0,-72.265625
-334.47265625,-853.02734375,-988.28125,-87.40234375
-207.51953125,-1000.0,-1000.0,-68.359375
165.52734375,-208.984375,-5.37109375,-19.04296875
210.9375,999.51171875,999.51171875,0.0
-50.29296875,896.97265625,391.11328125,-47.36328125
-275.87890625,-403.80859375,-915.52734375,-82.51953125
-241.69921875,-1000.0,-1000.0,-74.21875
121.58203125,-173.828125,-93.26171875,5.859375
262.6953125,999.51171875,999.51171875,9.27734375
-1.953125,905.76171875,523.4375,-37.109375
-286.62109375,-360.3515625,-802.734375,-73.73046875
-292.96875,-1000.0,-1000.0,-78.61328125
82.51953125,-270.5078125,-205.078125,-10.25390625
273.92578125,927.24609375,999.51171875,13.18359375
41.015625,999.51171875,784.1796875,-12.6953125
-244.140625,205.56640625,-526.3671875,-62.5
-298.33984375,-1000.0,-1000.0,-85.9375
51.26953125,-498.046875,-237.79296875,-20.01953125
276.3671875,872.55859375,999.51171875,10.25390625
51.26953125,999.51171875,940.91796875,-32.2265625
-247.0703125,166.015625,-278.80859375,-81.0546875
-328.61328125,-1000.0,-1000.0,-91.30859375
-28.80859375,-752.9296875,-324.21875,-28.80859375
248.53515625,614.74609375,941.89453125,14.16015625
102.5390625,999.51171875,999.51171875,-19.04296875
-251.953125,184.5703125,-30.2734375,-104.4921875
-401.85546875,-1000.0,-1000.0,-140.13671875
-101.07421875,-682.12890625,-417.48046875,-59.08203125
216.796875,681.640625,880.859375,-12.20703125
95.703125,999.51171875,999.51171875,-76.171875
-208.0078125,589.84375,150.87890625,-113.76953125
-409.1796875,-768.06640625,-1000.0,-140.625
-208.49609375,-1000.0,-677.24609375,-97.65625
163.0859375,101.07421875,676.26953125,-9.765625
116.69921875,999.51171875,999.51171875,-36.62109375
-193.359375,200.1953125,155.2734375,-99.609375
-350.5859375,-1000.0,-1000.0,-95.21484375
-162.109375,-1000.0,-860.3515625,-57.6171875
180.17578125,12.6953125,437.01171875,-25.390625
187.5,999.51171875,999.51171875,-18.06640625
-132.8125,541.9921875,218.75,-59.08203125
-339.35546875,-867.67578125,-1000.0,-105.95703125
-186.03515625,-1000.0,-983.3984375,-68.84765625
160.64453125,196.2890625,242.1875,9.765625
201.171875,999.51171875,999.51171875,-10.25390625
-92.7734375,823.2421875,340.33203125,-99.609375
-311.5234375,-424.8046875,-934.08203125,-108.88671875
-214.35546875,-1000.0,-1000.0,-53.22265625
128.90625,-202.63671875,-75.1953125,-1.46484375
225.5859375,999.51171875,999.51171875,-2.9296875
-56.640625,855.95703125,465.33203125,-36.62109375
-307.12890625,-465.8203125,-857.91015625,-55.17578125
-264.6484375,-1000.0,-1000.0,-61.5234375
103.02734375,-190.4296875,-184.08203125,-2.44140625
266.6015625,999.51171875,999.51171875,8.7890625
7.32421875,999.51171875,682.6171875,-67.87109375
-271.484375,-141.6015625,-658.203125,-93.26171875
-280.2734375,-1000.0,-1000.0,-62.5
62.98828125,-217.28515625,-183.10546875,-19.04296875
251.46484375,958.0078125,999.51171875,18.06640625
35.15625,999.51171875,966.30859375,-34.66796875
-241.69921875,218.75,-213.37890625,-46.875
-325.68359375,-1000.0,-1000.0,-54.19921875
-15.13671875,-721.19140625,-245.60546875,-35.64453125
254.8828125,633.30078125,971.6796875,3.90625
87.890625,999.51171875,999.51171875,-41.50390625
-211.42578125,471.19140625,30.76171875,-76.66015625
-327.63671875,-947.265625,-1000.0,-62.5
-54.19921875,-979.4921875,-372.0703125,-5.859375
238.76953125,402.83203125,921.38671875,11.23046875
117.67578125,999.51171875,999.51171875,-37.59765625
-199.21875,152.83203125,105.95703125,-62.98828125
-353.02734375,-1000.0,-1000.0,-63.4765625
-91.796875,-1000.0,-547.36328125,-31.73828125
237.79296875,206.54296875,794.43359375,9.765625
153.80859375,999.51171875,999.51171875,-27.34375
-166.015625,351.07421875,185.05859375,-71.2890625
-326.66015625,-1000.0,-1000.0,-74.21875
-130.859375,-870.60546875,-679.6875,-42.48046875
192.3828125,489.2578125,674.31640625,2.44140625
171.38671875,999.51171875,999.51171875,-19.53125
-133.30078125,413.57421875,213.37890625,-83.49609375
-328.61328125,-872.55859375,-1000.0,-83.49609375
-172.36328125,-1000.0,-957.03125,-40.0390625
165.0390625,-194.3359375,291.015625,-3.90625
187.5,999.51171875,999.51171875,-11.71875
-104.00390625,592.7734375,277.34375,-46.875
-312.01171875,-788.57421875,-983.3984375,-85.44921875
-193.84765625,-1000.0,-1000.0,-70.3125
135.25390625,-177.24609375,36.62109375,14.6484375
209.9609375,984.86328125,999.51171875,36.1328125
-54.6875,999.51171875,528.3203125,-60.05859375
-287.59765625,-28.80859375,-791.015625,-110.83984375
-262.6953125,-1000.0,-1000.0,-86.9140625
84.47265625,-297.36328125,-137.6953125,-26.3671875
217.28515625,989.2578125,999.51171875,8.30078125
-23.92578125,999.51171875,658.203125,-31.73828125
-252.9296875,-156.25,-676.7578125,-65.91796875
-303.7109375,-1000.0,-1000.0,-56.640625
79.1015625,-225.5859375,-174.8046875,-23.92578125
286.62109375,954.1015625,999.51171875,-9.765625
3.90625,999.51171875,862.3046875,-49.8046875
-268.5546875,229.00390625,-394.04296875,-68.359375
-311.5234375,-1000.0,-1000.0,-66.89453125
25.87890625,-535.64453125,-206.54296875,-10.25390625
240.72265625,858.88671875,999.51171875,9.765625
60.05859375,999.51171875,992.1875,-50.29296875
-235.3515625,118.1640625,-153.3203125,-86.9140625
-347.65625,-1000.0,-1000.0,-79.1015625
-10.25390625,-745.1171875,-297.36328125,-5.859375
282.71484375,612.3046875,941.40625,9.765625
112.3046875,999.51171875,999.51171875,-38.57421875
-229.4921875,195.3125,100.5859375,-87.890625
-365.72265625,-1000.0,-1000.0,-92.7734375
-56.15234375,-433.59375,-386.71875,-23.4375
258.30078125,907.2265625,916.9921875,28.80859375
109.86328125,999.51171875,999.51171875,-32.71484375
-223.6328125,169.921875,136.71875,-99.609375
-344.23828125,-1000.0,-1000.0,-98.6328125
-103.515625,-1000.0,-696.77734375,-15.13671875
250.48828125,165.0390625,649.90234375,34.1796875
186.5234375,999.51171875,999.51171875,-12.20703125
-163.57421875,263.671875,155.76171875,-41.9921875
-337.890625,-969.7265625,-1000.0,-62.98828125
-158.203125,-1000.0,-936.5234375,-54.19921875
200.68359375,-122.55859375,314.94140625,-8.7890625
213.8671875,999.51171875,999.51171875,-0.9765625
-103.02734375,630.37109375,244.62890625,-60.05859375
-341.30859375,-734.375,-1000.0,-82.03125
-218.75,-1000.0,-1000.0,-55.6640625
168.9453125,-172.8515625,119.140625,1.953125
219.7265625,999.51171875,999.51171875,14.16015625
-74.70703125,799.31640625,348.14453125,-81.0546875
-293.9453125,-535.64453125,-933.10546875,-121.58203125
-213.8671875,-1000.0,-1000.0,-67.87109375
143.5546875,-166.015625,-89.84375,-10.25390625
222.16796875,981.4453125,999.51171875,-5.859375
-36.1328125,999.51171875,635.25390625,-47.36328125
-274.90234375,42.96875,-693.84765625,-69.3359375
-300.29296875,-1000.0,-1000.0,-62.98828125
46.38671875,-346.19140625,-166.9921875,-28.80859375
243.1640625,954.1015625,999.51171875,8.7890625
10.7421875,999.51171875,810.546875,-27.34375
-261.71875,-16.6015625,-485.83984375,-74.70703125
-306.640625,-1000.0,-1000.0,-62.98828125
87.890625,-354.4921875,-182.6171875,-12.20703125
304.19921875,920.41015625,999.51171875,18.06640625
12.20703125,999.51171875,961.9140625,-37.59765625
-280.2734375,162.109375,-226.07421875,-88.37890625
-327.1484375,-1000.0,-1000.0,-89.84375
9.27734375,-340.8203125,-221.19140625,-48.33984375
264.16015625,944.82421875,983.88671875,1.953125
83.984375,999.51171875,999.51171875,-36.1328125
-243.1640625,195.3125,6.8359375,-96.6796875
-357.91015625,-1000.0,-1000.0,-84.9609375
-48.33984375,-780.2734375,-380.859375,-36.62109375
241.69921875,584.47265625,908.203125,-4.8828125
109.86328125,999.51171875,999.51171875,-32.2265625
-199.21875,169.43359375,143.06640625,-87.890625
-350.5859375,-1000.0,-1000.0,-93.75
-84.9609375,-961.9140625,-594.7265625,-40.0390625
230.95703125,286.1328125,754.8828125,17.08984375
124.0234375,999.51171875,999.51171875,-15.13671875
-173.33984375,563.96484375,196.2890625,-62.01171875
-335.9375,-826.66015625,-1000.0,-59.08203125
-141.11328125,-1000.0,-773.92578125,-37.109375
206.0546875,197.265625,565.91796875,2.9296875
160.64453125,999.51171875,999.51171875,-24.4140625
-150.390625,416.9921875,200.68359375,-89.84375
-344.7265625,-880.37109375,-1000.0,-99.609375
-190.91796875,-1000.0,-1000.0,-47.36328125
170.8984375,-218.26171875,175.29296875,16.11328125
217.28515625,999.51171875,999.51171875,8.7890625
-82.03125,708.0078125,275.87890625,-33.69140625
-306.15234375,-661.1328125,-973.14453125,-77.1484375
-219.23828125,-1000.0,-1000.0,-83.49609375
142.578125,-207.51953125,-68.84765625,-5.37109375
219.7265625,999.51171875,999.51171875,3.41796875
-46.38671875,841.30859375,446.2890625,-62.98828125
-303.22265625,-486.328125,-875.9765625,-66.40625
-267.08984375,-1000.0,-1000.0,-76.171875
120.1171875,-181.640625,-148.92578125,-40.0390625
255.37109375,973.14453125,999.51171875,7.32421875
22.94921875,999.51171875,744.62890625,-42.96875
-256.34765625,57.12890625,-572.75390625,-90.33203125
-309.5703125,-1000.0,-1000.0,-78.125
77.63671875,-182.12890625,-178.7109375,-13.18359375
259.765625,990.234375,999.51171875,6.8359375
8.30078125,999.51171875,871.09375,-34.1796875
-259.765625,229.98046875,-391.11328125,-65.4296875
-314.94140625,-1000.0,-1000.0,-63.4765625
17.578125,-470.21484375,-221.6796875,-30.76171875
250.9765625,890.13671875,999.51171875,-29.78515625
56.640625,999.51171875,995.60546875,-46.875
-241.69921875,172.8515625,-150.390625,-82.03125
-329.1015625,-1000.0,-1000.0,-84.47265625
-14.16015625,-748.53515625,-333.984375,-15.625
256.34765625,620.60546875,923.828125,14.6484375
102.05078125,999.51171875,999.51171875,-41.015625
-217.7734375,159.66796875,101.07421875,-98.6328125
-353.02734375,-1000.0,-1000.0,-97.16796875
-81.54296875,-975.5859375,-529.78515625,-53.22265625
213.8671875,273.4375,811.03515625,-20.99609375
128.90625,999.51171875,999.51171875,-24.4140625
-149.4140625,282.2265625,166.50390625,-57.12890625
-341.796875,-1000.0,-1000.0,-91.30859375
-131.34765625,-1000.0,-695.3125,-40.0390625
234.86328125,185.546875,653.80859375,-7.8125
169.43359375,999.51171875,999.51171875,-31.25
-133.30078125,539.0625,219.7265625,-63.4765625
-322.265625,-859.86328125,-1000.0,-103.515625
-143.06640625,-1000.0,-853.515625,-62.01171875
210.9375,213.37890625,460.44921875,23.92578125
186.5234375,999.51171875,999.51171875,9.765625
-99.12109375,661.1328125,265.13671875,-58.10546875
-319.82421875,-639.16015625,-989.2578125,-80.56640625
-208.0078125,-1000.0,-1000.0,-62.98828125
166.9921875,-188.4765625,74.70703125,-41.015625
234.86328125,999.51171875,999.51171875,-32.2265625
-46.875,887.6953125,401.85546875,-50.29296875
-302.734375,-418.45703125,-901.85546875,-81.54296875
-251.46484375,-1000.0,-1000.0,-90.33203125
119.62890625,-151.3671875,-79.58984375,-2.44140625
225.09765625,999.51171875,999.51171875,5.859375
-37.59765625,937.01171875,551.26953125,-63.4765625
-276.3671875,-304.6875,-779.78515625,-93.75
-292.96875,-1000.0,-1000.0,-72.75390625
66.89453125,-263.671875,-196.2890625,-3.90625
255.859375,935.546875,999.51171875,-8.7890625
23.92578125,999.51171875,769.04296875,-48.828125
-264.16015625,169.921875,-544.43359375,-79.1015625
-297.8515625,-1000.0,-1000.0,-72.75390625
68.84765625,-421.38671875,-207.51953125,-7.8125
248.046875,905.76171875,999.51171875,15.625
31.73828125,999.51171875,995.60546875,-45.8984375
-241.69921875,212.40234375,-147.4609375,-97.16796875
-342.28515625,-1000.0,-1000.0,-83.0078125
-4.39453125,-605.95703125,-288.57421875,-14.6484375
255.37109375,763.18359375,957.03125,16.11328125
78.125,999.51171875,999.51171875,-31.73828125
-188.4765625,407.2265625,36.62109375,-79.58984375
-327.63671875,-954.1015625,-1000.0,-58.10546875
-50.78125,-1000.0,-451.66015625,1.46484375
247.55859375,255.37109375,867.1875,-3.90625
118.1640625,999.51171875,999.51171875,-26.3671875
-173.828125,182.12890625,134.27734375,-54.6875
-330.078125,-1000.0,-1000.0,-94.7265625
-102.5390625,-1000.0,-608.3984375,-33.69140625
219.23828125,101.5625,743.1640625,6.34765625
159.1796875,999.51171875,999.51171875,-17.08984375
-141.11328125,299.8046875,170.41015625,-62.01171875
-322.75390625,-978.02734375,-1000.0,-109.86328125
-135.25390625,-1000.0,-822.265625,-60.546875
200.68359375,26.85546875,489.2578125,-3.90625
178.7109375,999.51171875,999.51171875,-6.34765625
-110.3515625,810.546875,250.0,-42.48046875
-311.03515625,-514.16015625,-1000.0,-67.87109375
-186.5234375,-1000.0,-1000.0,-33.69140625
182.6171875,17.08984375,196.2890625,19.53125
216.796875,999.51171875,999.51171875,0.9765625
-93.26171875,508.30078125,278.80859375,-57.6171875
-321.2890625,-829.1015625,-970.21484375,-82.51953125
-239.2578125,-1000.0,-1000.0,-91.796875
124.0234375,-198.2421875,-68.359375,-31.73828125
264.6484375,999.51171875,999.51171875,17.08984375
-11.23046875,967.28515625,455.078125,-38.57421875
-291.9921875,-266.11328125,-862.3046875,-63.4765625
-274.90234375,-1000.0,-1000.0,-60.05859375
92.7734375,-202.63671875,-175.78125,-23.4375
246.09375,956.0546875,999.51171875,24.90234375
-26.3671875,999.51171875,786.62109375,-37.59765625
-295.8984375,224.609375,-523.4375,-104.4921875
-308.10546875,-1000.0,-1000.0,-81.0546875
68.359375,-476.5625,-210.44921875,-27.83203125
270.99609375,905.76171875,999.51171875,1.46484375
19.04296875,999.51171875,865.234375,-32.2265625
-258.7890625,36.1328125,-409.66796875,-72.265625
-299.8046875,-1000.0,-1000.0,-70.80078125
29.78515625,-587.890625,-248.53515625,-20.5078125
268.06640625,768.06640625,978.02734375,8.7890625
76.66015625,999.51171875,999.51171875,-36.62109375
-208.49609375,184.5703125,-78.125,-89.35546875
-305.17578125,-1000.0,-1000.0,-81.0546875
-3.90625,-750.9765625,-342.28515625,-41.50390625
265.625,622.55859375,926.7578125,-7.8125
117.1875,999.51171875,999.51171875,-18.06640625
-187.5,156.73828125,90.8203125,-60.05859375
-359.86328125,-1000.0,-1000.0,-66.40625
-102.5390625,-990.234375,-569.82421875,-55.17578125
230.46875,232.91015625,773.92578125,-33.69140625
156.73828125,999.51171875,999.51171875,-32.71484375
-168.9453125,565.4296875,158.69140625,-75.1953125
-329.1015625,-833.0078125,-1000.0,-105.46875
-125.0,-1000.0,-757.8125,-49.31640625
203.125,226.5625,583.984375,9.765625
172.36328125,999.51171875,999.51171875,-21.97265625
-157.2265625,240.72265625,167.96875,-56.640625
-333.49609375,-969.7265625,-1000.0,-88.8671875
-150.390625,-1000.0,-972.65625,-61.03515625
175.78125,-187.01171875,250.48828125,-7.8125
196.77734375,999.51171875,999.51171875,-21.97265625
-110.3515625,688.96484375,265.13671875,-77.63671875
-333.984375,-677.734375,-983.3984375,-95.703125
-228.02734375,-1000.0,-1000.0,-59.08203125
139.16015625,-165.52734375,-5.37109375,-3.41796875
235.83984375,973.14453125,999.51171875,-12.20703125
-16.6015625,999.51171875,529.296875,-65.4296875
-292.48046875,76.171875,-801.7578125,-89.35546875
-284.66796875,-1000.0,-1000.0,-61.03515625
129.8828125,-232.421875,-109.375,-0.48828125
245.1171875,999.51171875,999.51171875,-7.32421875
-36.1328125,857.91015625,592.7734375,-72.265625
-309.5703125,-449.21875,-742.67578125,-104.00390625
-293.45703125,-1000.0,-1000.0,-70.3125
114.74609375,-243.1640625,-178.22265625,-16.11328125
273.92578125,976.5625,999.51171875,-4.39453125
5.859375,999.51171875,834.9609375,-56.640625
-285.64453125,-103.515625,-454.1015625,-86.42578125
-325.1953125,-1000.0,-1000.0,-96.6796875
69.82421875,-191.89453125,-182.12890625,-40.0390625
279.296875,977.05078125,999.51171875,12.20703125
54.6875,999.51171875,973.14453125,-35.15625
-233.3984375,166.015625,-187.5,-77.63671875
-340.8203125,-1000.0,-1000.0,-82.03125
-15.625,-698.73046875,-302.24609375,-35.64453125
277.34375,672.36328125,953.125,26.3671875
114.2578125,999.51171875,999.51171875,-20.99609375
-208.0078125,182.6171875,-1.46484375,-92.28515625
-343.26171875,-1000.0,-1000.0,-82.51953125
-64.94140625,-790.52734375,-469.23828125,-37.59765625
250.9765625,575.1953125,851.07421875,-9.765625
130.37109375,999.51171875,999.51171875,-4.8828125
-209.47265625,145.01953125,116.69921875,-48.828125
-362.3046875,-1000.0,-1000.0,-92.28515625
-119.140625,-1000.0,-715.33203125,-62.01171875
219.23828125,98.6328125,626.46484375,-13.671875
192.3828125,999.51171875,999.51171875,-6.34765625
-140.625,317.87109375,145.01953125,-47.8515625
-360.3515625,-965.8203125,-1000.0,-86.42578125
-167.96875,-1000.0,-905.2734375,-44.921875
191.89453125,16.6015625,361.328125,5.859375
186.03515625,999.51171875,999.51171875,-16.11328125
-119.62890625,906.25,233.88671875,-81.54296875
-318.84765625,-325.1953125,-1000.0,-94.23828125
-202.63671875,-1000.0,-1000.0,-55.17578125
189.453125,-171.38671875,97.16796875,-6.8359375
251.953125,999.51171875,999.51171875,13.671875
-114.2578125,471.19140625,274.4140625,-49.8046875
-338.8671875,-889.16015625,-972.16796875,-105.95703125
-234.86328125,-1000.0,-1000.0,-65.91796875
116.2109375,-229.4921875,-119.62890625,-11.71875
257.32421875,999.51171875,999.51171875,-33.69140625
-25.87890625,985.3515625,506.34765625,-62.5
-319.3359375,-249.51171875,-828.61328125,-82.03125
-293.9453125,-1000.0,-1000.0,-71.77734375
104.4921875,-179.6875,-153.3203125,-5.37109375
288.0859375,999.51171875,999.51171875,2.9296875
20.99609375,999.51171875,738.28125,-56.640625
-277.83203125,-104.00390625,-580.078125,-96.6796875
-332.51953125,-1000.0,-1000.0,-94.7265625
36.62109375,-214.35546875,-189.94140625,-36.1328125
264.6484375,975.09765625,999.51171875,4.8828125
46.875,999.51171875,916.015625,-39.55078125
-235.3515625,115.72265625,-313.96484375,-83.49609375
-312.5,-1000.0,-1000.0,-64.453125
15.13671875,-521.484375,-251.46484375,-11.23046875
254.8828125,841.796875,985.3515625,5.859375
78.125,999.51171875,999.51171875,-19.04296875
-242.1875,167.96875,-100.09765625,-80.078125
-333.49609375,-1000.0,-1000.0,-94.23828125
-14.16015625,-858.3984375,-412.59765625,-42.48046875
252.44140625,474.12109375,885.25390625,-0.9765625
119.62890625,999.51171875,999.51171875,-4.8828125
-204.1015625,191.40625,90.8203125,-74.21875
-349.12109375,-1000.0,-1000.0,-94.7265625
-90.33203125,-750.48828125,-562.01171875,-26.85546875
243.1640625,612.3046875,776.3671875,9.765625
162.109375,999.51171875,999.51171875,-34.66796875
-148.92578125,708.984375,164.55078125,-91.30859375
-313.96484375,-607.91015625,-1000.0,-83.984375
-131.34765625,-1000.0,-880.37109375,-28.3203125
228.02734375,-5.37109375,416.50390625,0.48828125
205.078125,999.51171875,999.51171875,-17.578125
-142.08984375,503.90625,172.8515625,-55.6640625
-321.77734375,-836.42578125,-1000.0,-89.84375
-155.76171875,-1000.0,-1000.0,-48.828125
165.52734375,-229.98046875,178.22265625,-3.41796875
200.1953125,999.51171875,999.51171875,-3.41796875
-83.984375,507.32421875,233.3984375,-48.33984375
-302.24609375,-900.87890625,-1000.0,-81.0546875
-203.125,-1000.0,-1000.0,-46.875
150.87890625,-59.08203125,35.64453125,-1.46484375
238.28125,999.51171875,999.51171875,9.765625
-52.734375,655.2734375,359.86328125,-64.94140625
-292.48046875,-687.01171875,-920.8984375,-90.8203125
-262.6953125,-1000.0,-1000.0,-47.8515625
110.83984375,-191.89453125,-167.48046875,5.859375
276.3671875,979.4921875,999.51171875,23.4375
-7.8125,999.51171875,669.43359375,-36.62109375
-269.04296875,-32.71484375,-669.43359375,-79.58984375
-266.6015625,-1000.0,-1000.0,-60.546875
95.703125,-200.1953125,-184.5703125,-2.9296875
270.99609375,997.0703125,999.51171875,-0.9765625
23.4375,999.51171875,846.6796875,-47.36328125
-255.37109375,36.1328125,-431.15234375,-79.1015625
-301.26953125,-1000.0,-1000.0,-77.1484375
53.7109375,-535.64453125,-235.83984375,-23.92578125
296.875,815.91796875,999.51171875,16.11328125
65.91796875,999.51171875,977.5390625,-33.203125
-271.484375,155.76171875,-195.80078125,-96.19140625
-347.16796875,-1000.0,-1000.0,-90.33203125
-21.97265625,-846.6796875,-364.74609375,-18.06640625
248.53515625,460.44921875,911.62109375,16.11328125
113.28125,999.51171875,999.51171875,-33.203125
-183.59375,582.03125,58.59375,-67.87109375
-302.24609375,-790.52734375,-1000.0,-62.98828125
-82.03125,-1000.0,-567.87109375,-36.62109375
202.63671875,152.34375,777.34375,8.30078125
151.3671875,999.51171875,999.51171875,-16.11328125
-167.48046875,159.66796875,139.16015625,-73.73046875
-327.63671875,-1000.0,-1000.0,-68.359375
-96.19140625,-1000.0,-663.57421875,-36.1328125
